Elapsed Time (s),Position (mm),Force (N)
-0.009,81.4094,0.003171
0.023,81.4094,0.003171
0.053,81.4094,0.003171
0.084,81.4094,0.003171
0.115,81.4094,0.003256
0.145,81.4094,0.003256
0.176,81.4094,0.003256
0.207,81.4094,0.003256
0.238,81.4094,0.003256
0.268,81.4094,0.003256
0.299,81.4094,0.003256
0.329,81.4094,0.003256
0.360,81.4094,0.003284
0.392,81.4094,0.003284
0.422,81.4094,0.003284
0.454,81.4094,0.003284
0.485,81.4094,0.003284
0.515,81.4094,0.003284
0.547,81.4094,0.003284
0.577,81.4094,0.003284
0.609,81.4094,0.003331
0.639,81.4094,0.003331
0.671,81.4094,0.003331
0.702,81.4094,0.003331
0.733,81.4094,0.003331
0.765,81.4094,0.003331
0.796,81.4094,0.003331
0.828,81.4094,0.003416
0.858,81.4094,0.003416
0.889,81.4094,0.003416
0.921,81.4094,0.003416
0.951,81.4094,0.003416
0.982,81.4094,0.003416
1.014,81.4094,0.003416
1.045,81.4094,0.003416
1.076,81.4094,0.003416
1.107,81.4094,0.003472
1.139,81.4094,0.003472
1.171,81.4094,0.003472
1.202,81.4094,0.003472
1.233,81.4094,0.003472
1.264,81.4094,0.003472
1.295,81.4094,0.003472
1.327,81.4094,0.003472
1.359,81.4094,0.003444
1.389,81.4094,0.003444
1.419,81.4094,0.003444
1.451,81.4094,0.003444
1.482,81.4094,0.003444
1.512,81.4094,0.003444
1.544,81.4094,0.003444
1.575,81.4094,0.003407
1.605,81.4094,0.003407
1.636,81.4094,0.003407
1.667,81.4094,0.003407
1.697,81.4094,0.003407
1.729,81.4094,0.003407
1.759,81.4094,0.003407
1.792,81.4094,0.003407
1.821,81.4094,0.003407
1.852,81.4094,0.003407
1.884,81.4094,0.003454
1.915,81.4094,0.003454
1.945,81.4094,0.003454
1.978,81.4094,0.003454
2.008,81.4094,0.003454
2.039,81.4094,0.003454
2.071,81.4094,0.003454
2.101,81.4094,0.003454
2.132,81.4094,0.003435
2.167,81.4094,0.003435
2.193,81.4094,0.003435
2.225,81.4094,0.003435
2.256,81.4094,0.003435
2.288,81.4094,0.003435
2.319,81.4094,0.003435
2.350,81.4094,0.003435
2.381,81.4094,0.003454
2.410,81.4094,0.003454
2.441,81.4094,0.003454
2.473,81.4094,0.003454
2.505,81.4094,0.003454
2.536,81.4094,0.003454
2.566,81.4094,0.003454
2.597,81.4094,0.003454
2.629,81.4094,0.003529
2.658,81.4094,0.003529
2.690,81.4094,0.003529
2.723,81.4094,0.003529
2.752,81.4094,0.003529
2.783,81.4094,0.003529
2.813,81.4094,0.003529
2.844,81.4094,0.003529
2.875,81.4094,0.003529
2.908,81.4094,0.003482
2.938,81.4094,0.003482
2.970,81.4094,0.003482
2.999,81.4094,0.003482
3.031,81.4094,0.003482
3.061,81.4094,0.003482
3.093,81.4094,0.003491
3.124,81.4094,0.003491
3.155,81.4094,0.003491
3.187,81.4094,0.003491
3.217,81.4094,0.003491
3.249,81.4094,0.003491
3.280,81.4094,0.003491
3.312,81.4094,0.003491
3.342,81.4094,0.003491
3.372,81.4094,0.003510
3.404,81.4094,0.003510
3.435,81.4094,0.003510
3.467,81.4094,0.003510
3.497,81.4094,0.003510
3.528,81.4094,0.003510
3.559,81.4094,0.003510
3.590,81.4094,0.003510
3.624,81.4094,0.003510
3.652,81.4094,0.003501
3.683,81.4094,0.003501
3.713,81.4094,0.003501
3.745,81.4094,0.003501
3.777,81.4094,0.003501
3.808,81.4094,0.003501
3.840,81.4094,0.003501
3.870,81.4094,0.003501
3.903,81.4094,0.003519
3.932,81.4094,0.003519
3.963,81.4094,0.003519
3.994,81.4094,0.003519
4.025,81.4094,0.003519
4.056,81.4094,0.003519
4.090,81.4094,0.003519
4.118,81.4089,0.003519
4.150,81.4076,0.003529
4.181,81.4056,0.003529
4.212,81.4029,0.003529
4.243,81.3996,0.003529
4.275,81.3953,0.003529
4.306,81.3904,0.003529
4.337,81.3847,0.003529
4.368,81.3785,0.003529
4.399,81.3713,0.003830
4.431,81.3631,0.003830
4.461,81.3549,0.003830
4.494,81.3450,0.003830
4.524,81.3353,0.003830
4.555,81.3245,0.003830
4.586,81.3134,0.003830
4.617,81.3011,0.004865
4.648,81.2879,0.004865
4.679,81.2743,0.004865
4.709,81.2603,0.004865
4.740,81.2451,0.004865
4.772,81.2292,0.004865
4.804,81.2120,0.004865
4.835,81.1950,0.004865
4.866,81.1766,0.004865
4.897,81.1583,0.006239
4.928,81.1381,0.006239
4.962,81.1164,0.006239
4.990,81.0978,0.006239
5.021,81.0750,0.006239
5.052,81.0530,0.006239
5.082,81.0307,0.007359
5.113,81.0069,0.007359
5.144,80.9815,0.007359
5.176,80.9557,0.007359
5.207,80.9299,0.007359
5.237,80.9036,0.007359
5.269,80.8762,0.007359
5.299,80.8485,0.007359
5.330,80.8195,0.007359
5.360,80.7906,0.007359
5.392,80.7602,0.008413
5.423,80.7287,0.008413
5.454,80.6973,0.008413
5.486,80.6631,0.008413
5.514,80.6330,0.008413
5.548,80.5960,0.008413
5.581,80.5584,0.008413
5.609,80.5264,0.008413
5.641,80.4898,0.009345
5.671,80.4538,0.009345
5.702,80.4154,0.009345
5.733,80.3767,0.009345
5.764,80.3383,0.009345
5.796,80.2971,0.009345
5.827,80.2574,0.009345
5.857,80.2158,0.009345
5.889,80.1740,0.010003
5.921,80.1298,0.010003
5.954,80.0827,0.010003
5.982,80.0421,0.010003
6.013,79.9971,0.010003
6.055,79.9355,0.010003
6.091,79.8815,0.010549
6.122,79.8334,0.010549
6.156,79.7804,0.010549
6.186,79.7349,0.010549
6.216,79.6851,0.010549
6.247,79.6351,0.010549
6.278,79.5824,0.010549
6.309,79.5323,0.010549
6.341,79.4782,0.010549
6.372,79.4247,0.010549
6.402,79.3724,0.011038
6.433,79.3170,0.011038
6.464,79.2626,0.011038
6.494,79.2066,0.011038
6.526,79.1494,0.011038
6.557,79.0906,0.011038
6.587,79.0346,0.011038
6.618,78.9734,0.011434
6.649,78.9146,0.011434
6.681,78.8534,0.011434
6.712,78.7933,0.011434
6.744,78.7322,0.011434
6.775,78.6730,0.011434
6.806,78.6168,0.011434
6.837,78.5599,0.011434
6.868,78.5029,0.011434
6.899,78.4469,0.011424
6.930,78.3937,0.011424
6.960,78.3400,0.011424
6.991,78.2857,0.011424
7.023,78.2336,0.011424
7.054,78.1804,0.011424
7.085,78.1296,0.011424
7.116,78.0793,0.011424
7.147,78.0300,0.010860
7.177,77.9818,0.010860
7.209,77.9324,0.010860
7.240,77.8844,0.010860
7.271,77.8387,0.010860
7.302,77.7917,0.010860
7.333,77.7452,0.010860
7.364,77.7019,0.010191
7.397,77.6554,0.010191
7.427,77.6137,0.010191
7.459,77.5701,0.010191
7.490,77.5287,0.010191
7.519,77.4892,0.010191
7.551,77.4495,0.010191
7.581,77.4098,0.010191
7.613,77.3703,0.009674
7.647,77.3285,0.009674
7.673,77.2979,0.009674
7.707,77.2580,0.009674
7.739,77.2211,0.009674
7.770,77.1857,0.009674
7.802,77.1498,0.009674
7.831,77.1180,0.009119
7.863,77.0847,0.009119
7.893,77.0537,0.009119
7.924,77.0226,0.009119
7.956,76.9908,0.009119
7.987,76.9614,0.009119
8.020,76.9294,0.009119
8.049,76.9030,0.009119
8.080,76.8752,0.009119
8.110,76.8498,0.009119
8.141,76.8225,0.008658
8.173,76.7967,0.008658
8.205,76.7713,0.008658
8.235,76.7479,0.008658
8.269,76.7221,0.008658
8.297,76.7016,0.008658
8.328,76.6798,0.008658
8.359,76.6586,0.008300
8.390,76.6378,0.008300
8.421,76.6178,0.008300
8.452,76.5991,0.008300
8.483,76.5809,0.008300
8.516,76.5617,0.008300
8.544,76.5469,0.008300
8.575,76.5308,0.008300
8.610,76.5134,0.008300
8.638,76.5004,0.008008
8.668,76.4865,0.008008
8.699,76.4732,0.008008
8.728,76.4616,0.008008
8.760,76.4492,0.008008
8.791,76.4382,0.008008
8.822,76.4278,0.008008
8.853,76.4182,0.007764
8.883,76.4096,0.007764
8.914,76.4013,0.007764
8.945,76.3940,0.007764
8.977,76.3872,0.007764
9.007,76.3812,0.007764
9.038,76.3759,0.007764
9.070,76.3714,0.007764
9.102,76.3674,0.007764
9.132,76.3645,0.007444
9.164,76.3621,0.007444
9.194,76.3605,0.007444
9.226,76.3595,0.007444
9.255,76.3594,0.007444
9.288,76.3594,0.007444
9.319,76.3594,0.007444
9.351,76.3594,0.007180
9.381,76.3594,0.007180
9.412,76.3594,0.007180
9.443,76.3595,0.007180
9.474,76.3604,0.007180
9.506,76.3619,0.007180
9.537,76.3641,0.007180
9.568,76.3672,0.007180
9.598,76.3707,0.007180
9.630,76.3752,0.007067
9.660,76.3803,0.007067
9.691,76.3862,0.007067
9.722,76.3930,0.007067
9.754,76.4003,0.007067
9.785,76.4086,0.007067
9.817,76.4175,0.007067
9.846,76.4266,0.007067
9.877,76.4366,0.006935
9.909,76.4479,0.006935
9.940,76.4597,0.006935
9.973,76.4729,0.006935
10.004,76.4860,0.006935
10.034,76.5001,0.006935
10.065,76.5145,0.006935
10.095,76.5295,0.006719
10.126,76.5453,0.006719
10.157,76.5621,0.006719
10.188,76.5799,0.006719
10.219,76.5984,0.006719
10.250,76.6177,0.006719
10.282,76.6371,0.006719
10.313,76.6584,0.006719
10.344,76.6794,0.006578
10.375,76.7017,0.006578
10.407,76.7240,0.006578
10.437,76.7477,0.006578
10.469,76.7720,0.006578
10.500,76.7977,0.006578
10.529,76.8210,0.006578
10.561,76.8481,0.006578
10.592,76.8747,0.006493
10.622,76.9022,0.006493
10.654,76.9315,0.006493
10.685,76.9600,0.006493
10.716,76.9899,0.006493
10.747,77.0203,0.006493
10.778,77.0520,0.006493
10.810,77.0854,0.006493
10.840,77.1170,0.006493
10.872,77.1524,0.006343
10.902,77.1849,0.006343
10.933,77.2202,0.006343
10.964,77.2554,0.006343
10.995,77.2923,0.006343
11.026,77.3290,0.006343
11.056,77.3664,0.006343
11.087,77.4054,0.006286
11.119,77.4456,0.006286
11.149,77.4848,0.006286
11.180,77.5264,0.006286
11.212,77.5680,0.006286
11.243,77.6104,0.006286
11.274,77.6532,0.006286
11.304,77.6957,0.006286
11.336,77.7421,0.006286
11.367,77.7863,0.006286
11.397,77.8325,0.006286
11.428,77.8789,0.006286
11.459,77.9269,0.006286
11.490,77.9742,0.006286
11.522,78.0240,0.006286
11.553,78.0739,0.006286
11.585,78.1258,0.006286
11.615,78.1742,0.006192
11.647,78.2300,0.006192
11.676,78.2776,0.006192
11.707,78.3301,0.006192
11.738,78.3842,0.006192
11.769,78.4390,0.006192
11.800,78.4954,0.006192
11.831,78.5509,0.006192
11.862,78.6089,0.005994
11.893,78.6655,0.005994
11.924,78.7220,0.005994
11.955,78.7823,0.005994
11.984,78.8382,0.005994
12.015,78.8985,0.005994
12.046,78.9574,0.005994
12.077,79.0163,0.005994
12.107,79.0733,0.005599
12.139,79.1310,0.005599
12.169,79.1867,0.005599
12.200,79.2423,0.005599
12.231,79.2977,0.005599
12.262,79.3522,0.005599
12.293,79.4056,0.005599
12.324,79.4593,0.005599
12.355,79.5108,0.005044
12.386,79.5620,0.005044
12.418,79.6149,0.005044
12.448,79.6634,0.005044
12.479,79.7130,0.005044
12.510,79.7608,0.005044
12.542,79.8104,0.005044
12.572,79.8562,0.005044
12.603,79.9035,0.005044
12.634,79.9490,0.004084
12.665,79.9936,0.004084
12.696,80.0375,0.004084
12.729,80.0839,0.004084
12.760,80.1268,0.004084
12.790,80.1674,0.004084
12.821,80.2079,0.004084
12.853,80.2494,0.002842
12.883,80.2898,0.002842
12.914,80.3275,0.002842
12.944,80.3652,0.002842
12.975,80.4027,0.002842
13.006,80.4391,0.002842
13.038,80.4762,0.002842
13.068,80.5109,0.002842
13.099,80.5457,0.002842
13.130,80.5804,0.001835
13.161,80.6135,0.001835
13.192,80.6460,0.001835
13.223,80.6786,0.001835
13.255,80.7096,0.001835
13.286,80.7402,0.001835
13.317,80.7693,0.001835
13.348,80.7985,0.001035
13.379,80.8277,0.001035
13.410,80.8540,0.001035
13.441,80.8809,0.001035
13.472,80.9069,0.001035
13.503,80.9322,0.001035
13.533,80.9570,0.001035
13.565,80.9806,0.001035
13.595,81.0036,0.001035
13.626,81.0254,0.000423
13.658,81.0480,0.000423
13.689,81.0689,0.000423
13.720,81.0895,0.000423
13.752,81.1087,0.000423
13.783,81.1281,0.000423
13.813,81.1454,0.000423
13.844,81.1629,0.000423
13.875,81.1792,0.000320
13.906,81.1954,0.000320
13.938,81.2105,0.000320
13.969,81.2248,0.000320
13.999,81.2385,0.000320
14.031,81.2516,0.000320
14.061,81.2634,0.000320
14.092,81.2745,0.000320
14.123,81.2856,0.000612
14.154,81.2954,0.000612
14.185,81.3048,0.000612
14.217,81.3134,0.000612
14.246,81.3209,0.000612
14.278,81.3281,0.000612
14.311,81.3353,0.000612
14.340,81.3402,0.000612
14.371,81.3451,0.001280
14.403,81.3493,0.001280
14.434,81.3528,0.001280
14.465,81.3557,0.001280
14.498,81.3576,0.001280
14.527,81.3589,0.001280
14.558,81.3594,0.001280
14.588,81.3594,0.001280
14.620,81.3594,0.002268
14.649,81.3594,0.002268
14.680,81.3594,0.002268
14.711,81.3594,0.002268
14.743,81.3594,0.002268
14.773,81.3594,0.002268
14.804,81.3594,0.002268
14.835,81.3594,0.003068
14.863,81.3594,0.003068
14.897,81.3594,0.003068
14.928,81.3594,0.003068
14.961,81.3594,0.003068
14.990,81.3594,0.003068
15.021,81.3594,0.003068
15.052,81.3594,0.003068
15.082,81.3594,0.003068
15.113,81.3594,0.003068
15.144,81.3594,0.003068
15.176,81.3594,0.003322
15.207,81.3594,0.003322
15.238,81.3594,0.003322
15.269,81.3594,0.003322
15.299,81.3594,0.003322
15.330,81.3594,0.003322
15.364,81.3594,0.003407
15.393,81.3594,0.003407
15.425,81.3594,0.003407
15.455,81.3594,0.003407
15.486,81.3594,0.003407
15.517,81.3594,0.003407
15.548,81.3594,0.003407
15.580,81.3594,0.003407
15.610,81.3594,0.003407
15.642,81.3594,0.003463
15.672,81.3594,0.003463
15.703,81.3594,0.003463
15.735,81.3594,0.003463
15.766,81.3594,0.003463
15.796,81.3594,0.003463
15.827,81.3594,0.003463
15.857,81.3594,0.003463
15.891,81.3594,0.003463
15.920,81.3594,0.003463
15.951,81.3594,0.003463
15.983,81.3594,0.003463
16.016,81.3594,0.003463
16.045,81.3594,0.003463
16.076,81.3594,0.003463
16.107,81.3594,0.003463
16.139,81.3594,0.003491
16.171,81.3594,0.003491
16.202,81.3594,0.003491
16.233,81.3594,0.003491
16.263,81.3594,0.003491
16.294,81.3594,0.003491
16.325,81.3594,0.003491
16.357,81.3594,0.003519
16.388,81.3594,0.003519
16.419,81.3594,0.003519
16.451,81.3594,0.003519
16.482,81.3594,0.003519
16.513,81.3594,0.003519
16.545,81.3594,0.003519
16.580,81.3594,0.003519
16.608,81.3594,0.003519
16.640,81.3594,0.003538
16.671,81.3594,0.003538
16.701,81.3594,0.003538
16.732,81.3594,0.003538
16.763,81.3594,0.003538
16.794,81.3594,0.003538
16.825,81.3594,0.003538
16.856,81.3594,0.003519
16.891,81.3594,0.003519
16.917,81.3594,0.003519
16.948,81.3594,0.003519
16.979,81.3594,0.003519
17.010,81.3594,0.003519
17.041,81.3594,0.003519
17.072,81.3594,0.003519
17.104,81.3594,0.003548
17.135,81.3594,0.003548
17.166,81.3594,0.003548
17.196,81.3594,0.003548
17.227,81.3594,0.003548
17.259,81.3594,0.003548
17.289,81.3594,0.003548
17.320,81.3594,0.003548
17.352,81.3594,0.003595
17.383,81.3594,0.003595
17.413,81.3594,0.003595
17.444,81.3594,0.003595
17.475,81.3594,0.003595
17.507,81.3594,0.003595
17.537,81.3594,0.003595
17.569,81.3594,0.003595
17.599,81.3594,0.003585
17.628,81.3594,0.003585
17.660,81.3594,0.003585
17.692,81.3594,0.003585
17.722,81.3594,0.003585
17.753,81.3594,0.003585
17.784,81.3594,0.003585
17.819,81.3594,0.003585
17.846,81.3594,0.003585
17.877,81.3594,0.003529
17.914,81.3594,0.003529
17.955,81.3594,0.003529
17.986,81.3594,0.003529
18.017,81.3594,0.003529
18.049,81.3594,0.003529
18.079,81.3594,0.003529
18.110,81.3594,0.003529
18.141,81.3594,0.003529
18.172,81.3594,0.003529
18.204,81.3594,0.003529
18.235,81.3594,0.003529
18.266,81.3594,0.003529
18.297,81.3594,0.003529
18.328,81.3594,0.003529
18.359,81.3594,0.003576
18.390,81.3594,0.003576
18.421,81.3594,0.003576
18.452,81.3594,0.003576
18.483,81.3594,0.003576
18.514,81.3594,0.003576
18.545,81.3594,0.003576
18.576,81.3594,0.003576
18.607,81.3594,0.003585
18.637,81.3594,0.003585
18.668,81.3594,0.003585
18.700,81.3594,0.003585
18.731,81.3594,0.003585
18.762,81.3594,0.003585
18.793,81.3594,0.003585
18.825,81.3594,0.003585
18.857,81.3594,0.003567
18.888,81.3594,0.003567
18.920,81.3594,0.003567
18.951,81.3594,0.003567
18.982,81.3594,0.003567
19.013,81.3594,0.003567
19.044,81.3594,0.003567
19.076,81.3594,0.003567
19.106,81.3594,0.003623
19.138,81.3594,0.003623
19.169,81.3594,0.003623
19.199,81.3594,0.003623
19.231,81.3594,0.003623
19.261,81.3586,0.003623
19.292,81.3574,0.003623
19.323,81.3553,0.003623
19.354,81.3526,0.003661
19.384,81.3490,0.003661
19.415,81.3449,0.003661
19.446,81.3398,0.003661
19.477,81.3342,0.003661
19.508,81.3275,0.003661
19.539,81.3207,0.003661
19.570,81.3125,0.003661
19.601,81.3039,0.003661
19.633,81.2944,0.004310
19.665,81.2841,0.004310
19.695,81.2732,0.004310
19.727,81.2615,0.004310
19.756,81.2501,0.004310
19.788,81.2368,0.004310
19.819,81.2231,0.004310
19.851,81.2083,0.004310
19.881,81.1936,0.005562
19.911,81.1779,0.005562
19.942,81.1613,0.005562
19.974,81.1438,0.005562
20.005,81.1253,0.005562
20.035,81.1069,0.005562
20.067,81.0866,0.005562
20.097,81.0674,0.006757
20.128,81.0463,0.006757
20.161,81.0231,0.006757
20.190,81.0024,0.006757
20.224,80.9765,0.006757
20.252,80.9551,0.006757
20.288,80.9260,0.006757
20.329,80.8921,0.007820
20.361,80.8658,0.007820
20.392,80.8385,0.007820
20.423,80.8104,0.007820
20.454,80.7822,0.007820
20.488,80.7500,0.007820
20.516,80.7229,0.007820
20.547,80.6911,0.007820
20.578,80.6601,0.007820
20.610,80.6269,0.008723
20.640,80.5948,0.008723
20.672,80.5604,0.008723
20.703,80.5251,0.008723
20.737,80.4869,0.008723
20.765,80.4550,0.008723
20.797,80.4151,0.008723
20.828,80.3798,0.008723
20.859,80.3404,0.009523
20.891,80.3012,0.009523
20.922,80.2605,0.009523
20.953,80.2200,0.009523
20.986,80.1766,0.009523
21.015,80.1385,0.009523
21.047,80.0938,0.009523
21.077,80.0518,0.009523
21.108,80.0079,0.010210
21.139,79.9631,0.010210
21.171,79.9155,0.010210
21.201,79.8726,0.010210
21.232,79.8248,0.010210
21.263,79.7783,0.010210
21.294,79.7298,0.010210
21.325,79.6790,0.010210
21.358,79.6278,0.010775
21.388,79.5791,0.010775
21.419,79.5272,0.010775
21.449,79.4779,0.010775
21.482,79.4205,0.010775
21.511,79.3704,0.010775
21.542,79.3151,0.010775
21.573,79.2598,0.010775
21.604,79.2058,0.010775
21.635,79.1477,0.011132
21.667,79.0916,0.011132
21.699,79.0311,0.011132
21.730,78.9730,0.011132
21.760,78.9134,0.011132
21.792,78.8541,0.011132
21.823,78.7920,0.011132
21.854,78.7332,0.011132
21.885,78.6738,0.011424
21.915,78.6170,0.011424
21.946,78.5594,0.011424
21.977,78.5022,0.011424
22.009,78.4454,0.011424
22.040,78.3886,0.011424
22.072,78.3343,0.011424
22.103,78.2802,0.011424
22.134,78.2267,0.011198
22.164,78.1751,0.011198
22.195,78.1239,0.011198
22.227,78.0706,0.011198
22.257,78.0231,0.011198
22.288,77.9730,0.011198
22.319,77.9244,0.011198
22.350,77.8762,0.011198
22.381,77.8279,0.010502
22.413,77.7804,0.010502
22.443,77.7362,0.010502
22.475,77.6896,0.010502
22.504,77.6481,0.010502
22.534,77.6041,0.010502
22.566,77.5613,0.010502
22.596,77.5204,0.010502
22.627,77.4783,0.009890
22.658,77.4371,0.009890
22.689,77.3968,0.009890
22.720,77.3585,0.009890
22.751,77.3194,0.009890
22.782,77.2815,0.009890
22.813,77.2449,0.009890
22.844,77.2082,0.009890
22.874,77.1731,0.009354
22.907,77.1355,0.009354
22.936,77.1038,0.009354
22.966,77.0710,0.009354
22.997,77.0383,0.009354
23.027,77.0063,0.009354
23.058,76.9753,0.009354
23.090,76.9434,0.009354
23.121,76.9135,0.008865
23.152,76.8847,0.008865
23.183,76.8556,0.008865
23.214,76.8274,0.008865
23.245,76.8003,0.008865
23.276,76.7750,0.008865
23.307,76.7493,0.008865
23.338,76.7238,0.008865
23.369,76.6996,0.008441
23.400,76.6764,0.008441
23.431,76.6539,0.008441
23.461,76.6320,0.008441
23.492,76.6109,0.008441
23.523,76.5903,0.008441
23.554,76.5706,0.008441
23.584,76.5519,0.008441
23.616,76.5331,0.008102
23.647,76.5148,0.008102
23.679,76.4979,0.008102
23.709,76.4819,0.008102
23.741,76.4660,0.008102
23.773,76.4511,0.008102
23.804,76.4368,0.008102
23.834,76.4241,0.008102
23.866,76.4111,0.007801
23.898,76.3991,0.007801
23.928,76.3881,0.007801
23.959,76.3780,0.007801
23.990,76.3684,0.007801
24.020,76.3596,0.007801
24.052,76.3513,0.007801
24.083,76.3440,0.007801
24.113,76.3373,0.007500
24.144,76.3312,0.007500
24.176,76.3259,0.007500
24.208,76.3213,0.007500
24.238,76.3176,0.007500
24.270,76.3143,0.007500
24.300,76.3121,0.007500
24.330,76.3105,0.007218
24.361,76.3096,0.007218
24.392,76.3094,0.007218
24.423,76.3094,0.007218
24.454,76.3094,0.007218
24.485,76.3094,0.007218
24.516,76.3094,0.007218
24.547,76.3095,0.007218
24.578,76.3101,0.007218
24.610,76.3116,0.007086
24.641,76.3137,0.007086
24.672,76.3167,0.007086
24.702,76.3202,0.007086
24.733,76.3245,0.007086
24.764,76.3296,0.007086
24.801,76.3367,0.007086
24.840,76.3451,0.006823
24.871,76.3525,0.006823
24.902,76.3607,0.006823
24.933,76.3698,0.006823
24.964,76.3796,0.006823
24.994,76.3899,0.006823
25.025,76.4009,0.006823
25.057,76.4131,0.006823
25.087,76.4256,0.006823
25.118,76.4390,0.006559
25.150,76.4531,0.006559
25.181,76.4684,0.006559
25.212,76.4839,0.006559
25.243,76.5003,0.006559
25.274,76.5175,0.006559
25.306,76.5351,0.006559
25.337,76.5538,0.006512
25.369,76.5739,0.006512
25.399,76.5930,0.006512
25.431,76.6147,0.006512
25.463,76.6368,0.006512
25.494,76.6586,0.006512
25.524,76.6812,0.006512
25.556,76.7049,0.006512
25.586,76.7292,0.006437
25.617,76.7540,0.006437
25.648,76.7802,0.006437
25.680,76.8067,0.006437
25.712,76.8350,0.006437
25.742,76.8625,0.006437
25.773,76.8914,0.006437
25.804,76.9208,0.006437
25.835,76.9511,0.006286
25.866,76.9820,0.006286
25.898,77.0140,0.006286
25.928,77.0457,0.006286
25.960,77.0795,0.006286
25.990,77.1134,0.006286
26.022,77.1474,0.006286
26.051,77.1825,0.006286
26.082,77.2175,0.006192
26.114,77.2553,0.006192
26.146,77.2935,0.006192
26.178,77.3331,0.006192
26.209,77.3718,0.006192
26.239,77.4107,0.006192
26.270,77.4519,0.006192
26.301,77.4931,0.006192
26.332,77.5341,0.006192
26.364,77.5779,0.006183
26.396,77.6219,0.006183
26.427,77.6669,0.006183
26.458,77.7116,0.006183
26.489,77.7580,0.006183
26.520,77.8029,0.006183
26.551,77.8514,0.006183
26.584,77.9026,0.006183
26.613,77.9465,0.006183
26.645,77.9981,0.006201
26.675,78.0456,0.006201
26.705,78.0956,0.006201
26.736,78.1470,0.006201
26.767,78.1979,0.006201
26.799,78.2518,0.006201
26.830,78.3064,0.006201
26.859,78.3573,0.006117
26.891,78.4139,0.006117
26.921,78.4671,0.006117
26.953,78.5256,0.006117
26.983,78.5817,0.006117
27.015,78.6412,0.006117
27.046,78.7001,0.006117
27.077,78.7592,0.006117
27.108,78.8189,0.006117
27.139,78.8803,0.005910
27.170,78.9396,0.005910
27.200,78.9938,0.005910
27.232,79.0535,0.005910
27.263,79.1113,0.005910
27.294,79.1664,0.005910
27.325,79.2228,0.005910
27.357,79.2793,0.005571
27.391,79.3379,0.005571
27.419,79.3860,0.005571
27.450,79.4392,0.005571
27.481,79.4908,0.005571
27.512,79.5431,0.005571
27.543,79.5917,0.005571
27.574,79.6430,0.005571
27.605,79.6899,0.004799
27.637,79.7404,0.004799
27.667,79.7860,0.004799
27.699,79.8354,0.004799
27.729,79.8787,0.004799
27.760,79.9252,0.004799
27.790,79.9668,0.004799
27.821,80.0105,0.004799
27.852,80.0543,0.003679
27.887,80.1024,0.003679
27.915,80.1390,0.003679
27.945,80.1787,0.003679
27.976,80.2194,0.003679
28.007,80.2587,0.003679
28.038,80.2976,0.003679
28.070,80.3359,0.003679
28.100,80.3718,0.003679
28.131,80.4090,0.002513
28.162,80.4448,0.002513
28.193,80.4793,0.002513
28.224,80.5144,0.002513
28.255,80.5480,0.002513
28.287,80.5825,0.002513
28.319,80.6154,0.002513
28.349,80.6456,0.001515
28.381,80.6776,0.001515
28.411,80.7066,0.001515
28.442,80.7352,0.001515
28.473,80.7648,0.001515
28.504,80.7917,0.001515
28.535,80.8199,0.001515
28.566,80.8455,0.001515
28.598,80.8715,0.001515
28.628,80.8963,0.000866
28.660,80.9212,0.000866
28.689,80.9432,0.000866
28.721,80.9662,0.000866
28.752,80.9880,0.000866
28.782,81.0090,0.000866
28.815,81.0303,0.000866
28.844,81.0489,0.000555
28.880,81.0710,0.000555
28.905,81.0865,0.000555
28.937,81.1045,0.000555
28.970,81.1220,0.000555
28.998,81.1370,0.000555
29.029,81.1523,0.000555
29.060,81.1670,0.000555
29.091,81.1809,0.000555
29.121,81.1941,0.000555
29.153,81.2067,0.000659
29.184,81.2186,0.000659
29.214,81.2296,0.000659
29.247,81.2404,0.000659
29.277,81.2500,0.000659
29.307,81.2587,0.000659
29.338,81.2669,0.000659
29.369,81.2743,0.001148
29.400,81.2810,0.001148
29.432,81.2873,0.001148
29.462,81.2925,0.001148
29.494,81.2972,0.001148
29.525,81.3010,0.001148
29.555,81.3042,0.001148
29.587,81.3065,0.001148
29.617,81.3083,0.001148
29.649,81.3091,0.001929
29.676,81.3094,0.001929
29.711,81.3094,0.001929
29.742,81.3094,0.001929
29.773,81.3094,0.001929
29.804,81.3094,0.001929
29.834,81.3094,0.001929
29.866,81.3094,0.002823
29.897,81.3094,0.002823
29.928,81.3094,0.002823
29.960,81.3094,0.002823
29.992,81.3094,0.002823
30.022,81.3094,0.002823
30.053,81.3094,0.002823
30.084,81.3094,0.002823
30.115,81.3094,0.002823
30.145,81.3094,0.003341
30.177,81.3094,0.003341
30.210,81.3094,0.003341
30.239,81.3094,0.003341
30.270,81.3094,0.003341
30.301,81.3094,0.003341
30.332,81.3094,0.003341
30.364,81.3094,0.003472
30.395,81.3094,0.003472
30.426,81.3094,0.003472
30.457,81.3094,0.003472
30.487,81.3094,0.003472
30.518,81.3094,0.003472
30.549,81.3094,0.003472
30.583,81.3094,0.003472
30.611,81.3094,0.003472
30.642,81.3094,0.003529
30.673,81.3094,0.003529
30.704,81.3094,0.003529
30.736,81.3094,0.003529
30.766,81.3094,0.003529
30.798,81.3094,0.003529
30.828,81.3094,0.003529
30.863,81.3094,0.003501
30.889,81.3094,0.003501
30.920,81.3094,0.003501
30.951,81.3094,0.003501
30.982,81.3094,0.003501
31.012,81.3094,0.003501
31.043,81.3094,0.003501
31.075,81.3094,0.003501
31.106,81.3094,0.003501
31.137,81.3094,0.003538
31.167,81.3094,0.003538
31.199,81.3094,0.003538
31.230,81.3094,0.003538
31.260,81.3094,0.003538
31.292,81.3094,0.003538
31.322,81.3094,0.003538
31.352,81.3094,0.003538
31.383,81.3094,0.003595
31.416,81.3094,0.003595
31.446,81.3094,0.003595
31.478,81.3094,0.003595
31.508,81.3094,0.003595
31.541,81.3094,0.003595
31.570,81.3094,0.003595
31.600,81.3094,0.003595
31.631,81.3094,0.003642
31.662,81.3094,0.003642
31.693,81.3094,0.003642
31.726,81.3094,0.003642
31.755,81.3094,0.003642
31.786,81.3094,0.003642
31.818,81.3094,0.003642
31.848,81.3094,0.003642
31.879,81.3094,0.003623
31.910,81.3094,0.003623
31.941,81.3094,0.003623
31.973,81.3094,0.003623
32.003,81.3094,0.003623
32.034,81.3094,0.003623
32.064,81.3094,0.003623
32.095,81.3094,0.003623
32.126,81.3094,0.003623
32.157,81.3094,0.003623
32.188,81.3094,0.003623
32.220,81.3094,0.003623
32.250,81.3094,0.003623
32.282,81.3094,0.003623
32.312,81.3094,0.003623
32.343,81.3094,0.003623
32.374,81.3094,0.003623
32.405,81.3094,0.003651
32.436,81.3094,0.003651
32.467,81.3094,0.003651
32.498,81.3094,0.003651
32.530,81.3094,0.003651
32.560,81.3094,0.003651
32.592,81.3094,0.003651
32.622,81.3094,0.003689
32.654,81.3094,0.003689
32.685,81.3094,0.003689
32.715,81.3094,0.003689
32.746,81.3094,0.003689
32.778,81.3094,0.003689
32.809,81.3094,0.003689
32.839,81.3094,0.003727
32.870,81.3094,0.003727
32.901,81.3094,0.003727
32.932,81.3094,0.003727
32.964,81.3094,0.003727
32.995,81.3094,0.003727
33.026,81.3094,0.003727
33.060,81.3094,0.003727
33.089,81.3094,0.003727
33.119,81.3094,0.003717
33.151,81.3094,0.003717
33.182,81.3094,0.003717
33.215,81.3094,0.003717
33.245,81.3094,0.003717
33.276,81.3094,0.003717
33.308,81.3094,0.003717
33.339,81.3094,0.003717
33.371,81.3094,0.003670
33.401,81.3094,0.003670
33.432,81.3094,0.003670
33.463,81.3094,0.003670
33.494,81.3094,0.003670
33.525,81.3094,0.003670
33.557,81.3094,0.003670
33.587,81.3094,0.003670
33.619,81.3094,0.003670
33.650,81.3094,0.003736
33.681,81.3094,0.003736
33.712,81.3094,0.003736
33.742,81.3094,0.003736
33.776,81.3094,0.003736
33.805,81.3094,0.003736
33.836,81.3094,0.003736
33.867,81.3094,0.003736
33.901,81.3094,0.003736
33.928,81.3094,0.003736
33.959,81.3094,0.003736
33.990,81.3094,0.003736
34.021,81.3094,0.003736
34.052,81.3094,0.003736
34.083,81.3094,0.003736
34.114,81.3094,0.003689
34.144,81.3094,0.003689
34.175,81.3094,0.003689
34.206,81.3094,0.003689
34.238,81.3094,0.003689
34.269,81.3094,0.003689
34.300,81.3094,0.003689
34.330,81.3094,0.003689
34.361,81.3090,0.003717
34.391,81.3079,0.003717
34.422,81.3060,0.003717
34.452,81.3034,0.003717
34.483,81.3002,0.003717
34.515,81.2960,0.003717
34.547,81.2913,0.003717
34.578,81.2857,0.003717
34.608,81.2795,0.004037
34.644,81.2714,0.004037
34.670,81.2650,0.004037
34.702,81.2563,0.004037
34.732,81.2474,0.004037
34.763,81.2376,0.004037
34.794,81.2269,0.004037
34.825,81.2156,0.004037
34.855,81.2037,0.004037
34.886,81.1912,0.005025
34.917,81.1778,0.005025
34.948,81.1633,0.005025
34.980,81.1482,0.005025
35.010,81.1327,0.005025
35.042,81.1158,0.005025
35.073,81.0990,0.005025
35.104,81.0814,0.005025
35.135,81.0627,0.006277
35.165,81.0441,0.006277
35.195,81.0244,0.006277
35.226,81.0037,0.006277
35.257,80.9825,0.006277
35.288,80.9605,0.006277
35.319,80.9376,0.006277
35.350,80.9138,0.007331
35.381,80.8893,0.007331
35.412,80.8643,0.007331
35.444,80.8374,0.007331
35.474,80.8124,0.007331
35.505,80.7845,0.007331
35.536,80.7569,0.007331
35.567,80.7281,0.007331
35.598,80.6986,0.007331
35.628,80.6697,0.008356
35.660,80.6376,0.008356
35.690,80.6066,0.008356
35.722,80.5733,0.008356
35.752,80.5413,0.008356
35.787,80.5034,0.008356
35.815,80.4722,0.008356
35.846,80.4370,0.008356
35.876,80.4019,0.009213
35.907,80.3656,0.009213
35.941,80.3237,0.009213
35.969,80.2889,0.009213
36.001,80.2485,0.009213
36.032,80.2094,0.009213
36.063,80.1687,0.009213
36.095,80.1268,0.009909
36.125,80.0858,0.009909
36.156,80.0435,0.009909
36.188,80.0001,0.009909
36.220,79.9547,0.009909
36.249,79.9118,0.009909
36.281,79.8651,0.009909
36.312,79.8195,0.009909
36.343,79.7722,0.009909
36.374,79.7239,0.010521
36.405,79.6763,0.010521
36.436,79.6266,0.010521
36.470,79.5713,0.010521
36.499,79.5256,0.010521
36.530,79.4736,0.010521
36.562,79.4196,0.010521
36.594,79.3656,0.011001
36.624,79.3125,0.011001
36.654,79.2609,0.011001
36.687,79.2025,0.011001
36.717,79.1479,0.011001
36.748,79.0911,0.011001
36.779,79.0351,0.011001
36.810,78.9765,0.011001
36.841,78.9191,0.011001
36.872,78.8597,0.011358
36.903,78.7990,0.011358
36.933,78.7396,0.011358
36.964,78.6790,0.011358
36.995,78.6213,0.011358
37.026,78.5617,0.011358
37.058,78.5045,0.011358
37.089,78.4473,0.011358
37.120,78.3916,0.011330
37.151,78.3356,0.011330
37.181,78.2827,0.011330
37.212,78.2282,0.011330
37.243,78.1749,0.011330
37.275,78.1215,0.011330
37.306,78.0701,0.011330
37.336,78.0207,0.011330
37.367,77.9714,0.010813
37.399,77.9202,0.010813
37.431,77.8691,0.010813
37.459,77.8242,0.010813
37.491,77.7755,0.010813
37.522,77.7297,0.010813
37.555,77.6806,0.010813
37.583,77.6392,0.010813
37.614,77.5964,0.010135
37.645,77.5517,0.010135
37.676,77.5093,0.010135
37.708,77.4653,0.010135
37.741,77.4209,0.010135
37.769,77.3843,0.010135
37.800,77.3442,0.010135
37.830,77.3065,0.010135
37.861,77.2675,0.009552
37.891,77.2308,0.009552
37.922,77.1932,0.009552
37.958,77.1516,0.009552
37.985,77.1201,0.009552
38.016,77.0857,0.009552
38.046,77.0512,0.009552
38.078,77.0174,0.009552
38.108,76.9847,0.008996
38.140,76.9528,0.008996
38.171,76.9206,0.008996
38.201,76.8913,0.008996
38.235,76.8581,0.008996
38.264,76.8313,0.008996
38.295,76.8029,0.008996
38.327,76.7746,0.008545
38.357,76.7484,0.008545
38.387,76.7221,0.008545
38.420,76.6955,0.008545
38.451,76.6709,0.008545
38.480,76.6478,0.008545
38.512,76.6242,0.008545
38.546,76.5991,0.008545
38.574,76.5794,0.008545
38.604,76.5581,0.008545
38.636,76.5377,0.008291
38.667,76.5176,0.008291
38.698,76.4989,0.008291
38.729,76.4804,0.008291
38.759,76.4634,0.008291
38.789,76.4468,0.008291
38.821,76.4308,0.008291
38.851,76.4154,0.008291
38.882,76.4007,0.007980
38.913,76.3868,0.007980
38.944,76.3738,0.007980
38.974,76.3611,0.007980
39.005,76.3494,0.007980
39.036,76.3384,0.007980
39.066,76.3282,0.007980
39.097,76.3189,0.007980
39.128,76.3100,0.007594
39.159,76.3015,0.007594
39.191,76.2940,0.007594
39.223,76.2868,0.007594
39.253,76.2811,0.007594
39.284,76.2759,0.007594
39.315,76.2713,0.007594
39.346,76.2675,0.007594
39.377,76.2645,0.007246
39.408,76.2620,0.007246
39.439,76.2604,0.007246
39.470,76.2595,0.007246
39.500,76.2593,0.007246
39.532,76.2593,0.007246
39.562,76.2593,0.007246
39.593,76.2593,0.007246
39.625,76.2593,0.007058
39.656,76.2595,0.007058
39.686,76.2605,0.007058
39.717,76.2623,0.007058
39.748,76.2646,0.007058
39.779,76.2678,0.007058
39.810,76.2717,0.007058
39.842,76.2765,0.007058
39.872,76.2819,0.006964
39.903,76.2878,0.006964
39.935,76.2948,0.006964
39.966,76.3023,0.006964
39.997,76.3109,0.006964
40.028,76.3198,0.006964
40.059,76.3295,0.006964
40.090,76.3401,0.006757
40.121,76.3511,0.006757
40.152,76.3628,0.006757
40.182,76.3756,0.006757
40.214,76.3893,0.006757
40.245,76.4030,0.006757
40.275,76.4178,0.006757
40.307,76.4337,0.006757
40.338,76.4499,0.006757
40.369,76.4667,0.006531
40.400,76.4853,0.006531
40.432,76.5036,0.006531
40.462,76.5222,0.006531
40.492,76.5421,0.006531
40.523,76.5625,0.006531
40.555,76.5846,0.006531
40.587,76.6069,0.006531
40.618,76.6301,0.006361
40.649,76.6533,0.006361
40.679,76.6777,0.006361
40.710,76.7019,0.006361
40.741,76.7282,0.006361
40.771,76.7535,0.006361
40.802,76.7810,0.006361
40.834,76.8090,0.006361
40.865,76.8386,0.006230
40.897,76.8685,0.006230
40.929,76.8999,0.006230
40.960,76.9306,0.006230
40.991,76.9615,0.006230
41.022,76.9942,0.006230
41.053,77.0280,0.006230
41.085,77.0638,0.006230
41.115,77.0953,0.006230
41.146,77.1313,0.006173
41.177,77.1675,0.006173
41.203,77.1976,0.006173
41.240,77.2423,0.006173
41.270,77.2800,0.006173
41.301,77.3179,0.006173
41.331,77.3566,0.006173
41.362,77.3966,0.006173
41.396,77.4417,0.006173
41.425,77.4810,0.006173
41.456,77.5247,0.006173
41.487,77.5681,0.006173
41.518,77.6113,0.006173
41.549,77.6557,0.006173
41.586,77.7095,0.006173
41.612,77.7479,0.006154
41.643,77.7963,0.006154
41.673,77.8417,0.006154
41.704,77.8902,0.006154
41.736,77.9405,0.006154
41.767,77.9894,0.006154
41.798,78.0399,0.006154
41.828,78.0906,0.006154
41.860,78.1436,0.006079
41.891,78.1958,0.006079
41.924,78.2541,0.006079
41.953,78.3047,0.006079
41.984,78.3590,0.006079
42.016,78.4174,0.006079
42.046,78.4733,0.006079
42.077,78.5295,0.006079
42.110,78.5898,0.005881
42.140,78.6470,0.005881
42.173,78.7116,0.005881
42.203,78.7678,0.005881
42.234,78.8266,0.005881
42.264,78.8863,0.005881
42.295,78.9440,0.005881
42.327,79.0024,0.005881
42.364,79.0728,0.005618
42.403,79.1411,0.005618
42.434,79.1959,0.005618
42.463,79.2478,0.005618
42.494,79.3015,0.005618
42.525,79.3553,0.005618
42.556,79.4058,0.005618
42.587,79.4575,0.005129
42.618,79.5104,0.005129
42.649,79.5587,0.005129
42.679,79.6074,0.005129
42.710,79.6549,0.005129
42.741,79.7044,0.005129
42.772,79.7504,0.005129
42.803,79.7975,0.005129
42.836,79.8465,0.005129
42.865,79.8883,0.005129
42.896,79.9320,0.004235
42.927,79.9759,0.004235
42.958,80.0184,0.004235
42.989,80.0601,0.004235
43.020,80.1030,0.004235
43.051,80.1428,0.004235
43.082,80.1831,0.004235
43.114,80.2232,0.003143
43.145,80.2613,0.003143
43.176,80.2989,0.003143
43.207,80.3359,0.003143
43.238,80.3720,0.003143
43.269,80.4080,0.003143
43.300,80.4428,0.003143
43.331,80.4773,0.003143
43.362,80.5098,0.002127
43.392,80.5426,0.002127
43.422,80.5728,0.002127
43.453,80.6048,0.002127
43.485,80.6358,0.002127
43.519,80.6682,0.002127
43.547,80.6949,0.002127
43.578,80.7225,0.002127
43.609,80.7507,0.001317
43.641,80.7789,0.001317
43.671,80.8033,0.001317
43.702,80.8289,0.001317
43.732,80.8531,0.001317
43.762,80.8767,0.001317
43.793,80.8994,0.001317
43.825,80.9227,0.001317
43.856,80.9440,0.000800
43.886,80.9646,0.000800
43.917,80.9847,0.000800
43.948,81.0047,0.000800
43.979,81.0235,0.000800
44.011,81.0422,0.000800
44.042,81.0596,0.000800
44.073,81.0761,0.000800
44.104,81.0922,0.000706
44.134,81.1071,0.000706
44.166,81.1222,0.000706
44.198,81.1361,0.000706
44.228,81.1487,0.000706
44.259,81.1612,0.000706
44.290,81.1725,0.000706
44.321,81.1836,0.000706
44.351,81.1933,0.000706
44.382,81.2029,0.001026
44.413,81.2114,0.001026
44.444,81.2195,0.001026
44.475,81.2267,0.001026
44.507,81.2335,0.001026
44.537,81.2391,0.001026
44.568,81.2440,0.001026
44.598,81.2482,0.001722
44.628,81.2518,0.001722
44.660,81.2548,0.001722
44.691,81.2571,0.001722
44.722,81.2584,0.001722
44.753,81.2592,0.001722
44.785,81.2593,0.001722
44.815,81.2593,0.001722
44.847,81.2593,0.002673
44.878,81.2593,0.002673
44.909,81.2593,0.002673
44.940,81.2593,0.002673
44.971,81.2593,0.002673
45.002,81.2593,0.002673
45.032,81.2593,0.002673
45.065,81.2593,0.002673
45.093,81.2593,0.003322
45.124,81.2593,0.003322
45.156,81.2593,0.003322
45.187,81.2593,0.003322
45.218,81.2593,0.003322
45.249,81.2593,0.003322
45.281,81.2593,0.003322
45.312,81.2593,0.003322
45.343,81.2593,0.003529
45.374,81.2593,0.003529
45.406,81.2593,0.003529
45.436,81.2593,0.003529
45.467,81.2593,0.003529
45.498,81.2593,0.003529
45.531,81.2593,0.003529
45.560,81.2593,0.003529
45.593,81.2593,0.003529
45.622,81.2593,0.003576
45.653,81.2593,0.003576
45.684,81.2593,0.003576
45.715,81.2593,0.003576
45.746,81.2593,0.003576
45.777,81.2593,0.003576
45.808,81.2593,0.003576
45.839,81.2593,0.003576
45.870,81.2593,0.003595
45.902,81.2593,0.003595
45.931,81.2593,0.003595
45.962,81.2593,0.003595
45.993,81.2593,0.003595
46.024,81.2593,0.003595
46.055,81.2593,0.003595
46.091,81.2593,0.003595
46.118,81.2593,0.003595
46.150,81.2593,0.003632
46.180,81.2593,0.003632
46.212,81.2593,0.003632
46.246,81.2593,0.003632
46.274,81.2593,0.003632
46.305,81.2593,0.003632
46.336,81.2593,0.003689
46.371,81.2593,0.003689
46.412,81.2593,0.003689
46.443,81.2593,0.003689
46.473,81.2593,0.003689
46.508,81.2593,0.003689
46.536,81.2593,0.003689
46.568,81.2593,0.003689
46.598,81.2593,0.003689
46.630,81.2593,0.003745
46.660,81.2593,0.003745
46.691,81.2593,0.003745
46.724,81.2593,0.003745
46.753,81.2593,0.003745
46.786,81.2593,0.003745
46.816,81.2593,0.003745
46.847,81.2593,0.003670
46.878,81.2593,0.003670
46.909,81.2593,0.003670
46.943,81.2593,0.003670
46.971,81.2593,0.003670
47.003,81.2593,0.003670
47.034,81.2593,0.003670
47.064,81.2593,0.003670
47.095,81.2593,0.003670
47.129,81.2593,0.003670
47.157,81.2593,0.003670
47.188,81.2593,0.003670
47.220,81.2593,0.003670
47.253,81.2593,0.003670
47.282,81.2593,0.003670
47.315,81.2593,0.003670
47.344,81.2593,0.003670
47.376,81.2593,0.003717
47.405,81.2593,0.003717
47.438,81.2593,0.003717
47.467,81.2593,0.003717
47.499,81.2593,0.003717
47.528,81.2593,0.003717
47.559,81.2593,0.003717
47.591,81.2593,0.003717
47.621,81.2593,0.003745
47.652,81.2593,0.003745
47.683,81.2593,0.003745
47.714,81.2593,0.003745
47.746,81.2593,0.003745
47.778,81.2593,0.003745
47.808,81.2593,0.003745
47.840,81.2593,0.003736
47.872,81.2593,0.003736
47.901,81.2593,0.003736
47.932,81.2593,0.003736
47.964,81.2593,0.003736
47.994,81.2593,0.003736
48.025,81.2593,0.003736
48.056,81.2593,0.003736
48.087,81.2593,0.003736
48.118,81.2593,0.003736
48.149,81.2593,0.003745
48.181,81.2593,0.003745
48.211,81.2593,0.003745
48.242,81.2593,0.003745
48.273,81.2593,0.003745
48.305,81.2593,0.003745
48.335,81.2593,0.003745
48.366,81.2593,0.003755
48.397,81.2593,0.003755
48.427,81.2593,0.003755
48.458,81.2593,0.003755
48.489,81.2593,0.003755
48.520,81.2593,0.003755
48.552,81.2593,0.003755
48.583,81.2593,0.003755
48.614,81.2593,0.003774
48.645,81.2593,0.003774
48.675,81.2593,0.003774
48.706,81.2593,0.003774
48.737,81.2593,0.003774
48.768,81.2593,0.003774
48.799,81.2593,0.003774
48.832,81.2593,0.003774
48.861,81.2593,0.003783
48.893,81.2593,0.003783
48.924,81.2593,0.003783
48.955,81.2593,0.003783
48.986,81.2593,0.003783
49.016,81.2593,0.003783
49.048,81.2593,0.003783
49.079,81.2593,0.003745
49.110,81.2593,0.003745
49.144,81.2593,0.003745
49.172,81.2593,0.003745
49.205,81.2593,0.003745
49.235,81.2593,0.003745
49.266,81.2593,0.003745
49.300,81.2593,0.003745
49.328,81.2593,0.003745
49.359,81.2593,0.003792
49.390,81.2593,0.003792
49.421,81.2593,0.003792
49.452,81.2585,0.003792
49.485,81.2571,0.003792
49.514,81.2552,0.003792
49.545,81.2523,0.003792
49.576,81.2486,0.003792
49.607,81.2444,0.003924
49.639,81.2393,0.003924
49.670,81.2336,0.003924
49.701,81.2270,0.003924
49.732,81.2200,0.003924
49.763,81.2118,0.003924
49.795,81.2029,0.003924
49.825,81.1939,0.003924
49.856,81.1836,0.003924
49.887,81.1731,0.004630
49.918,81.1612,0.004630
49.949,81.1492,0.004630
49.983,81.1348,0.004630
50.011,81.1220,0.004630
50.041,81.1075,0.004630
50.072,81.0928,0.004630
50.103,81.0770,0.004630
50.134,81.0605,0.005834
50.165,81.0431,0.005834
50.194,81.0258,0.005834
50.226,81.0065,0.005834
50.257,80.9869,0.005834
50.288,80.9671,0.005834
50.319,80.9459,0.005834
50.350,80.9243,0.006973
50.381,80.9017,0.006973
50.412,80.8789,0.006973
50.444,80.8542,0.006973
50.475,80.8292,0.006973
50.505,80.8047,0.006973
50.537,80.7778,0.006973
50.568,80.7510,0.006973
50.599,80.7239,0.006973
50.630,80.6957,0.008027
50.661,80.6657,0.008027
50.692,80.6366,0.008027
50.723,80.6061,0.008027
50.753,80.5757,0.008027
50.784,80.5439,0.008027
50.815,80.5112,0.008027
50.848,80.4752,0.008027
50.877,80.4432,0.008027
50.908,80.4081,0.008940
50.940,80.3721,0.008940
50.971,80.3361,0.008940
51.001,80.2991,0.008940
51.033,80.2610,0.008940
51.065,80.2215,0.008940
51.097,80.1816,0.008940
51.128,80.1410,0.009664
51.158,80.1012,0.009664
51.190,80.0592,0.009664
51.222,80.0155,0.009664
51.252,79.9727,0.009664
51.283,79.9299,0.009664
51.313,79.8870,0.009664
51.344,79.8427,0.009664
51.375,79.7963,0.010286
51.406,79.7487,0.010286
51.437,79.7025,0.010286
51.468,79.6560,0.010286
51.498,79.6080,0.010286
51.529,79.5577,0.010286
51.560,79.5089,0.010286
51.591,79.4585,0.010286
51.623,79.4053,0.010831
51.655,79.3496,0.010831
51.685,79.2984,0.010831
51.717,79.2438,0.010831
51.748,79.1900,0.010831
51.778,79.1344,0.010831
51.809,79.0782,0.010831
51.841,79.0220,0.010831
51.871,78.9660,0.011198
51.902,78.9071,0.011198
51.934,78.8477,0.011198
51.964,78.7874,0.011198
51.996,78.7275,0.011198
52.025,78.6698,0.011198
52.057,78.6097,0.011198
52.088,78.5497,0.011198
52.119,78.4931,0.011198
52.150,78.4354,0.011340
52.181,78.3776,0.011340
52.213,78.3213,0.011340
52.244,78.2662,0.011340
52.275,78.2120,0.011340
52.305,78.1591,0.011340
52.341,78.0978,0.011340
52.381,78.0296,0.011010
52.412,77.9800,0.011010
52.444,77.9288,0.011010
52.474,77.8798,0.011010
52.505,77.8302,0.011010
52.536,77.7822,0.011010
52.568,77.7342,0.011010
52.599,77.6869,0.011010
52.631,77.6400,0.010276
52.661,77.5963,0.010276
52.692,77.5519,0.010276
52.723,77.5083,0.010276
52.754,77.4649,0.010276
52.785,77.4209,0.010276
52.816,77.3808,0.010276
52.847,77.3388,0.009617
52.878,77.3000,0.009617
52.910,77.2588,0.009617
52.941,77.2193,0.009617
52.972,77.1808,0.009617
53.004,77.1437,0.009617
53.032,77.1096,0.009617
53.066,77.0709,0.009617
53.098,77.0347,0.009617
53.130,77.0001,0.009109
53.161,76.9657,0.009109
53.192,76.9332,0.009109
53.224,76.9001,0.009109
53.255,76.8695,0.009109
53.286,76.8383,0.009109
53.317,76.8081,0.009109
53.349,76.7781,0.009109
53.380,76.7492,0.008658
53.411,76.7223,0.008658
53.442,76.6956,0.008658
53.473,76.6687,0.008658
53.504,76.6440,0.008658
53.536,76.6185,0.008658
53.565,76.5953,0.008658
53.596,76.5719,0.008658
53.627,76.5491,0.008215
53.660,76.5266,0.008215
53.689,76.5062,0.008215
53.721,76.4855,0.008215
53.752,76.4658,0.008215
53.782,76.4468,0.008215
53.814,76.4288,0.008215
53.844,76.4113,0.008215
53.875,76.3948,0.007867
53.905,76.3788,0.007867
53.938,76.3631,0.007867
53.969,76.3483,0.007867
54.003,76.3328,0.007867
54.029,76.3219,0.007867
54.061,76.3093,0.007867
54.092,76.2976,0.007867
54.123,76.2864,0.007594
54.154,76.2764,0.007594
54.186,76.2664,0.007594
54.217,76.2579,0.007594
54.248,76.2497,0.007594
54.279,76.2424,0.007594
54.311,76.2358,0.007594
54.341,76.2300,0.007274
54.372,76.2248,0.007274
54.402,76.2206,0.007274
54.433,76.2170,0.007274
54.464,76.2140,0.007274
54.493,76.2118,0.007274
54.525,76.2103,0.007274
54.555,76.2094,0.007274
54.586,76.2093,0.006973
54.617,76.2093,0.006973
54.648,76.2093,0.006973
54.679,76.2093,0.006973
54.710,76.2093,0.006973
54.740,76.2093,0.006973
54.771,76.2094,0.006973
54.801,76.2102,0.006973
54.833,76.2117,0.006973
54.864,76.2139,0.006945
54.896,76.2169,0.006945
54.926,76.2206,0.006945
54.956,76.2248,0.006945
54.987,76.2300,0.006945
55.021,76.2362,0.006945
55.050,76.2425,0.006945
55.081,76.2499,0.006945
55.112,76.2579,0.006728
55.142,76.2665,0.006728
55.174,76.2760,0.006728
55.199,76.2843,0.006728
55.236,76.2971,0.006728
55.266,76.3086,0.006728
55.298,76.3210,0.006728
55.330,76.3348,0.006728
55.360,76.3481,0.006446
55.390,76.3628,0.006446
55.421,76.3777,0.006446
55.453,76.3942,0.006446
55.484,76.4110,0.006446
55.514,76.4283,0.006446
55.546,76.4471,0.006446
55.577,76.4657,0.006446
55.608,76.4854,0.006380
55.638,76.5047,0.006380
55.669,76.5266,0.006380
55.700,76.5480,0.006380
55.731,76.5711,0.006380
55.761,76.5929,0.006380
55.792,76.6172,0.006380
55.823,76.6421,0.006380
55.854,76.6674,0.006305
55.885,76.6934,0.006305
55.915,76.7192,0.006305
55.946,76.7469,0.006305
55.976,76.7748,0.006305
56.008,76.8042,0.006305
56.039,76.8340,0.006305
56.071,76.8654,0.006305
56.101,76.8958,0.006211
56.131,76.9273,0.006211
56.162,76.9600,0.006211
56.192,76.9920,0.006211
56.223,77.0270,0.006211
56.254,77.0606,0.006211
56.285,77.0958,0.006211
56.316,77.1324,0.006211
56.347,77.1695,0.006089
56.378,77.2072,0.006089
56.408,77.2446,0.006089
56.439,77.2840,0.006089
56.470,77.3240,0.006089
56.502,77.3657,0.006089
56.533,77.4072,0.006089
56.564,77.4497,0.006089
56.595,77.4931,0.006060
56.626,77.5360,0.006060
56.657,77.5808,0.006060
56.687,77.6247,0.006060
56.719,77.6707,0.006060
56.750,77.7168,0.006060
56.783,77.7679,0.006060
56.812,77.8123,0.006060
56.843,77.8615,0.006060
56.874,77.9104,0.006060
56.905,77.9601,0.006060
56.936,78.0106,0.006098
56.967,78.0622,0.006098
56.998,78.1162,0.006098
57.028,78.1676,0.006098
57.060,78.2218,0.006098
57.090,78.2748,0.006070
57.121,78.3296,0.006070
57.152,78.3853,0.006070
57.183,78.4431,0.006070
57.214,78.4985,0.006070
57.246,78.5586,0.006070
57.276,78.6155,0.006070
57.308,78.6771,0.006070
57.338,78.7374,0.005825
57.368,78.7943,0.005825
57.399,78.8543,0.005825
57.431,78.9121,0.005825
57.462,78.9702,0.005825
57.493,79.0261,0.005825
57.523,79.0818,0.005825
57.555,79.1396,0.005825
57.585,79.1916,0.005467
57.616,79.2451,0.005467
57.648,79.2993,0.005467
57.679,79.3530,0.005467
57.710,79.4035,0.005467
57.741,79.4552,0.005467
57.772,79.5041,0.005467
57.803,79.5543,0.005467
57.835,79.6038,0.005063
57.865,79.6506,0.005063
57.896,79.6994,0.005063
57.928,79.7457,0.005063
57.959,79.7931,0.005063
57.990,79.8367,0.005063
58.021,79.8824,0.005063
58.052,79.9262,0.005063
58.084,79.9693,0.005063
58.115,80.0112,0.005063
58.147,80.0551,0.004009
58.178,80.0935,0.004009
58.209,80.1355,0.004009
58.241,80.1754,0.004009
58.272,80.2140,0.004009
58.303,80.2511,0.004009
58.334,80.2899,0.004009
58.365,80.3255,0.004009
58.396,80.3602,0.002785
58.426,80.3940,0.002785
58.458,80.4282,0.002785
58.489,80.4623,0.002785
58.519,80.4938,0.002785
58.550,80.5254,0.002785
58.580,80.5555,0.002785
58.611,80.5865,0.002785
58.641,80.6156,0.002004
58.672,80.6446,0.002004
58.703,80.6727,0.002004
58.735,80.7012,0.002004
58.766,80.7280,0.002004
58.797,80.7540,0.002004
58.828,80.7792,0.002004
58.859,80.8037,0.001242
58.890,80.8282,0.001242
58.921,80.8509,0.001242
58.951,80.8722,0.001242
58.983,80.8949,0.001242
59.013,80.9156,0.001242
59.044,80.9357,0.001242
59.076,80.9564,0.001242
59.106,80.9742,0.000922
59.138,80.9926,0.000922
59.169,81.0101,0.000922
59.199,81.0266,0.000922
59.230,81.0421,0.000922
59.263,81.0589,0.000922
59.292,81.0723,0.000922
59.323,81.0857,0.000922
59.356,81.0999,0.001092
59.385,81.1112,0.001092
59.416,81.1229,0.001092
59.447,81.1338,0.001092
59.478,81.1437,0.001092
59.510,81.1534,0.001092
59.541,81.1622,0.001092
59.571,81.1699,0.001092
59.602,81.1771,0.001562
59.633,81.1835,0.001562
59.664,81.1892,0.001562
59.695,81.1944,0.001562
59.726,81.1986,0.001562
59.757,81.2022,0.001562
59.787,81.2050,0.001562
59.818,81.2071,0.001562
59.850,81.2086,0.001562
59.880,81.2092,0.002353
59.911,81.2093,0.002353
59.943,81.2093,0.002353
59.974,81.2093,0.002353
60.005,81.2093,0.002353
60.036,81.2093,0.002353
60.067,81.2093,0.002353
60.098,81.2093,0.002353
60.128,81.2093,0.003237
60.159,81.2093,0.003237
60.191,81.2093,0.003237
60.222,81.2093,0.003237
60.252,81.2093,0.003237
60.283,81.2093,0.003237
60.313,81.2093,0.003237
60.344,81.2093,0.003237
60.376,81.2093,0.003679
60.409,81.2093,0.003679
60.437,81.2093,0.003679
60.469,81.2093,0.003679
60.500,81.2093,0.003679
60.531,81.2093,0.003679
60.562,81.2093,0.003679
60.593,81.2093,0.003679
60.624,81.2093,0.003679
60.656,81.2093,0.003689
60.687,81.2093,0.003689
60.717,81.2093,0.003689
60.747,81.2093,0.003689
60.778,81.2093,0.003689
60.809,81.2093,0.003689
60.840,81.2093,0.003689
60.871,81.2093,0.003670
60.903,81.2093,0.003670
60.934,81.2093,0.003670
60.966,81.2093,0.003670
60.996,81.2093,0.003670
61.027,81.2093,0.003670
61.058,81.2093,0.003670
61.090,81.2093,0.003670
61.120,81.2093,0.003698
61.150,81.2093,0.003698
61.181,81.2093,0.003698
61.213,81.2093,0.003698
61.243,81.2093,0.003698
61.273,81.2093,0.003698
61.305,81.2093,0.003698
61.337,81.2093,0.003698
61.367,81.2093,0.003717
61.399,81.2093,0.003717
61.429,81.2093,0.003717
61.460,81.2093,0.003717
61.491,81.2093,0.003717
61.521,81.2093,0.003717
61.555,81.2093,0.003717
61.583,81.2093,0.003717
61.615,81.2093,0.003717
61.646,81.2093,0.003717
61.677,81.2093,0.003717
61.707,81.2093,0.003717
61.738,81.2093,0.003717
61.769,81.2093,0.003717
61.799,81.2093,0.003717
61.830,81.2093,0.003717
61.862,81.2093,0.003764
61.891,81.2093,0.003764
61.922,81.2093,0.003764
61.953,81.2093,0.003764
61.984,81.2093,0.003764
62.015,81.2093,0.003764
62.046,81.2093,0.003764
62.078,81.2093,0.003811
62.108,81.2093,0.003811
62.139,81.2093,0.003811
62.170,81.2093,0.003811
62.201,81.2093,0.003811
62.232,81.2093,0.003811
62.264,81.2093,0.003811
62.295,81.2093,0.003811
62.326,81.2093,0.003811
62.357,81.2093,0.003811
62.388,81.2093,0.003849
62.420,81.2093,0.003849
62.450,81.2093,0.003849
62.482,81.2093,0.003849
62.512,81.2093,0.003849
62.544,81.2093,0.003849
62.574,81.2093,0.003849
62.605,81.2093,0.003849
62.635,81.2093,0.003868
62.667,81.2093,0.003868
62.698,81.2093,0.003868
62.730,81.2093,0.003868
62.761,81.2093,0.003868
62.793,81.2093,0.003868
62.819,81.2093,0.003868
62.855,81.2093,0.003839
62.886,81.2093,0.003839
62.918,81.2093,0.003839
62.947,81.2093,0.003839
62.979,81.2093,0.003839
63.010,81.2093,0.003839
63.041,81.2093,0.003839
63.073,81.2093,0.003839
63.103,81.2093,0.003849
63.137,81.2093,0.003849
63.166,81.2093,0.003849
63.197,81.2093,0.003849
63.228,81.2093,0.003849
63.259,81.2093,0.003849
63.291,81.2093,0.003849
63.321,81.2093,0.003849
63.352,81.2093,0.003849
63.382,81.2093,0.003896
63.412,81.2093,0.003896
63.443,81.2093,0.003896
63.474,81.2093,0.003896
63.505,81.2093,0.003896
63.536,81.2093,0.003896
63.569,81.2093,0.003896
63.597,81.2093,0.003905
63.627,81.2093,0.003905
63.658,81.2093,0.003905
63.689,81.2093,0.003905
63.720,81.2093,0.003905
63.751,81.2093,0.003905
63.782,81.2093,0.003905
63.813,81.2093,0.003905
63.843,81.2093,0.003877
63.874,81.2093,0.003877
63.905,81.2093,0.003877
63.937,81.2093,0.003877
63.968,81.2093,0.003877
64.000,81.2093,0.003877
64.028,81.2093,0.003877
64.060,81.2093,0.003877
64.090,81.2093,0.003905
64.121,81.2093,0.003905
64.152,81.2093,0.003905
64.183,81.2093,0.003905
64.213,81.2093,0.003905
64.251,81.2093,0.003905
64.292,81.2093,0.003905
64.322,81.2093,0.003905
64.354,81.2093,0.003896
64.385,81.2093,0.003896
64.417,81.2093,0.003896
64.448,81.2093,0.003896
64.479,81.2093,0.003896
64.510,81.2093,0.003896
64.541,81.2092,0.003896
64.572,81.2083,0.003896
64.602,81.2066,0.003896
64.633,81.2045,0.003868
64.664,81.2012,0.003868
64.695,81.1976,0.003868
64.727,81.1929,0.003868
64.757,81.1880,0.003868
64.787,81.1820,0.003868
64.819,81.1751,0.003868
64.850,81.1679,0.003868
64.882,81.1596,0.004348
64.913,81.1504,0.004348
64.944,81.1408,0.004348
64.975,81.1304,0.004348
65.006,81.1198,0.004348
65.037,81.1079,0.004348
65.069,81.0950,0.004348
65.100,81.0816,0.004348
65.131,81.0674,0.005430
65.163,81.0522,0.005430
65.194,81.0370,0.005430
65.224,81.0210,0.005430
65.256,81.0039,0.005430
65.288,80.9849,0.005430
65.318,80.9676,0.005430
65.349,80.9482,0.005430
65.381,80.9280,0.006606
65.412,80.9074,0.006606
65.443,80.8861,0.006606
65.473,80.8640,0.006606
65.505,80.8416,0.006606
65.536,80.8179,0.006606
65.566,80.7941,0.006606
65.597,80.7691,0.007641
65.630,80.7415,0.007641
65.660,80.7163,0.007641
65.691,80.6887,0.007641
65.723,80.6604,0.007641
65.754,80.6316,0.007641
65.784,80.6032,0.007641
65.816,80.5718,0.007641
65.847,80.5416,0.008535
65.878,80.5093,0.008535
65.910,80.4772,0.008535
65.941,80.4435,0.008535
65.973,80.4096,0.008535
66.004,80.3733,0.008535
66.036,80.3380,0.008535
66.066,80.3032,0.008535
66.097,80.2669,0.008535
66.129,80.2282,0.009269
66.159,80.1896,0.009269
66.190,80.1519,0.009269
66.221,80.1126,0.009269
66.252,80.0720,0.009269
66.283,80.0302,0.009269
66.315,79.9889,0.009269
66.347,79.9448,0.009269
66.377,79.9026,0.009956
66.408,79.8581,0.009956
66.439,79.8143,0.009956
66.470,79.7677,0.009956
66.502,79.7209,0.009956
66.533,79.6723,0.009956
66.564,79.6259,0.009956
66.596,79.5757,0.010558
66.628,79.5256,0.010558
66.659,79.4767,0.010558
66.690,79.4254,0.010558
66.721,79.3745,0.010558
66.752,79.3201,0.010558
66.783,79.2688,0.010558
66.814,79.2133,0.010558
66.845,79.1606,0.010558
66.876,79.1072,0.011057
66.907,79.0511,0.011057
66.938,78.9935,0.011057
66.968,78.9373,0.011057
66.999,78.8808,0.011057
67.030,78.8228,0.011057
67.061,78.7627,0.011057
67.093,78.7016,0.011057
67.126,78.6361,0.011358
67.152,78.5865,0.011358
67.186,78.5218,0.011358
67.218,78.4617,0.011358
67.248,78.4066,0.011358
67.280,78.3482,0.011358
67.310,78.2934,0.011358
67.341,78.2370,0.011358
67.371,78.1846,0.011123
67.403,78.1289,0.011123
67.434,78.0755,0.011123
67.465,78.0241,0.011123
67.496,77.9717,0.011123
67.527,77.9224,0.011123
67.557,77.8717,0.011123
67.588,77.8219,0.011123
67.620,77.7725,0.011123
67.651,77.7236,0.010436
67.683,77.6760,0.010436
67.714,77.6294,0.010436
67.743,77.5857,0.010436
67.775,77.5390,0.010436
67.806,77.4958,0.010436
67.836,77.4513,0.010436
67.867,77.4096,0.009824
67.899,77.3656,0.009824
67.929,77.3256,0.009824
67.961,77.2828,0.009824
67.992,77.2437,0.009824
68.023,77.2037,0.009824
68.055,77.1648,0.009824
68.086,77.1252,0.009824
68.116,77.0909,0.009269
68.148,77.0533,0.009269
68.178,77.0187,0.009269
68.216,76.9749,0.009269
68.257,76.9310,0.009269
68.289,76.8965,0.009269
68.320,76.8640,0.009269
68.350,76.8338,0.008808
68.381,76.8024,0.008808
68.411,76.7735,0.008808
68.443,76.7424,0.008808
68.474,76.7137,0.008808
68.507,76.6844,0.008808
68.537,76.6581,0.008808
68.568,76.6310,0.008808
68.598,76.6062,0.008413
68.630,76.5794,0.008413
68.661,76.5561,0.008413
68.693,76.5309,0.008413
68.723,76.5092,0.008413
68.754,76.4872,0.008413
68.785,76.4655,0.008413
68.817,76.4443,0.008413
68.848,76.4239,0.008413
68.881,76.4039,0.007980
68.911,76.3859,0.007980
68.944,76.3664,0.007980
68.972,76.3514,0.007980
69.003,76.3348,0.007980
69.036,76.3186,0.007980
69.066,76.3041,0.007980
69.098,76.2897,0.007980
69.128,76.2768,0.007669
69.159,76.2641,0.007669
69.189,76.2521,0.007669
69.221,76.2407,0.007669
69.255,76.2288,0.007669
69.283,76.2203,0.007669
69.316,76.2102,0.007669
69.346,76.2026,0.007669
69.378,76.1950,0.007387
69.409,76.1881,0.007387
69.439,76.1820,0.007387
69.471,76.1766,0.007387
69.504,76.1715,0.007387
69.533,76.1680,0.007387
69.565,76.1647,0.007387
69.596,76.1623,0.007095
69.629,76.1604,0.007095
69.657,76.1596,0.007095
69.688,76.1593,0.007095
69.719,76.1593,0.007095
69.750,76.1593,0.007095
69.781,76.1593,0.007095
69.812,76.1593,0.007095
69.843,76.1593,0.007095
69.875,76.1593,0.006907
69.905,76.1599,0.006907
69.936,76.1612,0.006907
69.966,76.1632,0.006907
69.997,76.1659,0.006907
70.028,76.1695,0.006907
70.062,76.1741,0.006907
70.089,76.1783,0.006907
70.120,76.1839,0.006757
70.151,76.1903,0.006757
70.182,76.1975,0.006757
70.213,76.2052,0.006757
70.244,76.2136,0.006757
70.274,76.2228,0.006757
70.305,76.2326,0.006757
70.336,76.2434,0.006578
70.368,76.2552,0.006578
70.398,76.2670,0.006578
70.429,76.2797,0.006578
70.460,76.2934,0.006578
70.491,76.3075,0.006578
70.522,76.3229,0.006578
70.555,76.3393,0.006578
70.586,76.3560,0.006380
70.617,76.3734,0.006380
70.649,76.3919,0.006380
70.680,76.4107,0.006380
70.711,76.4306,0.006380
70.742,76.4504,0.006380
70.773,76.4720,0.006380
70.805,76.4934,0.006380
70.836,76.5164,0.006211
70.867,76.5399,0.006211
70.899,76.5641,0.006211
70.929,76.5879,0.006211
70.961,76.6141,0.006211
70.991,76.6393,0.006211
71.022,76.6661,0.006211
71.054,76.6941,0.006211
71.084,76.7226,0.006126
71.116,76.7515,0.006126
71.147,76.7808,0.006126
71.178,76.8124,0.006126
71.211,76.8453,0.006126
71.240,76.8753,0.006126
71.271,76.9077,0.006126
71.302,76.9407,0.006126
71.333,76.9754,0.006079
71.363,77.0089,0.006079
71.395,77.0455,0.006079
71.427,77.0823,0.006079
71.459,77.1205,0.006079
71.489,77.1573,0.006079
71.520,77.1957,0.006079
71.552,77.2360,0.006079
71.582,77.2759,0.006013
71.614,77.3168,0.006013
71.645,77.3592,0.006013
71.676,77.4007,0.006013
71.708,77.4443,0.006013
71.739,77.4877,0.006013
71.770,77.5333,0.006013
71.801,77.5783,0.006013
71.832,77.6244,0.006013
71.862,77.6691,0.005976
71.894,77.7168,0.005976
71.924,77.7638,0.005976
71.955,77.8128,0.005976
71.986,77.8623,0.005976
72.016,77.9102,0.005976
72.048,77.9621,0.005976
72.079,78.0147,0.005929
72.110,78.0673,0.005929
72.142,78.1221,0.005929
72.173,78.1752,0.005929
72.205,78.2308,0.005929
72.235,78.2846,0.005929
72.266,78.3410,0.005929
72.296,78.3963,0.005929
72.327,78.4540,0.005929
72.358,78.5106,0.005863
72.389,78.5712,0.005863
72.420,78.6299,0.005863
72.451,78.6915,0.005863
72.482,78.7504,0.005863
72.514,78.8104,0.005863
72.545,78.8676,0.005863
72.577,78.9274,0.005863
72.606,78.9820,0.005684
72.639,79.0414,0.005684
72.670,79.0955,0.005684
72.702,79.1513,0.005684
72.733,79.2045,0.005684
72.764,79.2589,0.005684
72.795,79.3101,0.005684
72.826,79.3632,0.005251
72.859,79.4152,0.005251
72.888,79.4637,0.005251
72.920,79.5134,0.005251
72.951,79.5631,0.005251
72.982,79.6111,0.005251
73.013,79.6578,0.005251
73.045,79.7049,0.005251
73.077,79.7519,0.005251
73.107,79.7953,0.004517
73.141,79.8442,0.004517
73.169,79.8824,0.004517
73.200,79.9258,0.004517
73.230,79.9670,0.004517
73.261,80.0081,0.004517
73.292,80.0491,0.004517
73.324,80.0899,0.004517
73.354,80.1278,0.003501
73.389,80.1705,0.003501
73.417,80.2046,0.003501
73.448,80.2420,0.003501
73.479,80.2770,0.003501
73.509,80.3130,0.003501
73.539,80.3464,0.003501
73.570,80.3797,0.003501
73.600,80.4122,0.002475
73.631,80.4454,0.002475
73.662,80.4766,0.002475
73.693,80.5076,0.002475
73.724,80.5377,0.002475
73.755,80.5680,0.002475
73.786,80.5968,0.002475
73.817,80.6252,0.002475
73.848,80.6519,0.001722
73.879,80.6799,0.001722
73.909,80.7044,0.001722
73.940,80.7303,0.001722
73.971,80.7548,0.001722
74.003,80.7791,0.001722
74.033,80.8018,0.001722
74.066,80.8253,0.001722
74.095,80.8457,0.001289
74.126,80.8670,0.001289
74.156,80.8865,0.001289
74.188,80.9074,0.001289
74.219,80.9252,0.001289
74.249,80.9432,0.001289
74.281,80.9608,0.001289
74.312,80.9774,0.001289
74.343,80.9938,0.001223
74.374,81.0084,0.001223
74.405,81.0228,0.001223
74.436,81.0367,0.001223
74.467,81.0494,0.001223
74.498,81.0621,0.001223
74.529,81.0734,0.001223
74.560,81.0844,0.001223
74.591,81.0943,0.001515
74.621,81.1035,0.001515
74.652,81.1124,0.001515
74.683,81.1201,0.001515
74.714,81.1272,0.001515
74.745,81.1337,0.001515
74.775,81.1394,0.001515
74.807,81.1443,0.001515
74.838,81.1488,0.002080
74.868,81.1521,0.002080
74.899,81.1551,0.002080
74.930,81.1572,0.002080
74.960,81.1586,0.002080
74.991,81.1592,0.002080
75.023,81.1593,0.002080
75.052,81.1593,0.002080
75.082,81.1593,0.002945
75.114,81.1593,0.002945
75.145,81.1593,0.002945
75.175,81.1593,0.002945
75.207,81.1593,0.002945
75.241,81.1593,0.002945
75.268,81.1593,0.002945
75.300,81.1593,0.002945
75.330,81.1593,0.002945
75.362,81.1593,0.003567
75.393,81.1593,0.003567
75.426,81.1593,0.003567
75.454,81.1593,0.003567
75.487,81.1593,0.003567
75.517,81.1593,0.003567
75.548,81.1593,0.003567
75.580,81.1593,0.003567
75.610,81.1593,0.003698
75.641,81.1593,0.003698
75.675,81.1593,0.003698
75.703,81.1593,0.003698
75.737,81.1593,0.003698
75.765,81.1593,0.003698
75.796,81.1593,0.003698
75.826,81.1593,0.003745
75.857,81.1593,0.003745
75.889,81.1593,0.003745
75.919,81.1593,0.003745
75.951,81.1593,0.003745
75.982,81.1593,0.003745
76.013,81.1593,0.003745
76.043,81.1593,0.003745
76.075,81.1593,0.003745
76.106,81.1593,0.003802
76.137,81.1593,0.003802
76.171,81.1593,0.003802
76.199,81.1593,0.003802
76.231,81.1593,0.003802
76.264,81.1593,0.003802
76.295,81.1593,0.003802
76.326,81.1593,0.003802
76.357,81.1593,0.003783
76.387,81.1593,0.003783
76.418,81.1593,0.003783
76.450,81.1593,0.003783
76.480,81.1593,0.003783
76.511,81.1593,0.003783
76.542,81.1593,0.003783
76.573,81.1593,0.003783
76.604,81.1593,0.003792
76.635,81.1593,0.003792
76.667,81.1593,0.003792
76.697,81.1593,0.003792
76.727,81.1593,0.003792
76.759,81.1593,0.003792
76.788,81.1593,0.003792
76.819,81.1593,0.003792
76.851,81.1593,0.003868
76.882,81.1593,0.003868
76.913,81.1593,0.003868
76.944,81.1593,0.003868
76.975,81.1593,0.003868
77.006,81.1593,0.003868
77.037,81.1593,0.003868
77.068,81.1593,0.003868
77.099,81.1593,0.003868
77.130,81.1593,0.003886
77.161,81.1593,0.003886
77.192,81.1593,0.003886
77.223,81.1593,0.003886
77.254,81.1593,0.003886
77.285,81.1593,0.003886
77.316,81.1593,0.003886
77.347,81.1593,0.003886
77.378,81.1593,0.003886
77.409,81.1593,0.003905
77.440,81.1593,0.003905
77.470,81.1593,0.003905
77.501,81.1593,0.003905
77.533,81.1593,0.003905
77.564,81.1593,0.003905
77.594,81.1593,0.003905
77.626,81.1593,0.003971
77.657,81.1593,0.003971
77.688,81.1593,0.003971
77.718,81.1593,0.003971
77.749,81.1593,0.003971
77.780,81.1593,0.003971
77.811,81.1593,0.003971
77.839,81.1593,0.003971
77.873,81.1593,0.003971
77.904,81.1593,0.003990
77.935,81.1593,0.003990
77.966,81.1593,0.003990
77.998,81.1593,0.003990
78.029,81.1593,0.003990
78.060,81.1593,0.003990
78.093,81.1593,0.003990
78.122,81.1593,0.003981
78.154,81.1593,0.003981
78.185,81.1593,0.003981
78.216,81.1593,0.003981
78.247,81.1593,0.003981
78.279,81.1593,0.003981
78.310,81.1593,0.003981
78.341,81.1593,0.003971
78.372,81.1593,0.003971
78.403,81.1593,0.003971
78.434,81.1593,0.003971
78.465,81.1593,0.003971
78.496,81.1593,0.003971
78.527,81.1593,0.003971
78.559,81.1593,0.003971
78.589,81.1593,0.003952
78.619,81.1593,0.003952
78.651,81.1593,0.003952
78.682,81.1593,0.003952
78.713,81.1593,0.003952
78.749,81.1593,0.003952
78.775,81.1593,0.003952
78.807,81.1593,0.003952
78.838,81.1593,0.003943
78.867,81.1593,0.003943
78.898,81.1593,0.003943
78.929,81.1593,0.003943
78.960,81.1593,0.003943
78.990,81.1593,0.003943
79.021,81.1593,0.003943
79.052,81.1593,0.003943
79.084,81.1593,0.003943
79.114,81.1593,0.003952
79.145,81.1593,0.003952
79.177,81.1593,0.003952
79.208,81.1593,0.003952
79.239,81.1593,0.003952
79.270,81.1593,0.003952
79.301,81.1593,0.003952
79.333,81.1593,0.003952
79.363,81.1593,0.003943
79.394,81.1593,0.003943
79.426,81.1593,0.003943
79.457,81.1593,0.003943
79.488,81.1593,0.003943
79.520,81.1593,0.003943
79.551,81.1593,0.003943
79.583,81.1593,0.003943
79.613,81.1593,0.003971
79.644,81.1593,0.003971
79.674,81.1593,0.003971
79.705,81.1591,0.003971
79.736,81.1581,0.003971
79.768,81.1562,0.003971
79.798,81.1539,0.003971
79.829,81.1506,0.003971
79.859,81.1468,0.004018
79.890,81.1423,0.004018
79.920,81.1370,0.004018
79.952,81.1309,0.004018
79.982,81.1241,0.004018
80.014,81.1167,0.004018
80.044,81.1082,0.004018
80.076,81.0992,0.004018
80.107,81.0894,0.004018
80.139,81.0788,0.004696
80.169,81.0682,0.004696
80.200,81.0560,0.004696
80.231,81.0437,0.004696
80.262,81.0300,0.004696
80.293,81.0160,0.004696
80.326,81.0001,0.004696
80.355,80.9857,0.005872
80.387,80.9691,0.005872
80.417,80.9523,0.005872
80.449,80.9346,0.005872
80.479,80.9162,0.005872
80.510,80.8966,0.005872
80.541,80.8769,0.005872
80.572,80.8567,0.005872
80.607,80.8324,0.006964
80.634,80.8135,0.006964
80.665,80.7901,0.006964
80.695,80.7678,0.006964
80.726,80.7429,0.006964
80.756,80.7192,0.006964
80.787,80.6930,0.006964
80.819,80.6668,0.006964
80.851,80.6381,0.006964
80.882,80.6104,0.007933
80.914,80.5808,0.007933
80.943,80.5538,0.007933
80.974,80.5238,0.007933
81.005,80.4932,0.007933
81.035,80.4617,0.007933
81.067,80.4286,0.007933
81.097,80.3973,0.007933
81.127,80.3648,0.008742
81.159,80.3279,0.008742
81.189,80.2944,0.008742
81.220,80.2592,0.008742
81.251,80.2227,0.008742
81.282,80.1841,0.008742
81.313,80.1465,0.008742
81.345,80.1070,0.008742
81.376,80.0672,0.009561
81.408,80.0260,0.009561
81.437,79.9874,0.009561
81.470,79.9438,0.009561
81.500,79.9032,0.009561
81.532,79.8578,0.009561
81.562,79.8159,0.009561
81.592,79.7720,0.009561
81.624,79.7265,0.010220
81.654,79.6807,0.010220
81.686,79.6327,0.010220
81.716,79.5865,0.010220
81.747,79.5380,0.010220
81.779,79.4882,0.010220
81.810,79.4384,0.010220
81.840,79.3898,0.010220
81.873,79.3348,0.010220
81.902,79.2872,0.010728
81.934,79.2326,0.010728
81.964,79.1802,0.010728
81.995,79.1253,0.010728
82.030,79.0658,0.010728
82.056,79.0169,0.010728
82.091,78.9558,0.010728
82.119,78.9035,0.010728
82.151,78.8439,0.011151
82.182,78.7859,0.011151
82.213,78.7256,0.011151
82.244,78.6662,0.011151
82.276,78.6056,0.011151
82.307,78.5449,0.011151
82.339,78.4845,0.011151
82.370,78.4252,0.011151
82.401,78.3669,0.011264
82.431,78.3119,0.011264
82.462,78.2554,0.011264
82.495,78.1974,0.011264
82.525,78.1448,0.011264
82.555,78.0912,0.011264
82.587,78.0375,0.011264
82.618,77.9838,0.010860
82.650,77.9281,0.010860
82.678,77.8827,0.010860
82.717,77.8215,0.010860
82.756,77.7576,0.010860
82.787,77.7105,0.010860
82.818,77.6607,0.010860
82.850,77.6145,0.010182
82.881,77.5667,0.010182
82.912,77.5217,0.010182
82.943,77.4763,0.010182
82.974,77.4327,0.010182
83.006,77.3868,0.010182
83.035,77.3478,0.010182
83.066,77.3043,0.010182
83.096,77.2649,0.009561
83.127,77.2248,0.009561
83.158,77.1849,0.009561
83.189,77.1458,0.009561
83.220,77.1064,0.009561
83.251,77.0689,0.009561
83.283,77.0311,0.009561
83.314,76.9947,0.009561
83.345,76.9587,0.009053
83.378,76.9219,0.009053
83.407,76.8899,0.009053
83.437,76.8576,0.009053
83.468,76.8245,0.009053
83.501,76.7916,0.009053
83.531,76.7618,0.009053
83.561,76.7312,0.009053
83.591,76.7027,0.008582
83.623,76.6739,0.008582
83.654,76.6455,0.008582
83.685,76.6170,0.008582
83.716,76.5907,0.008582
83.747,76.5638,0.008582
83.777,76.5398,0.008582
83.809,76.5145,0.008582
83.839,76.4910,0.008582
83.871,76.4671,0.008178
83.902,76.4452,0.008178
83.933,76.4234,0.008178
83.964,76.4019,0.008178
83.996,76.3812,0.008178
84.027,76.3619,0.008178
84.062,76.3405,0.008178
84.089,76.3249,0.008178
84.120,76.3073,0.007848
84.150,76.2912,0.007848
84.181,76.2754,0.007848
84.211,76.2603,0.007848
84.243,76.2455,0.007848
84.274,76.2322,0.007848
84.305,76.2191,0.007848
84.337,76.2067,0.007848
84.366,76.1955,0.007848
84.397,76.1849,0.007509
84.429,76.1745,0.007509
84.459,76.1651,0.007509
84.491,76.1563,0.007509
84.522,76.1487,0.007509
84.552,76.1413,0.007509
84.582,76.1351,0.007509
84.615,76.1292,0.007237
84.645,76.1243,0.007237
84.675,76.1201,0.007237
84.707,76.1164,0.007237
84.737,76.1136,0.007237
84.770,76.1113,0.007237
84.800,76.1101,0.007237
84.831,76.1093,0.007237
84.861,76.1093,0.007237
84.892,76.1093,0.007237
84.925,76.1093,0.006973
84.954,76.1093,0.006973
84.985,76.1093,0.006973
85.015,76.1093,0.006973
85.047,76.1097,0.006973
85.077,76.1108,0.006973
85.108,76.1127,0.006973
85.138,76.1152,0.006823
85.169,76.1185,0.006823
85.200,76.1224,0.006823
85.231,76.1272,0.006823
85.262,76.1328,0.006823
85.293,76.1389,0.006823
85.324,76.1459,0.006823
85.355,76.1534,0.006823
85.386,76.1619,0.006559
85.417,76.1709,0.006559
85.448,76.1807,0.006559
85.473,76.1892,0.006559
85.510,76.2026,0.006559
85.541,76.2146,0.006559
85.572,76.2275,0.006559
85.603,76.2411,0.006559
85.634,76.2551,0.006305
85.666,76.2707,0.006305
85.697,76.2858,0.006305
85.727,76.3019,0.006305
85.759,76.3197,0.006305
85.790,76.3375,0.006305
85.821,76.3568,0.006305
85.851,76.3750,0.006305
85.882,76.3947,0.006267
85.913,76.4160,0.006267
85.945,76.4375,0.006267
85.976,76.4600,0.006267
86.006,76.4819,0.006267
86.037,76.5060,0.006267
86.068,76.5297,0.006267
86.099,76.5561,0.006267
86.131,76.5816,0.006145
86.162,76.6093,0.006145
86.193,76.6361,0.006145
86.224,76.6642,0.006145
86.255,76.6927,0.006145
86.286,76.7220,0.006145
86.317,76.7522,0.006145
86.348,76.7843,0.006145
86.380,76.8157,0.006032
86.410,76.8485,0.006032
86.442,76.8814,0.006032
86.474,76.9175,0.006032
86.505,76.9511,0.006032
86.535,76.9856,0.006032
86.566,77.0209,0.006032
86.597,77.0581,0.006032
86.628,77.0953,0.005919
86.660,77.1354,0.005919
86.690,77.1732,0.005919
86.721,77.2128,0.005919
86.752,77.2535,0.005919
86.783,77.2950,0.005919
86.815,77.3369,0.005919
86.845,77.3795,0.005919
86.876,77.4226,0.005910
86.908,77.4679,0.005910
86.939,77.5125,0.005910
86.971,77.5597,0.005910
87.001,77.6049,0.005910
87.033,77.6545,0.005910
87.062,77.6982,0.005910
87.093,77.7452,0.005910
87.124,77.7941,0.005938
87.154,77.8432,0.005938
87.185,77.8945,0.005938
87.216,77.9466,0.005938
87.247,77.9991,0.005938
87.278,78.0494,0.005938
87.309,78.1038,0.005938
87.340,78.1582,0.005938
87.370,78.2128,0.005919
87.405,78.2744,0.005919
87.433,78.3249,0.005919
87.464,78.3832,0.005919
87.494,78.4384,0.005919
87.526,78.4987,0.005919
87.556,78.5571,0.005919
87.587,78.6163,0.005919
87.618,78.6756,0.005769
87.649,78.7367,0.005769
87.681,78.7952,0.005769
87.711,78.8531,0.005769
87.744,78.9121,0.005769
87.773,78.9646,0.005769
87.803,79.0192,0.005769
87.834,79.0731,0.005769
87.865,79.1278,0.005580
87.896,79.1794,0.005580
87.926,79.2314,0.005580
87.958,79.2847,0.005580
87.988,79.3357,0.005580
88.027,79.3984,0.005580
88.067,79.4619,0.005580
88.098,79.5104,0.005580
88.129,79.5584,0.005223
88.159,79.6042,0.005223
88.190,79.6506,0.005223
88.222,79.6965,0.005223
88.252,79.7406,0.005223
88.284,79.7879,0.005223
88.314,79.8286,0.005223
88.345,79.8713,0.005223
88.376,79.9128,0.004348
88.407,79.9552,0.004348
88.438,79.9950,0.004348
88.471,80.0374,0.004348
88.500,80.0746,0.004348
88.531,80.1134,0.004348
88.562,80.1505,0.004348
88.597,80.1924,0.004348
88.624,80.2248,0.003200
88.656,80.2604,0.003200
88.686,80.2939,0.003200
88.718,80.3286,0.003200
88.749,80.3625,0.003200
88.780,80.3953,0.003200
88.811,80.4280,0.003200
88.843,80.4592,0.003200
88.874,80.4897,0.002306
88.905,80.5196,0.002306
88.935,80.5481,0.002306
88.966,80.5753,0.002306
88.996,80.6028,0.002306
89.029,80.6311,0.002306
89.058,80.6549,0.002306
89.089,80.6801,0.002306
89.119,80.7044,0.001797
89.150,80.7288,0.001797
89.182,80.7522,0.001797
89.212,80.7739,0.001797
89.243,80.7953,0.001797
89.273,80.8162,0.001797
89.306,80.8377,0.001797
89.335,80.8561,0.001797
89.366,80.8743,0.001797
89.397,80.8929,0.001449
89.427,80.9095,0.001449
89.461,80.9278,0.001449
89.489,80.9422,0.001449
89.523,80.9587,0.001449
89.550,80.9716,0.001449
89.585,80.9869,0.001449
89.612,80.9982,0.001449
89.643,81.0110,0.001430
89.674,81.0223,0.001430
89.705,81.0332,0.001430
89.735,81.0430,0.001430
89.767,81.0528,0.001430
89.798,81.0617,0.001430
89.828,81.0692,0.001430
89.859,81.0765,0.001430
89.890,81.0831,0.001854
89.921,81.0889,0.001854
89.952,81.0940,0.001854
89.983,81.0983,0.001854
90.014,81.1020,0.001854
90.046,81.1050,0.001854
90.077,81.1071,0.001854
90.108,81.1086,0.002550
90.140,81.1092,0.002550
90.169,81.1093,0.002550
90.199,81.1093,0.002550
90.229,81.1093,0.002550
90.260,81.1093,0.002550
90.291,81.1093,0.002550
90.323,81.1093,0.002550
90.353,81.1093,0.003322
90.384,81.1093,0.003322
90.415,81.1093,0.003322
90.448,81.1093,0.003322
90.478,81.1093,0.003322
90.509,81.1093,0.003322
90.538,81.1093,0.003322
90.570,81.1093,0.003322
90.601,81.1093,0.003727
90.632,81.1093,0.003727
90.662,81.1093,0.003727
90.693,81.1093,0.003727
90.725,81.1093,0.003727
90.756,81.1093,0.003727
