Elapsed Time (s),Position (mm),Force (N)
-0.011,62.9094,0.004178
0.020,62.9094,0.004178
0.052,62.9094,0.004178
0.083,62.9094,0.004178
0.115,62.9094,0.004178
0.147,62.9094,0.004159
0.178,62.9094,0.004159
0.209,62.9094,0.004159
0.239,62.9094,0.004159
0.271,62.9094,0.004159
0.302,62.9094,0.004159
0.334,62.9094,0.004159
0.364,62.9094,0.004159
0.395,62.9094,0.004178
0.426,62.9094,0.004178
0.456,62.9094,0.004178
0.486,62.9094,0.004178
0.518,62.9094,0.004178
0.548,62.9094,0.004178
0.580,62.9094,0.004178
0.610,62.9094,0.004178
0.642,62.9094,0.004178
0.673,62.9094,0.004206
0.704,62.9094,0.004206
0.735,62.9094,0.004206
0.766,62.9094,0.004206
0.797,62.9094,0.004206
0.828,62.9094,0.004206
0.858,62.9094,0.004206
0.891,62.9094,0.004206
0.922,62.9094,0.004206
0.953,62.9094,0.004206
0.984,62.9094,0.004206
1.015,62.9094,0.004206
1.047,62.9094,0.004206
1.078,62.9094,0.004206
1.110,62.9094,0.004206
1.142,62.9094,0.004103
1.173,62.9094,0.004103
1.204,62.9094,0.004103
1.235,62.9094,0.004103
1.265,62.9094,0.004103
1.296,62.9094,0.004103
1.327,62.9094,0.004103
1.359,62.9094,0.004103
1.389,62.9094,0.004094
1.420,62.9094,0.004094
1.452,62.9094,0.004094
1.483,62.9094,0.004094
1.514,62.9094,0.004094
1.545,62.9094,0.004094
1.576,62.9094,0.004094
1.607,62.9094,0.004094
1.638,62.9094,0.004178
1.669,62.9094,0.004178
1.699,62.9094,0.004178
1.731,62.9094,0.004178
1.761,62.9094,0.004178
1.793,62.9094,0.004178
1.824,62.9094,0.004178
1.854,62.9094,0.004178
1.886,62.9094,0.004178
1.917,62.9094,0.004159
1.948,62.9094,0.004159
1.979,62.9094,0.004159
2.010,62.9094,0.004159
2.042,62.9094,0.004159
2.072,62.9094,0.004159
2.103,62.9094,0.004159
2.134,62.9094,0.004094
2.165,62.9094,0.004094
2.196,62.9094,0.004094
2.227,62.9094,0.004094
2.259,62.9094,0.004094
2.290,62.9094,0.004094
2.321,62.9094,0.004094
2.352,62.9094,0.004094
2.382,62.9094,0.004094
2.413,62.9094,0.004075
2.444,62.9094,0.004075
2.476,62.9094,0.004075
2.505,62.9094,0.004075
2.535,62.9094,0.004075
2.567,62.9094,0.004075
2.601,62.9094,0.004075
2.630,62.9094,0.004075
2.661,62.9094,0.004141
2.691,62.9094,0.004141
2.722,62.9094,0.004141
2.754,62.9094,0.004141
2.785,62.9094,0.004141
2.816,62.9094,0.004141
2.847,62.9094,0.004141
2.878,62.9094,0.004141
2.909,62.9094,0.004169
2.941,62.9094,0.004169
2.972,62.9094,0.004169
3.002,62.9094,0.004169
3.032,62.9094,0.004169
3.064,62.9094,0.004169
3.097,62.9094,0.004169
3.125,62.9094,0.004103
3.156,62.9094,0.004103
3.187,62.9094,0.004103
3.218,62.9094,0.004103
3.249,62.9094,0.004103
3.280,62.9094,0.004103
3.311,62.9094,0.004103
3.342,62.9094,0.004103
3.373,62.9094,0.004084
3.404,62.9094,0.004084
3.435,62.9094,0.004084
3.466,62.9094,0.004084
3.497,62.9094,0.004084
3.528,62.9094,0.004084
3.559,62.9094,0.004084
3.590,62.9094,0.004084
3.621,62.9094,0.004122
3.653,62.9094,0.004122
3.683,62.9094,0.004122
3.714,62.9094,0.004122
3.745,62.9094,0.004122
3.777,62.9094,0.004122
3.807,62.9094,0.004122
3.839,62.9094,0.004122
3.869,62.9094,0.004112
3.900,62.9094,0.004112
3.931,62.9094,0.004112
3.962,62.9094,0.004112
3.994,62.9094,0.004112
4.025,62.9094,0.004112
4.056,62.9094,0.004112
4.087,62.9094,0.004112
4.118,62.9094,0.004131
4.148,62.9092,0.004131
4.179,62.9082,0.004131
4.211,62.9064,0.004131
4.242,62.9041,0.004131
4.273,62.9007,0.004131
4.305,62.8969,0.004131
4.337,62.8922,0.004131
4.367,62.8868,0.004244
4.400,62.8803,0.004244
4.429,62.8739,0.004244
4.461,62.8660,0.004244
4.492,62.8579,0.004244
4.522,62.8491,0.004244
4.553,62.8393,0.004244
4.584,62.8290,0.004244
4.615,62.8179,0.004244
4.646,62.8058,0.004253
4.677,62.7934,0.004253
4.708,62.7800,0.004253
4.738,62.7662,0.004253
4.770,62.7513,0.004253
4.801,62.7355,0.004253
4.832,62.7191,0.004253
4.862,62.7025,0.004235
4.893,62.6849,0.004235
4.925,62.6661,0.004235
4.955,62.6470,0.004235
4.990,62.6245,0.004235
5.018,62.6062,0.004235
5.053,62.5819,0.004235
5.081,62.5618,0.004235
5.115,62.5367,0.004235
5.144,62.5146,0.004235
5.174,62.4909,0.004253
5.206,62.4658,0.004253
5.236,62.4398,0.004253
5.267,62.4143,0.004253
5.298,62.3860,0.004253
5.329,62.3589,0.004253
5.359,62.3305,0.004253
5.390,62.3019,0.004253
5.421,62.2714,0.004244
5.452,62.2408,0.004244
5.484,62.2078,0.004244
5.513,62.1780,0.004244
5.544,62.1445,0.004244
5.575,62.1109,0.004244
5.606,62.0763,0.004244
5.637,62.0417,0.004253
5.668,62.0065,0.004253
5.699,61.9693,0.004253
5.729,61.9323,0.004253
5.761,61.8938,0.004253
5.792,61.8554,0.004253
5.822,61.8156,0.004253
5.855,61.7742,0.004253
5.885,61.7342,0.004263
5.918,61.6899,0.004263
5.948,61.6483,0.004263
5.978,61.6069,0.004263
6.007,61.5656,0.004263
6.038,61.5215,0.004263
6.069,61.4764,0.004263
6.100,61.4300,0.004263
6.130,61.3847,0.004263
6.161,61.3370,0.004263
6.191,61.2900,0.004263
6.222,61.2403,0.004263
6.254,61.1911,0.004263
6.284,61.1403,0.004263
6.316,61.0901,0.004263
6.348,61.0359,0.004263
6.378,60.9842,0.004197
6.411,60.9274,0.004197
6.440,60.8773,0.004197
6.472,60.8203,0.004197
6.503,60.7645,0.004197
6.536,60.7050,0.004197
6.567,60.6478,0.004197
6.598,60.5914,0.004197
6.628,60.5330,0.004225
6.658,60.4767,0.004225
6.690,60.4158,0.004225
6.721,60.3554,0.004225
6.753,60.2929,0.004225
6.783,60.2363,0.004225
6.815,60.1758,0.004225
6.846,60.1184,0.004225
6.878,60.0596,0.004131
6.908,60.0048,0.004131
6.939,59.9486,0.004131
6.970,59.8938,0.004131
7.001,59.8397,0.004131
7.032,59.7867,0.004131
7.063,59.7333,0.004131
7.094,59.6813,0.004131
7.125,59.6308,0.003999
7.157,59.5790,0.003999
7.188,59.5304,0.003999
7.218,59.4809,0.003999
7.249,59.4344,0.003999
7.281,59.3853,0.003999
7.310,59.3412,0.003999
7.342,59.2945,0.003999
7.372,59.2487,0.004028
7.403,59.2058,0.004028
7.434,59.1619,0.004028
7.465,59.1189,0.004028
7.495,59.0766,0.004028
7.526,59.0352,0.004028
7.558,58.9937,0.004028
7.589,58.9528,0.004028
7.624,58.9072,0.004037
7.666,58.8558,0.004037
7.697,58.8179,0.004037
7.727,58.7824,0.004037
7.758,58.7461,0.004037
7.789,58.7103,0.004037
7.821,58.6745,0.004037
7.853,58.6400,0.004037
7.883,58.6074,0.004037
7.915,58.5739,0.004018
7.946,58.5422,0.004018
7.980,58.5077,0.004018
8.008,58.4800,0.004018
8.038,58.4513,0.004018
8.070,58.4212,0.004018
8.101,58.3931,0.004018
8.132,58.3652,0.004018
8.163,58.3389,0.004009
8.195,58.3121,0.004009
8.226,58.2867,0.004009
8.256,58.2622,0.004009
8.288,58.2379,0.004009
8.319,58.2146,0.004009
8.350,58.1932,0.004009
8.381,58.1712,0.004009
8.412,58.1504,0.004009
8.443,58.1302,0.004009
8.474,58.1104,0.004009
8.505,58.0921,0.004009
8.538,58.0722,0.004009
8.567,58.0569,0.004009
8.598,58.0401,0.004009
8.628,58.0246,0.003990
8.660,58.0089,0.003990
8.691,57.9946,0.003990
8.723,57.9807,0.003990
8.753,57.9681,0.003990
8.784,57.9558,0.003990
8.815,57.9442,0.003990
8.848,57.9330,0.003990
8.873,57.9247,0.003990
8.908,57.9142,0.003999
8.939,57.9057,0.003999
8.969,57.8980,0.003999
9.000,57.8908,0.003999
9.033,57.8841,0.003999
9.064,57.8785,0.003999
9.095,57.8734,0.003999
9.126,57.8693,0.004056
9.157,57.8659,0.004056
9.188,57.8631,0.004056
9.218,57.8612,0.004056
9.249,57.8599,0.004056
9.280,57.8593,0.004056
9.311,57.8593,0.004056
9.342,57.8593,0.004056
9.373,57.8593,0.004056
9.405,57.8593,0.004056
9.435,57.8593,0.004056
9.466,57.8594,0.004056
9.497,57.8604,0.004056
9.528,57.8620,0.004056
9.558,57.8643,0.004056
9.589,57.8674,0.004056
9.621,57.8713,0.004046
9.652,57.8759,0.004046
9.684,57.8812,0.004046
9.715,57.8872,0.004046
9.746,57.8941,0.004046
9.778,57.9016,0.004046
9.810,57.9101,0.004046
9.840,57.9189,0.004046
9.871,57.9285,0.004046
9.902,57.9390,0.004028
9.933,57.9503,0.004028
9.965,57.9620,0.004028
9.995,57.9744,0.004028
10.026,57.9877,0.004028
10.057,58.0022,0.004028
10.088,58.0164,0.004028
10.118,58.0318,0.004018
10.149,58.0482,0.004018
10.180,58.0645,0.004018
10.211,58.0824,0.004018
10.242,58.1006,0.004018
10.273,58.1195,0.004018
10.303,58.1393,0.004018
10.334,58.1597,0.004018
10.366,58.1819,0.004018
10.397,58.2038,0.004018
10.429,58.2273,0.004018
10.460,58.2505,0.004018
10.491,58.2749,0.004018
10.521,58.2992,0.004018
10.552,58.3252,0.004018
10.583,58.3515,0.004018
10.615,58.3791,0.003971
10.646,58.4075,0.003971
10.677,58.4353,0.003971
10.707,58.4635,0.003971
10.741,58.4964,0.003971
10.769,58.5244,0.003971
10.800,58.5561,0.003971
10.831,58.5884,0.003971
10.862,58.6213,0.003971
10.894,58.6554,0.003971
10.924,58.6891,0.004018
10.955,58.7242,0.004018
10.985,58.7591,0.004018
11.017,58.7970,0.004018
11.048,58.8332,0.004018
11.079,58.8728,0.004018
11.110,58.9099,0.004018
11.141,58.9498,0.004009
11.173,58.9921,0.004009
11.202,59.0298,0.004009
11.233,59.0717,0.004009
11.264,59.1135,0.004009
11.294,59.1566,0.004009
11.326,59.2006,0.004009
11.358,59.2462,0.004009
11.388,59.2908,0.003962
11.420,59.3381,0.003962
11.451,59.3838,0.003962
11.482,59.4331,0.003962
11.513,59.4804,0.003962
11.544,59.5296,0.003962
11.575,59.5781,0.003962
11.606,59.6295,0.003962
11.636,59.6790,0.004009
11.667,59.7314,0.004009
11.698,59.7833,0.004009
11.729,59.8380,0.004009
11.761,59.8925,0.004009
11.794,59.9511,0.004009
11.825,60.0071,0.004009
11.856,60.0641,0.004009
11.887,60.1183,0.003981
11.918,60.1760,0.003981
11.949,60.2363,0.003981
11.985,60.3052,0.003981
12.012,60.3571,0.003981
12.043,60.4180,0.003981
12.075,60.4767,0.003981
12.106,60.5356,0.003999
12.136,60.5925,0.003999
12.167,60.6499,0.003999
12.198,60.7054,0.003999
12.229,60.7614,0.003999
12.259,60.8140,0.003999
12.290,60.8698,0.003999
12.324,60.9271,0.003999
12.351,60.9753,0.003999
12.382,61.0252,0.004103
12.413,61.0762,0.004103
12.444,61.1273,0.004103
12.476,61.1773,0.004103
12.507,61.2289,0.004103
12.539,61.2774,0.004103
12.570,61.3254,0.004103
12.601,61.3716,0.004103
12.632,61.4184,0.004206
12.662,61.4622,0.004206
12.693,61.5069,0.004206
12.725,61.5508,0.004206
12.756,61.5944,0.004206
12.786,61.6363,0.004206
12.818,61.6800,0.004206
12.849,61.7203,0.004206
12.880,61.7613,0.004206
12.911,61.8011,0.004216
12.943,61.8407,0.004216
12.973,61.8776,0.004216
13.003,61.9147,0.004216
13.034,61.9502,0.004216
13.066,61.9879,0.004216
13.096,62.0220,0.004216
13.127,62.0557,0.004216
13.158,62.0901,0.004216
13.189,62.1241,0.004178
13.221,62.1563,0.004178
13.252,62.1888,0.004178
13.284,62.2197,0.004178
13.315,62.2498,0.004178
13.346,62.2796,0.004178
13.378,62.3095,0.004178
13.408,62.3364,0.004206
13.439,62.3636,0.004206
13.470,62.3900,0.004206
13.501,62.4157,0.004206
13.533,62.4416,0.004206
13.563,62.4654,0.004206
13.594,62.4888,0.004206
13.625,62.5112,0.004206
13.657,62.5342,0.004272
13.687,62.5551,0.004272
13.718,62.5753,0.004272
13.747,62.5948,0.004272
13.779,62.6139,0.004272
13.810,62.6326,0.004272
13.841,62.6502,0.004272
13.870,62.6668,0.004272
13.901,62.6829,0.004235
13.936,62.7004,0.004235
13.964,62.7139,0.004235
13.994,62.7281,0.004235
14.026,62.7413,0.004235
14.056,62.7541,0.004235
14.086,62.7655,0.004235
14.118,62.7771,0.004235
14.148,62.7875,0.004206
14.179,62.7975,0.004206
14.210,62.8063,0.004206
14.240,62.8148,0.004206
14.271,62.8223,0.004206
14.302,62.8294,0.004206
14.334,62.8356,0.004206
14.365,62.8412,0.004206
14.395,62.8459,0.004263
14.429,62.8502,0.004263
14.458,62.8533,0.004263
14.489,62.8559,0.004263
14.519,62.8577,0.004263
14.551,62.8589,0.004263
14.580,62.8593,0.004263
14.611,62.8593,0.004263
14.642,62.8593,0.004253
14.673,62.8593,0.004253
14.704,62.8593,0.004253
14.735,62.8593,0.004253
14.766,62.8593,0.004253
14.797,62.8593,0.004253
14.827,62.8593,0.004253
14.859,62.8593,0.004253
14.890,62.8593,0.004178
14.921,62.8593,0.004178
14.952,62.8593,0.004178
14.984,62.8593,0.004178
15.013,62.8593,0.004178
15.045,62.8593,0.004178
15.077,62.8593,0.004178
15.107,62.8593,0.004178
15.138,62.8593,0.004131
15.168,62.8593,0.004131
15.199,62.8593,0.004131
15.230,62.8593,0.004131
15.261,62.8593,0.004131
15.292,62.8593,0.004131
15.323,62.8593,0.004131
15.354,62.8593,0.004131
15.385,62.8593,0.004131
15.416,62.8593,0.004141
15.447,62.8593,0.004141
15.478,62.8593,0.004141
15.509,62.8593,0.004141
15.541,62.8593,0.004141
15.572,62.8593,0.004141
15.604,62.8593,0.004141
15.634,62.8593,0.004141
15.665,62.8593,0.004141
15.696,62.8593,0.004141
15.727,62.8593,0.004141
15.759,62.8593,0.004141
15.789,62.8593,0.004141
15.819,62.8593,0.004141
15.850,62.8593,0.004141
15.880,62.8593,0.004178
15.911,62.8593,0.004178
15.942,62.8593,0.004178
15.973,62.8593,0.004178
16.004,62.8593,0.004178
16.036,62.8593,0.004178
16.066,62.8593,0.004178
16.099,62.8593,0.004178
16.129,62.8593,0.004206
16.159,62.8593,0.004206
16.189,62.8593,0.004206
16.221,62.8593,0.004206
16.252,62.8593,0.004206
16.283,62.8593,0.004206
16.316,62.8593,0.004206
16.348,62.8593,0.004206
16.378,62.8593,0.004150
16.409,62.8593,0.004150
16.441,62.8593,0.004150
16.473,62.8593,0.004150
16.503,62.8593,0.004150
16.533,62.8593,0.004150
16.565,62.8593,0.004150
16.595,62.8593,0.004150
16.626,62.8593,0.004122
16.658,62.8593,0.004122
16.689,62.8593,0.004122
16.720,62.8593,0.004122
16.752,62.8593,0.004122
16.783,62.8593,0.004122
16.814,62.8593,0.004122
16.845,62.8593,0.004122
16.875,62.8593,0.004141
16.907,62.8593,0.004141
16.938,62.8593,0.004141
16.969,62.8593,0.004141
17.000,62.8593,0.004141
17.031,62.8593,0.004141
17.063,62.8593,0.004141
17.096,62.8593,0.004141
17.124,62.8593,0.004141
17.158,62.8593,0.004159
17.186,62.8593,0.004159
17.217,62.8593,0.004159
17.248,62.8593,0.004159
17.279,62.8593,0.004159
17.309,62.8593,0.004159
17.340,62.8593,0.004159
17.371,62.8593,0.004169
17.403,62.8593,0.004169
17.433,62.8593,0.004169
17.465,62.8593,0.004169
17.497,62.8593,0.004169
17.528,62.8593,0.004169
17.559,62.8593,0.004169
17.590,62.8593,0.004169
17.621,62.8593,0.004103
17.652,62.8593,0.004103
17.682,62.8593,0.004103
17.713,62.8593,0.004103
17.745,62.8593,0.004103
17.776,62.8593,0.004103
17.807,62.8593,0.004103
17.840,62.8593,0.004103
17.869,62.8593,0.004075
17.900,62.8593,0.004075
17.930,62.8593,0.004075
17.961,62.8593,0.004075
17.992,62.8593,0.004075
18.025,62.8593,0.004075
18.055,62.8593,0.004075
18.087,62.8593,0.004075
18.117,62.8593,0.004112
18.149,62.8593,0.004112
18.179,62.8593,0.004112
18.210,62.8593,0.004112
18.242,62.8593,0.004112
18.272,62.8593,0.004112
18.303,62.8593,0.004112
18.336,62.8593,0.004112
18.366,62.8593,0.004159
18.396,62.8593,0.004159
18.426,62.8593,0.004159
18.459,62.8593,0.004159
18.489,62.8593,0.004159
18.520,62.8593,0.004159
18.552,62.8593,0.004159
18.583,62.8593,0.004159
18.615,62.8593,0.004141
18.646,62.8593,0.004141
18.676,62.8593,0.004141
18.707,62.8593,0.004141
18.738,62.8593,0.004141
18.769,62.8593,0.004141
18.800,62.8593,0.004141
18.832,62.8593,0.004141
18.863,62.8593,0.004150
18.895,62.8593,0.004150
18.926,62.8593,0.004150
18.958,62.8593,0.004150
18.988,62.8593,0.004150
19.019,62.8593,0.004150
19.049,62.8593,0.004150
19.084,62.8593,0.004150
19.112,62.8593,0.004178
19.142,62.8593,0.004178
19.173,62.8593,0.004178
19.203,62.8593,0.004178
19.233,62.8593,0.004178
19.263,62.8593,0.004178
19.295,62.8593,0.004178
19.325,62.8593,0.004178
19.356,62.8593,0.004178
19.390,62.8593,0.004131
19.419,62.8593,0.004131
19.452,62.8593,0.004131
19.482,62.8593,0.004131
19.512,62.8593,0.004131
19.543,62.8593,0.004131
19.574,62.8593,0.004131
19.605,62.8593,0.004131
19.635,62.8587,0.004131
19.673,62.8569,0.004150
19.713,62.8540,0.004150
19.745,62.8506,0.004150
19.776,62.8468,0.004150
19.807,62.8419,0.004150
19.838,62.8366,0.004150
19.869,62.8304,0.004150
19.900,62.8237,0.004225
19.932,62.8158,0.004225
19.964,62.8076,0.004225
19.994,62.7984,0.004225
20.024,62.7892,0.004225
20.056,62.7786,0.004225
20.087,62.7670,0.004225
20.118,62.7551,0.004225
20.149,62.7423,0.004253
20.181,62.7288,0.004253
20.212,62.7148,0.004253
20.242,62.7000,0.004253
20.273,62.6848,0.004253
20.303,62.6687,0.004253
20.334,62.6517,0.004253
20.365,62.6337,0.004253
20.397,62.6148,0.004235
20.427,62.5959,0.004235
20.459,62.5760,0.004235
20.490,62.5551,0.004235
20.520,62.5344,0.004235
20.551,62.5120,0.004235
20.582,62.4898,0.004235
20.613,62.4660,0.004235
20.643,62.4422,0.004235
20.674,62.4174,0.004235
20.705,62.3919,0.004235
20.737,62.3649,0.004235
20.768,62.3375,0.004235
20.799,62.3090,0.004235
20.830,62.2810,0.004235
20.861,62.2510,0.004235
20.892,62.2217,0.004206
20.922,62.1909,0.004206
20.953,62.1594,0.004206
20.984,62.1277,0.004206
21.014,62.0957,0.004206
21.045,62.0619,0.004206
21.076,62.0270,0.004206
21.107,61.9914,0.004206
21.138,61.9553,0.004188
21.168,61.9201,0.004188
21.199,61.8839,0.004188
21.230,61.8454,0.004188
21.261,61.8073,0.004188
21.292,61.7678,0.004188
21.323,61.7263,0.004188
21.354,61.6862,0.004188
21.385,61.6450,0.004235
21.416,61.6021,0.004235
21.447,61.5583,0.004235
21.477,61.5153,0.004235
21.509,61.4711,0.004235
21.539,61.4257,0.004235
21.572,61.3773,0.004235
21.601,61.3343,0.004235
21.631,61.2877,0.004235
21.662,61.2403,0.004235
21.692,61.1909,0.004235
21.723,61.1426,0.004235
21.755,61.0899,0.004235
21.786,61.0396,0.004235
21.817,60.9877,0.004235
21.848,60.9356,0.004235
21.879,60.8806,0.004197
21.910,60.8269,0.004197
21.942,60.7714,0.004197
21.973,60.7165,0.004197
22.003,60.6618,0.004197
22.034,60.6057,0.004197
22.065,60.5469,0.004197
22.096,60.4872,0.004197
22.128,60.4287,0.004197
22.159,60.3677,0.004197
22.190,60.3076,0.004197
22.221,60.2470,0.004197
22.252,60.1865,0.004197
22.283,60.1295,0.004197
22.315,60.0705,0.004197
22.346,60.0130,0.004197
22.377,59.9562,0.004065
22.408,59.9022,0.004065
22.439,59.8474,0.004065
22.470,59.7928,0.004065
22.501,59.7397,0.004065
22.532,59.6869,0.004065
22.563,59.6339,0.004065
22.595,59.5823,0.004065
22.625,59.5325,0.004065
22.656,59.4834,0.003981
22.686,59.4351,0.003981
22.717,59.3863,0.003981
22.748,59.3403,0.003981
22.779,59.2931,0.003981
22.810,59.2471,0.003981
22.842,59.2016,0.003981
22.873,59.1557,0.003981
22.903,59.1134,0.004018
22.935,59.0684,0.004018
22.965,59.0276,0.004018
22.997,58.9852,0.004018
23.026,58.9461,0.004018
23.059,58.9031,0.004018
23.090,58.8636,0.004018
23.121,58.8244,0.004018
23.152,58.7867,0.003990
23.182,58.7500,0.003990
23.214,58.7137,0.003990
23.246,58.6762,0.003990
23.277,58.6415,0.003990
23.308,58.6054,0.003990
23.339,58.5728,0.003990
23.370,58.5394,0.003990
23.401,58.5077,0.003952
23.432,58.4762,0.003952
23.462,58.4455,0.003952
23.487,58.4216,0.003952
23.525,58.3848,0.003952
23.555,58.3580,0.003952
23.587,58.3298,0.003952
23.617,58.3030,0.003924
23.649,58.2764,0.003924
23.679,58.2512,0.003924
23.710,58.2263,0.003924
23.741,58.2016,0.003924
23.773,58.1774,0.003924
23.807,58.1524,0.003924
23.835,58.1326,0.003924
23.867,58.1107,0.003924
23.897,58.0907,0.003924
23.930,58.0694,0.003962
23.958,58.0520,0.003962
23.989,58.0340,0.003962
24.020,58.0159,0.003962
24.047,58.0014,0.003962
24.084,57.9819,0.003962
24.115,57.9664,0.003962
24.145,57.9519,0.003943
24.176,57.9382,0.003943
24.206,57.9250,0.003943
24.236,57.9130,0.003943
24.267,57.9010,0.003943
24.299,57.8894,0.003943
24.329,57.8796,0.003943
24.360,57.8695,0.003943
24.390,57.8609,0.003943
24.421,57.8527,0.003943
24.452,57.8450,0.003943
24.483,57.8381,0.003943
24.513,57.8323,0.003943
24.544,57.8268,0.003943
24.576,57.8220,0.003943
24.607,57.8181,0.003943
24.639,57.8148,0.003981
24.669,57.8124,0.003981
24.701,57.8105,0.003981
24.732,57.8096,0.003981
24.763,57.8093,0.003981
24.794,57.8093,0.003981
24.825,57.8093,0.003981
24.856,57.8093,0.003981
24.885,57.8093,0.004037
24.918,57.8093,0.004037
24.948,57.8098,0.004037
24.979,57.8112,0.004037
25.010,57.8130,0.004037
25.041,57.8158,0.004037
25.072,57.8192,0.004037
25.103,57.8233,0.004037
25.135,57.8284,0.004094
25.165,57.8339,0.004094
25.197,57.8404,0.004094
25.227,57.8474,0.004094
25.258,57.8552,0.004094
25.289,57.8639,0.004094
25.321,57.8731,0.004094
25.351,57.8827,0.004094
25.382,57.8933,0.004094
25.412,57.9049,0.004094
25.443,57.9168,0.004094
25.474,57.9300,0.004094
25.505,57.9436,0.004094
25.535,57.9575,0.004094
25.568,57.9728,0.004094
25.599,57.9895,0.004094
25.631,58.0059,0.004094
25.661,58.0226,0.004112
25.691,58.0402,0.004112
25.723,58.0590,0.004112
25.753,58.0788,0.004112
25.784,58.0984,0.004112
25.815,58.1194,0.004112
25.845,58.1405,0.004112
25.877,58.1629,0.004065
25.907,58.1855,0.004065
25.938,58.2097,0.004065
25.969,58.2336,0.004065
26.003,58.2619,0.004065
26.030,58.2838,0.004065
26.062,58.3120,0.004065
26.094,58.3391,0.004065
26.125,58.3680,0.004065
26.156,58.3964,0.004065
26.188,58.4277,0.004018
26.222,58.4614,0.004018
26.249,58.4873,0.004018
26.280,58.5198,0.004018
26.311,58.5526,0.004018
26.344,58.5873,0.004018
26.374,58.6203,0.003971
26.405,58.6560,0.003971
26.436,58.6898,0.003971
26.467,58.7266,0.003971
26.498,58.7634,0.003971
26.530,58.8021,0.003971
26.561,58.8408,0.003971
26.591,58.8791,0.003971
26.624,58.9204,0.003943
26.653,58.9583,0.003943
26.683,58.9991,0.003943
26.714,59.0411,0.003943
26.744,59.0820,0.003943
26.775,59.1254,0.003943
26.806,59.1692,0.003943
26.836,59.2129,0.003943
26.867,59.2582,0.003981
26.897,59.3034,0.003981
26.928,59.3496,0.003981
26.959,59.3982,0.003981
26.993,59.4513,0.003981
27.022,59.4963,0.003981
27.052,59.5460,0.003981
27.082,59.5951,0.003981
27.120,59.6581,0.003981
27.160,59.7246,0.003981
27.191,59.7788,0.003962
27.223,59.8331,0.003962
27.253,59.8872,0.003962
27.288,59.9492,0.003962
27.315,59.9982,0.003962
27.346,60.0556,0.003962
27.378,60.1144,0.004009
27.408,60.1710,0.004009
27.441,60.2347,0.004009
27.470,60.2889,0.004009
27.501,60.3491,0.004009
27.532,60.4091,0.004009
27.562,60.4676,0.004009
27.593,60.5229,0.004009
27.625,60.5847,0.004122
27.656,60.6385,0.004122
27.687,60.6947,0.004122
27.718,60.7509,0.004122
27.749,60.8042,0.004122
27.779,60.8582,0.004122
27.811,60.9106,0.004122
27.841,60.9622,0.004122
27.872,61.0131,0.004122
27.902,61.0626,0.004206
27.933,61.1123,0.004206
27.964,61.1618,0.004206
27.996,61.2119,0.004206
28.026,61.2586,0.004206
28.059,61.3083,0.004206
28.089,61.3533,0.004206
28.120,61.3989,0.004206
28.152,61.4456,0.004225
28.183,61.4890,0.004225
28.214,61.5324,0.004225
28.245,61.5753,0.004225
28.276,61.6171,0.004225
28.306,61.6580,0.004225
28.338,61.6987,0.004225
28.369,61.7387,0.004225
28.400,61.7782,0.004216
28.431,61.8170,0.004216
28.462,61.8546,0.004216
28.493,61.8924,0.004216
28.524,61.9281,0.004216
28.556,61.9648,0.004216
28.584,61.9956,0.004216
28.616,62.0307,0.004216
28.648,62.0648,0.004235
28.678,62.0967,0.004235
28.709,62.1282,0.004235
28.741,62.1601,0.004235
28.772,62.1902,0.004235
28.803,62.2207,0.004235
28.834,62.2500,0.004235
28.864,62.2768,0.004235
28.895,62.3043,0.004253
28.927,62.3315,0.004253
28.958,62.3575,0.004253
28.988,62.3827,0.004253
29.019,62.4062,0.004253
29.050,62.4305,0.004253
29.082,62.4541,0.004253
29.112,62.4763,0.004253
29.144,62.4981,0.004253
29.175,62.5197,0.004253
29.206,62.5394,0.004253
29.236,62.5580,0.004253
29.267,62.5769,0.004253
29.298,62.5949,0.004253
29.329,62.6129,0.004253
29.360,62.6289,0.004253
29.392,62.6454,0.004225
29.423,62.6601,0.004225
29.454,62.6747,0.004225
29.484,62.6881,0.004225
29.515,62.7009,0.004225
29.546,62.7132,0.004225
29.577,62.7249,0.004225
29.610,62.7358,0.004225
29.640,62.7458,0.004244
29.671,62.7549,0.004244
29.701,62.7632,0.004244
29.733,62.7712,0.004244
29.764,62.7782,0.004244
29.795,62.7846,0.004244
29.825,62.7901,0.004244
29.857,62.7952,0.004244
29.887,62.7993,0.004263
29.920,62.8029,0.004263
29.949,62.8053,0.004263
29.979,62.8075,0.004263
30.010,62.8087,0.004263
30.041,62.8093,0.004263
30.072,62.8093,0.004263
30.103,62.8093,0.004263
30.133,62.8093,0.004206
30.165,62.8093,0.004206
30.196,62.8093,0.004206
30.227,62.8093,0.004206
30.258,62.8093,0.004206
30.289,62.8093,0.004206
30.320,62.8093,0.004206
30.352,62.8093,0.004206
30.383,62.8093,0.004178
30.413,62.8093,0.004178
30.446,62.8093,0.004178
30.477,62.8093,0.004178
30.508,62.8093,0.004178
30.538,62.8093,0.004178
30.569,62.8093,0.004178
30.601,62.8093,0.004178
30.631,62.8093,0.004141
30.662,62.8093,0.004141
30.692,62.8093,0.004141
30.723,62.8093,0.004141
30.753,62.8093,0.004141
30.784,62.8093,0.004141
30.815,62.8093,0.004141
30.846,62.8093,0.004141
30.877,62.8093,0.004131
30.908,62.8093,0.004131
30.939,62.8093,0.004131
30.970,62.8093,0.004131
31.000,62.8093,0.004131
31.031,62.8093,0.004131
31.062,62.8093,0.004131
31.093,62.8093,0.004131
31.123,62.8093,0.004131
31.154,62.8093,0.004122
31.185,62.8093,0.004122
31.217,62.8093,0.004122
31.247,62.8093,0.004122
31.279,62.8093,0.004122
31.310,62.8093,0.004122
31.341,62.8093,0.004122
31.373,62.8093,0.004065
31.405,62.8093,0.004065
31.435,62.8093,0.004065
31.465,62.8093,0.004065
31.496,62.8093,0.004065
31.526,62.8093,0.004065
31.557,62.8093,0.004065
31.588,62.8093,0.004065
31.619,62.8093,0.004065
31.650,62.8093,0.004094
31.681,62.8093,0.004094
31.713,62.8093,0.004094
31.743,62.8093,0.004094
31.774,62.8093,0.004094
31.806,62.8093,0.004094
31.836,62.8093,0.004094
31.866,62.8093,0.004141
31.897,62.8093,0.004141
31.928,62.8093,0.004141
31.958,62.8093,0.004141
31.989,62.8093,0.004141
32.020,62.8093,0.004141
32.050,62.8093,0.004141
32.081,62.8093,0.004141
32.112,62.8093,0.004141
32.143,62.8093,0.004178
32.174,62.8093,0.004178
32.205,62.8093,0.004178
32.236,62.8093,0.004178
32.267,62.8093,0.004178
32.301,62.8093,0.004178
32.329,62.8093,0.004178
32.362,62.8093,0.004178
32.390,62.8093,0.004178
32.422,62.8093,0.004178
32.453,62.8093,0.004178
32.485,62.8093,0.004178
32.516,62.8093,0.004178
32.547,62.8093,0.004178
32.578,62.8093,0.004178
32.609,62.8093,0.004178
32.640,62.8093,0.004178
32.671,62.8093,0.004122
32.702,62.8093,0.004122
32.733,62.8093,0.004122
32.763,62.8093,0.004122
32.794,62.8093,0.004122
32.825,62.8093,0.004122
32.856,62.8093,0.004122
32.887,62.8093,0.004084
32.918,62.8093,0.004084
32.949,62.8093,0.004084
32.980,62.8093,0.004084
33.011,62.8093,0.004084
33.042,62.8093,0.004084
33.073,62.8093,0.004084
33.103,62.8093,0.004084
33.134,62.8093,0.004084
33.166,62.8093,0.004131
33.197,62.8093,0.004131
33.228,62.8093,0.004131
33.259,62.8093,0.004131
33.290,62.8093,0.004131
33.321,62.8093,0.004131
33.353,62.8093,0.004131
33.383,62.8093,0.004178
33.414,62.8093,0.004178
33.445,62.8093,0.004178
33.476,62.8093,0.004178
33.507,62.8093,0.004178
33.537,62.8093,0.004178
33.569,62.8093,0.004178
33.599,62.8093,0.004178
33.630,62.8093,0.004225
33.661,62.8093,0.004225
33.692,62.8093,0.004225
33.723,62.8093,0.004225
33.755,62.8093,0.004225
33.787,62.8093,0.004225
33.817,62.8093,0.004225
33.848,62.8093,0.004225
33.879,62.8093,0.004197
33.910,62.8093,0.004197
33.941,62.8093,0.004197
33.973,62.8093,0.004197
34.007,62.8093,0.004197
34.035,62.8093,0.004197
34.066,62.8093,0.004197
34.097,62.8093,0.004197
34.127,62.8093,0.004141
34.158,62.8093,0.004141
34.189,62.8093,0.004141
34.219,62.8093,0.004141
34.251,62.8093,0.004141
34.283,62.8093,0.004141
34.313,62.8093,0.004141
34.345,62.8093,0.004141
34.375,62.8092,0.004122
34.406,62.8083,0.004122
34.436,62.8068,0.004122
34.468,62.8046,0.004122
34.500,62.8015,0.004122
34.530,62.7978,0.004122
34.561,62.7934,0.004122
34.592,62.7882,0.004122
34.623,62.7823,0.004122
34.654,62.7758,0.004206
34.685,62.7683,0.004206
34.716,62.7602,0.004206
34.747,62.7514,0.004206
34.778,62.7421,0.004206
34.809,62.7317,0.004206
34.840,62.7206,0.004206
34.871,62.7087,0.004206
34.902,62.6965,0.004272
34.932,62.6836,0.004272
34.964,62.6698,0.004272
34.994,62.6553,0.004272
35.025,62.6395,0.004272
35.056,62.6239,0.004272
35.087,62.6070,0.004272
35.118,62.5894,0.004272
35.149,62.5712,0.004263
35.181,62.5518,0.004263
35.211,62.5325,0.004263
35.242,62.5123,0.004263
35.272,62.4913,0.004263
35.303,62.4695,0.004263
35.334,62.4479,0.004263
35.364,62.4248,0.004263
35.396,62.4004,0.004272
35.427,62.3747,0.004272
35.458,62.3502,0.004272
35.488,62.3245,0.004272
35.519,62.2981,0.004272
35.549,62.2706,0.004272
35.580,62.2425,0.004272
35.612,62.2118,0.004272
35.643,62.1834,0.004272
35.674,62.1514,0.004272
35.704,62.1216,0.004272
35.736,62.0891,0.004272
35.766,62.0564,0.004272
35.797,62.0236,0.004272
35.828,61.9894,0.004272
35.860,61.9540,0.004272
35.891,61.9172,0.004244
35.923,61.8799,0.004244
35.953,61.8439,0.004244
35.984,61.8062,0.004244
36.015,61.7675,0.004244
36.046,61.7281,0.004244
36.077,61.6886,0.004244
36.108,61.6470,0.004244
36.138,61.6077,0.004244
36.169,61.5655,0.004272
36.199,61.5238,0.004272
36.231,61.4780,0.004272
36.261,61.4351,0.004272
36.292,61.3915,0.004272
36.324,61.3441,0.004272
36.354,61.2993,0.004272
36.385,61.2520,0.004282
36.416,61.2020,0.004282
36.448,61.1537,0.004282
36.478,61.1045,0.004282
36.510,61.0545,0.004282
36.542,61.0013,0.004282
36.572,60.9508,0.004282
36.603,60.8977,0.004282
36.634,60.8457,0.004244
36.666,60.7901,0.004244
36.696,60.7373,0.004244
36.728,60.6781,0.004244
36.760,60.6232,0.004244
36.789,60.5687,0.004244
36.820,60.5119,0.004244
36.852,60.4521,0.004244
36.882,60.3932,0.004244
36.913,60.3359,0.004244
36.944,60.2742,0.004244
36.976,60.2115,0.004244
37.007,60.1537,0.004244
37.037,60.0965,0.004244
37.068,60.0386,0.004244
37.099,59.9803,0.004244
37.130,59.9251,0.004094
37.162,59.8672,0.004094
37.192,59.8135,0.004094
37.223,59.7591,0.004094
37.254,59.7067,0.004094
37.285,59.6534,0.004094
37.315,59.6029,0.004094
37.346,59.5521,0.004094
37.377,59.5015,0.003981
37.413,59.4424,0.003981
37.454,59.3782,0.003981
37.485,59.3286,0.003981
37.515,59.2832,0.003981
37.547,59.2360,0.003981
37.577,59.1891,0.003981
37.608,59.1458,0.003981
37.640,59.0996,0.004009
37.672,59.0552,0.004009
37.703,59.0120,0.004009
37.735,58.9681,0.004009
37.766,58.9256,0.004009
37.797,58.8853,0.004009
37.829,58.8435,0.004009
37.861,58.8041,0.004028
37.893,58.7639,0.004028
37.924,58.7266,0.004028
37.954,58.6895,0.004028
37.985,58.6535,0.004028
38.017,58.6166,0.004028
38.049,58.5801,0.004028
38.080,58.5465,0.004028
38.111,58.5131,0.004028
38.143,58.4790,0.003999
38.173,58.4478,0.003999
38.203,58.4171,0.003999
38.235,58.3870,0.003999
38.266,58.3567,0.003999
38.297,58.3271,0.003999
38.328,58.2990,0.003999
38.359,58.2713,0.003971
38.390,58.2444,0.003971
38.421,58.2183,0.003971
38.452,58.1924,0.003971
38.483,58.1677,0.003971
38.514,58.1438,0.003971
38.546,58.1195,0.003971
38.576,58.0984,0.003971
38.608,58.0755,0.003971
38.640,58.0540,0.003971
38.670,58.0338,0.004028
38.702,58.0132,0.004028
38.732,57.9950,0.004028
38.764,57.9766,0.004028
38.796,57.9583,0.004028
38.828,57.9418,0.004028
38.859,57.9258,0.004028
38.889,57.9108,0.004056
38.919,57.8971,0.004056
38.951,57.8830,0.004056
38.985,57.8686,0.004056
39.012,57.8576,0.004056
39.042,57.8464,0.004056
39.073,57.8356,0.004056
39.104,57.8254,0.004056
39.135,57.8159,0.004056
39.167,57.8071,0.004046
39.197,57.7991,0.004046
39.229,57.7918,0.004046
39.260,57.7851,0.004046
39.292,57.7794,0.004046
39.322,57.7746,0.004046
39.352,57.7702,0.004046
39.382,57.7668,0.003999
39.413,57.7638,0.003999
39.443,57.7617,0.003999
39.475,57.7602,0.003999
39.506,57.7595,0.003999
39.537,57.7593,0.003999
39.567,57.7593,0.003999
39.599,57.7593,0.003999
39.629,57.7593,0.003971
39.659,57.7596,0.003971
39.690,57.7604,0.003971
39.721,57.7622,0.003971
39.752,57.7644,0.003971
39.783,57.7676,0.003971
39.814,57.7715,0.003971
39.845,57.7759,0.003971
39.876,57.7814,0.004046
39.907,57.7872,0.004046
39.938,57.7941,0.004046
39.970,57.8016,0.004046
40.000,57.8096,0.004046
40.031,57.8186,0.004046
40.061,57.8280,0.004046
40.092,57.8382,0.004046
40.124,57.8496,0.004037
40.155,57.8616,0.004037
40.186,57.8738,0.004037
40.217,57.8877,0.004037
40.248,57.9012,0.004037
40.279,57.9158,0.004037
40.310,57.9316,0.004037
40.342,57.9483,0.004037
40.372,57.9650,0.004037
40.403,57.9823,0.004037
40.433,58.0002,0.004037
40.464,58.0192,0.004037
40.495,58.0389,0.004037
40.526,58.0596,0.004037
40.557,58.0808,0.004037
40.589,58.1037,0.004037
40.620,58.1262,0.004028
40.651,58.1500,0.004028
40.682,58.1734,0.004028
40.713,58.1987,0.004028
40.743,58.2239,0.004028
40.775,58.2507,0.004028
40.806,58.2776,0.004028
40.836,58.3053,0.004028
40.868,58.3345,0.003990
40.899,58.3639,0.003990
40.931,58.3945,0.003990
40.963,58.4261,0.003990
40.994,58.4580,0.003990
41.025,58.4897,0.003990
41.055,58.5226,0.003990
41.086,58.5562,0.003990
41.117,58.5908,0.003990
41.148,58.6258,0.003990
41.180,58.6621,0.003990
41.210,58.6988,0.003990
41.242,58.7365,0.003990
41.272,58.7730,0.003990
41.303,58.8113,0.003990
41.333,58.8506,0.003990
41.365,58.8919,0.003990
41.395,58.9320,0.003990
41.428,58.9753,0.003990
41.458,59.0164,0.003990
41.489,59.0597,0.003990
41.521,59.1050,0.003990
41.551,59.1485,0.003990
41.582,59.1939,0.003990
41.612,59.2382,0.003990
41.642,59.2838,0.004037
41.676,59.3358,0.004037
41.704,59.3803,0.004037
41.736,59.4296,0.004037
41.770,59.4850,0.004037
41.797,59.5280,0.004037
41.828,59.5794,0.004037
41.856,59.6253,0.004037
41.892,59.6867,0.004018
41.922,59.7385,0.004018
41.953,59.7927,0.004018
41.984,59.8479,0.004018
42.017,59.9089,0.004018
42.045,59.9571,0.004018
42.079,60.0204,0.004018
42.107,60.0711,0.004009
42.138,60.1305,0.004009
42.169,60.1903,0.004009
42.200,60.2493,0.004009
42.232,60.3114,0.004009
42.263,60.3699,0.004009
42.293,60.4276,0.004009
42.323,60.4830,0.004009
42.355,60.5428,0.004009
42.381,60.5882,0.004122
42.419,60.6578,0.004122
42.448,60.7090,0.004122
42.479,60.7626,0.004122
42.510,60.8168,0.004122
42.543,60.8742,0.004122
42.571,60.9207,0.004122
42.602,60.9720,0.004122
42.633,61.0233,0.004235
42.664,61.0729,0.004235
42.695,61.1214,0.004235
42.726,61.1705,0.004235
42.758,61.2186,0.004235
42.788,61.2656,0.004235
42.819,61.3101,0.004235
42.850,61.3560,0.004235
42.881,61.4003,0.004235
42.913,61.4458,0.004301
42.944,61.4906,0.004301
42.975,61.5322,0.004301
43.006,61.5742,0.004301
43.037,61.6163,0.004301
43.068,61.6552,0.004301
43.099,61.6952,0.004301
43.130,61.7347,0.004319
43.163,61.7756,0.004319
43.192,61.8097,0.004319
43.222,61.8465,0.004319
43.254,61.8831,0.004319
43.285,61.9183,0.004319
43.316,61.9532,0.004319
43.347,61.9870,0.004319
43.379,62.0213,0.004319
43.410,62.0536,0.004272
43.441,62.0856,0.004272
43.470,62.1148,0.004272
43.503,62.1462,0.004272
43.533,62.1749,0.004272
43.564,62.2046,0.004272
43.595,62.2321,0.004272
43.626,62.2594,0.004272
43.657,62.2856,0.004253
43.687,62.3110,0.004253
43.719,62.3367,0.004253
43.750,62.3615,0.004253
43.781,62.3847,0.004253
43.811,62.4078,0.004253
43.843,62.4299,0.004253
43.875,62.4525,0.004253
43.905,62.4726,0.004291
43.937,62.4929,0.004291
43.967,62.5119,0.004291
43.999,62.5309,0.004291
44.029,62.5484,0.004291
44.060,62.5657,0.004291
44.090,62.5816,0.004291
44.121,62.5972,0.004291
44.151,62.6117,0.004319
44.182,62.6263,0.004319
44.213,62.6394,0.004319
44.244,62.6524,0.004319
44.274,62.6642,0.004319
44.305,62.6756,0.004319
44.338,62.6869,0.004319
44.375,62.6987,0.004319
44.416,62.7103,0.004329
44.447,62.7184,0.004329
44.477,62.7257,0.004329
44.508,62.7323,0.004329
44.539,62.7381,0.004329
44.570,62.7433,0.004329
44.603,62.7480,0.004329
44.632,62.7515,0.004272
44.667,62.7550,0.004272
44.708,62.7576,0.004272
44.739,62.7588,0.004272
44.770,62.7593,0.004272
44.801,62.7593,0.004272
44.833,62.7593,0.004272
44.864,62.7593,0.004272
44.898,62.7593,0.004216
44.926,62.7593,0.004216
44.958,62.7593,0.004216
44.989,62.7593,0.004216
45.020,62.7593,0.004216
45.052,62.7593,0.004216
45.082,62.7593,0.004216
45.114,62.7593,0.004216
45.143,62.7593,0.004216
45.174,62.7593,0.004216
45.205,62.7593,0.004216
45.235,62.7593,0.004216
45.266,62.7593,0.004216
45.298,62.7593,0.004216
45.329,62.7593,0.004216
45.361,62.7593,0.004159
45.389,62.7593,0.004159
45.421,62.7593,0.004159
45.452,62.7593,0.004159
45.482,62.7593,0.004159
45.514,62.7593,0.004159
45.545,62.7593,0.004159
45.576,62.7593,0.004159
45.607,62.7593,0.004159
45.638,62.7593,0.004131
45.669,62.7593,0.004131
45.700,62.7593,0.004131
45.732,62.7593,0.004131
45.762,62.7593,0.004131
45.793,62.7593,0.004131
45.825,62.7593,0.004131
45.855,62.7593,0.004169
45.886,62.7593,0.004169
45.918,62.7593,0.004169
45.949,62.7593,0.004169
45.980,62.7593,0.004169
46.010,62.7593,0.004169
46.040,62.7593,0.004169
46.071,62.7593,0.004169
46.103,62.7593,0.004169
46.134,62.7593,0.004159
46.165,62.7593,0.004159
46.197,62.7593,0.004159
46.227,62.7593,0.004159
46.258,62.7593,0.004159
46.289,62.7593,0.004159
46.321,62.7593,0.004159
46.352,62.7593,0.004131
46.383,62.7593,0.004131
46.414,62.7593,0.004131
46.445,62.7593,0.004131
46.476,62.7593,0.004131
46.507,62.7593,0.004131
46.537,62.7593,0.004131
46.568,62.7593,0.004131
46.599,62.7593,0.004131
46.629,62.7593,0.004103
46.666,62.7593,0.004103
46.691,62.7593,0.004103
46.722,62.7593,0.004103
46.753,62.7593,0.004103
46.784,62.7593,0.004103
46.815,62.7593,0.004103
46.846,62.7593,0.004103
46.877,62.7593,0.004112
46.908,62.7593,0.004112
46.938,62.7593,0.004112
46.970,62.7593,0.004112
47.000,62.7593,0.004112
47.031,62.7593,0.004112
47.062,62.7593,0.004112
47.096,62.7593,0.004112
47.124,62.7593,0.004112
47.156,62.7593,0.004150
47.186,62.7593,0.004150
47.217,62.7593,0.004150
47.248,62.7593,0.004150
47.280,62.7593,0.004150
47.312,62.7593,0.004150
47.343,62.7593,0.004150
47.374,62.7593,0.004159
47.405,62.7593,0.004159
47.435,62.7593,0.004159
47.466,62.7593,0.004159
47.497,62.7593,0.004159
47.529,62.7593,0.004159
47.560,62.7593,0.004159
47.591,62.7593,0.004159
47.622,62.7593,0.004112
47.653,62.7593,0.004112
47.683,62.7593,0.004112
47.714,62.7593,0.004112
47.746,62.7593,0.004112
47.777,62.7593,0.004112
47.808,62.7593,0.004112
47.839,62.7593,0.004112
47.870,62.7593,0.004131
47.901,62.7593,0.004131
47.932,62.7593,0.004131
47.963,62.7593,0.004131
47.993,62.7593,0.004131
48.024,62.7593,0.004131
48.055,62.7593,0.004131
48.087,62.7593,0.004131
48.117,62.7593,0.004141
48.149,62.7593,0.004141
48.179,62.7593,0.004141
48.210,62.7593,0.004141
48.242,62.7593,0.004141
48.273,62.7593,0.004141
48.304,62.7593,0.004141
48.335,62.7593,0.004141
48.366,62.7593,0.004141
48.397,62.7593,0.004103
48.427,62.7593,0.004103
48.458,62.7593,0.004103
48.489,62.7593,0.004103
48.520,62.7593,0.004103
48.551,62.7593,0.004103
48.581,62.7593,0.004103
48.612,62.7593,0.004103
48.643,62.7593,0.004084
48.674,62.7593,0.004084
48.705,62.7593,0.004084
48.737,62.7593,0.004084
48.768,62.7593,0.004084
48.799,62.7593,0.004084
48.829,62.7593,0.004084
48.861,62.7593,0.004056
48.892,62.7593,0.004056
48.924,62.7593,0.004056
48.954,62.7593,0.004056
48.985,62.7593,0.004056
49.016,62.7593,0.004056
49.047,62.7593,0.004056
49.078,62.7592,0.004056
49.109,62.7585,0.004056
49.142,62.7569,0.004075
49.171,62.7547,0.004075
49.202,62.7516,0.004075
49.234,62.7479,0.004075
49.266,62.7433,0.004075
49.296,62.7382,0.004075
49.327,62.7324,0.004075
49.352,62.7273,0.004075
49.389,62.7183,0.004282
49.420,62.7106,0.004282
49.450,62.7018,0.004282
49.482,62.6922,0.004282
49.513,62.6817,0.004282
49.544,62.6707,0.004282
49.576,62.6589,0.004282
49.607,62.6462,0.004366
49.640,62.6323,0.004366
49.669,62.6193,0.004366
49.700,62.6043,0.004366
49.731,62.5890,0.004366
49.762,62.5727,0.004366
49.793,62.5557,0.004366
49.824,62.5387,0.004366
49.854,62.5203,0.004366
49.887,62.5012,0.004291
49.917,62.4815,0.004291
49.949,62.4601,0.004291
49.981,62.4384,0.004291
50.011,62.4174,0.004291
50.043,62.3936,0.004291
50.074,62.3704,0.004291
50.104,62.3471,0.004291
50.135,62.3221,0.004291
50.166,62.2966,0.004291
50.197,62.2708,0.004291
50.227,62.2440,0.004291
50.259,62.2159,0.004291
50.290,62.1871,0.004291
50.321,62.1574,0.004291
50.353,62.1274,0.004291
50.383,62.0967,0.004253
50.415,62.0653,0.004253
50.445,62.0333,0.004253
50.476,62.0009,0.004253
50.507,61.9678,0.004253
50.537,61.9342,0.004253
50.568,61.8984,0.004253
50.599,61.8630,0.004253
50.630,61.8262,0.004253
50.660,61.7906,0.004272
50.691,61.7520,0.004272
50.722,61.7148,0.004272
50.754,61.6738,0.004272
50.784,61.6352,0.004272
50.815,61.5948,0.004272
50.845,61.5531,0.004272
50.877,61.5104,0.004272
50.908,61.4671,0.004272
50.939,61.4234,0.004272
50.970,61.3782,0.004272
51.001,61.3341,0.004272
51.032,61.2884,0.004272
51.063,61.2415,0.004272
51.094,61.1937,0.004272
51.125,61.1459,0.004272
51.157,61.0967,0.004263
51.188,61.0461,0.004263
51.218,60.9970,0.004263
51.250,60.9445,0.004263
51.280,60.8944,0.004263
51.311,60.8414,0.004263
51.341,60.7902,0.004263
51.373,60.7342,0.004263
51.404,60.6809,0.004272
51.435,60.6236,0.004272
51.467,60.5667,0.004272
51.499,60.5091,0.004272
51.528,60.4555,0.004272
51.559,60.3959,0.004272
51.590,60.3372,0.004272
51.621,60.2770,0.004272
51.651,60.2192,0.004282
51.683,60.1586,0.004282
51.714,60.0980,0.004282
51.746,60.0381,0.004282
51.775,59.9827,0.004282
51.807,59.9245,0.004282
51.838,59.8675,0.004282
51.870,59.8106,0.004282
51.901,59.7557,0.004122
51.933,59.6981,0.004122
51.964,59.6461,0.004122
51.995,59.5935,0.004122
52.026,59.5413,0.004122
52.057,59.4898,0.004122
52.086,59.4428,0.004122
52.118,59.3910,0.004122
52.148,59.3439,0.004122
52.179,59.2955,0.003981
52.211,59.2474,0.003981
52.242,59.1996,0.003981
52.273,59.1522,0.003981
52.304,59.1077,0.003981
52.335,59.0623,0.003981
52.366,59.0178,0.003981
52.397,58.9762,0.004028
52.428,58.9331,0.004028
52.460,58.8898,0.004028
52.490,58.8500,0.004028
52.522,58.8083,0.004028
52.552,58.7694,0.004028
52.584,58.7296,0.004028
52.615,58.6924,0.004028
52.646,58.6548,0.004037
52.676,58.6192,0.004037
52.708,58.5819,0.004037
52.738,58.5472,0.004037
52.770,58.5120,0.004037
52.800,58.4792,0.004037
52.832,58.4451,0.004037
52.862,58.4139,0.004037
52.894,58.3811,0.004037
52.924,58.3510,0.004037
52.956,58.3208,0.004037
52.987,58.2911,0.004037
53.018,58.2614,0.004037
53.049,58.2336,0.004037
53.075,58.2110,0.004037
53.111,58.1803,0.003999
53.143,58.1536,0.003999
53.173,58.1297,0.003999
53.204,58.1047,0.003999
53.235,58.0810,0.003999
53.267,58.0581,0.003999
53.297,58.0360,0.003999
53.328,58.0151,0.003999
53.359,57.9940,0.003999
53.394,57.9714,0.003962
53.422,57.9543,0.003962
53.454,57.9354,0.003962
53.484,57.9180,0.003962
53.515,57.9007,0.003962
53.549,57.8825,0.003962
53.578,57.8680,0.003962
53.610,57.8532,0.003962
53.641,57.8391,0.003981
53.672,57.8257,0.003981
53.704,57.8128,0.003981
53.733,57.8011,0.003981
53.766,57.7895,0.003981
53.797,57.7792,0.003981
53.829,57.7691,0.003981
53.860,57.7601,0.003981
53.892,57.7516,0.003981
53.922,57.7442,0.003981
53.953,57.7376,0.003981
53.984,57.7315,0.003981
54.014,57.7263,0.003981
54.045,57.7217,0.003981
54.076,57.7179,0.003981
54.108,57.7147,0.003981
54.138,57.7123,0.003981
54.170,57.7106,0.003962
54.201,57.7096,0.003962
54.232,57.7093,0.003962
54.266,57.7093,0.003962
54.293,57.7093,0.003962
54.324,57.7093,0.003962
54.354,57.7093,0.003962
54.385,57.7095,0.003962
54.416,57.7101,0.004028
54.448,57.7116,0.004028
54.479,57.7138,0.004028
54.509,57.7167,0.004028
54.541,57.7204,0.004028
54.572,57.7247,0.004028
54.603,57.7299,0.004028
54.634,57.7356,0.004028
54.665,57.7421,0.004028
54.698,57.7499,0.004028
54.728,57.7576,0.004028
54.759,57.7663,0.004028
54.789,57.7756,0.004028
54.821,57.7861,0.004028
54.851,57.7967,0.004028
54.882,57.8083,0.004028
54.914,57.8208,0.004018
54.945,57.8344,0.004018
54.976,57.8479,0.004018
55.007,57.8626,0.004018
55.038,57.8780,0.004018
55.070,57.8946,0.004018
55.101,57.9110,0.004018
55.136,57.9313,0.004018
55.163,57.9466,0.004009
55.195,57.9666,0.004009
55.225,57.9857,0.004009
55.257,58.0063,0.004009
55.287,58.0273,0.004009
55.318,58.0490,0.004009
55.350,58.0717,0.004009
55.380,58.0947,0.003981
55.411,58.1186,0.003981
55.442,58.1432,0.003981
55.473,58.1690,0.003981
55.503,58.1953,0.003981
55.534,58.2213,0.003981
55.566,58.2500,0.003981
55.597,58.2789,0.003981
55.627,58.3064,0.003981
55.657,58.3357,0.004009
55.688,58.3665,0.004009
55.719,58.3973,0.004009
55.749,58.4283,0.004009
55.780,58.4611,0.004009
55.812,58.4959,0.004009
55.844,58.5311,0.004009
55.874,58.5654,0.004009
55.905,58.6010,0.004009
55.936,58.6367,0.004009
55.967,58.6738,0.004009
55.999,58.7126,0.004009
56.030,58.7513,0.004009
56.066,58.7972,0.004009
56.092,58.8308,0.004009
56.123,58.8726,0.004009
56.154,58.9125,0.003999
56.185,58.9555,0.003999
56.219,59.0019,0.003999
56.247,59.0420,0.003999
56.278,59.0854,0.003999
56.308,59.1308,0.003999
56.341,59.1789,0.003999
56.370,59.2222,0.003999
56.402,59.2720,0.003990
56.432,59.3182,0.003990
56.463,59.3667,0.003990
56.493,59.4144,0.003990
56.525,59.4664,0.003990
56.557,59.5176,0.003990
56.588,59.5706,0.003990
56.619,59.6223,0.003943
56.650,59.6773,0.003943
56.682,59.7304,0.003943
56.712,59.7839,0.003943
56.743,59.8390,0.003943
56.774,59.8944,0.003943
56.805,59.9532,0.003943
56.837,60.0101,0.003943
56.867,60.0677,0.003934
56.898,60.1272,0.003934
56.929,60.1865,0.003934
56.961,60.2496,0.003934
56.992,60.3078,0.003934
57.023,60.3663,0.003934
57.054,60.4252,0.003934
57.085,60.4833,0.003934
57.119,60.5448,0.003934
57.148,60.5959,0.004084
57.179,60.6517,0.004084
57.210,60.7061,0.004084
57.240,60.7570,0.004084
57.271,60.8104,0.004084
57.302,60.8618,0.004084
57.332,60.9127,0.004084
57.363,60.9638,0.004244
57.394,61.0141,0.004244
57.425,61.0632,0.004244
57.455,61.1094,0.004244
57.486,61.1583,0.004244
57.518,61.2056,0.004244
57.549,61.2539,0.004244
57.580,61.2986,0.004244
57.612,61.3441,0.004253
57.643,61.3880,0.004253
57.674,61.4334,0.004253
57.706,61.4756,0.004253
57.735,61.5157,0.004253
57.766,61.5569,0.004253
57.797,61.5976,0.004253
57.828,61.6385,0.004253
57.859,61.6764,0.004225
57.891,61.7154,0.004225
57.922,61.7533,0.004225
57.952,61.7900,0.004225
57.984,61.8262,0.004225
58.015,61.8621,0.004225
58.046,61.8970,0.004225
58.078,61.9320,0.004225
58.108,61.9647,0.004263
58.139,61.9975,0.004263
58.170,62.0283,0.004263
58.201,62.0595,0.004263
58.230,62.0886,0.004263
58.262,62.1185,0.004263
58.293,62.1484,0.004263
58.325,62.1767,0.004263
58.356,62.2043,0.004291
58.387,62.2309,0.004291
58.417,62.2567,0.004291
58.449,62.2831,0.004291
58.480,62.3071,0.004291
58.511,62.3313,0.004291
58.542,62.3538,0.004291
58.573,62.3768,0.004291
58.604,62.3977,0.004291
58.635,62.4191,0.004263
58.666,62.4391,0.004263
58.697,62.4587,0.004263
58.728,62.4776,0.004263
58.761,62.4962,0.004263
58.792,62.5134,0.004263
58.824,62.5314,0.004263
58.854,62.5463,0.004263
58.884,62.5608,0.004225
58.915,62.5752,0.004225
58.946,62.5886,0.004225
58.977,62.6016,0.004225
59.008,62.6135,0.004225
59.039,62.6248,0.004225
59.070,62.6356,0.004225
59.100,62.6455,0.004225
59.132,62.6550,0.004225
59.163,62.6636,0.004253
59.194,62.6714,0.004253
59.225,62.6785,0.004253
59.256,62.6848,0.004253
59.288,62.6905,0.004253
59.319,62.6955,0.004253
59.350,62.6996,0.004253
59.381,62.7029,0.004253
59.412,62.7056,0.004310
59.443,62.7076,0.004310
59.474,62.7089,0.004310
59.505,62.7094,0.004310
59.536,62.7094,0.004310
59.568,62.7094,0.004310
59.599,62.7094,0.004310
59.630,62.7094,0.004310
59.660,62.7094,0.004216
59.691,62.7094,0.004216
59.722,62.7094,0.004216
59.752,62.7094,0.004216
59.784,62.7094,0.004216
59.814,62.7094,0.004216
59.845,62.7094,0.004216
59.877,62.7094,0.004141
59.909,62.7094,0.004141
59.941,62.7094,0.004141
59.972,62.7094,0.004141
60.002,62.7094,0.004141
60.032,62.7094,0.004141
60.064,62.7094,0.004141
60.095,62.7094,0.004141
60.125,62.7094,0.004141
60.156,62.7094,0.004122
60.186,62.7094,0.004122
60.218,62.7094,0.004122
60.249,62.7094,0.004122
60.281,62.7094,0.004122
60.311,62.7094,0.004122
60.342,62.7094,0.004122
60.372,62.7094,0.004075
60.403,62.7094,0.004075
60.435,62.7094,0.004075
60.466,62.7094,0.004075
60.498,62.7094,0.004075
60.529,62.7094,0.004075
60.559,62.7094,0.004075
60.591,62.7094,0.004075
60.622,62.7094,0.004103
60.652,62.7094,0.004103
60.683,62.7094,0.004103
60.714,62.7094,0.004103
60.745,62.7094,0.004103
60.775,62.7094,0.004103
60.807,62.7094,0.004103
60.838,62.7094,0.004103
60.868,62.7094,0.004122
60.900,62.7094,0.004122
60.930,62.7094,0.004122
60.961,62.7094,0.004122
60.992,62.7094,0.004122
61.024,62.7094,0.004122
61.055,62.7094,0.004122
61.085,62.7094,0.004122
61.116,62.7094,0.004122
61.147,62.7094,0.004150
61.178,62.7094,0.004150
61.210,62.7094,0.004150
61.240,62.7094,0.004150
61.269,62.7094,0.004150
61.300,62.7094,0.004150
61.333,62.7094,0.004150
61.364,62.7094,0.004150
61.394,62.7094,0.004150
61.424,62.7094,0.004150
61.458,62.7094,0.004150
61.486,62.7094,0.004150
61.518,62.7094,0.004150
61.549,62.7094,0.004150
61.580,62.7094,0.004150
61.612,62.7094,0.004094
61.642,62.7094,0.004094
61.673,62.7094,0.004094
61.704,62.7094,0.004094
61.734,62.7094,0.004094
61.765,62.7094,0.004094
61.796,62.7094,0.004094
61.827,62.7094,0.004094
61.858,62.7094,0.004094
61.889,62.7094,0.004141
61.920,62.7094,0.004141
61.952,62.7094,0.004141
61.982,62.7094,0.004141
62.012,62.7094,0.004141
62.043,62.7094,0.004141
62.075,62.7094,0.004141
62.106,62.7094,0.004141
62.138,62.7094,0.004188
62.168,62.7094,0.004188
62.199,62.7094,0.004188
62.230,62.7094,0.004188
62.261,62.7094,0.004188
62.292,62.7094,0.004188
62.323,62.7094,0.004188
62.355,62.7094,0.004188
62.385,62.7094,0.004131
62.416,62.7094,0.004131
62.448,62.7094,0.004131
62.479,62.7094,0.004131
62.509,62.7094,0.004131
62.541,62.7094,0.004131
62.572,62.7094,0.004131
62.609,62.7094,0.004131
62.649,62.7094,0.004150
62.681,62.7094,0.004150
62.714,62.7094,0.004150
62.743,62.7094,0.004150
62.774,62.7094,0.004150
62.806,62.7094,0.004150
62.837,62.7094,0.004150
62.868,62.7094,0.004169
62.900,62.7094,0.004169
62.930,62.7094,0.004169
62.961,62.7094,0.004169
62.992,62.7094,0.004169
63.023,62.7094,0.004169
63.054,62.7094,0.004169
63.086,62.7094,0.004169
63.118,62.7094,0.004188
63.149,62.7094,0.004188
63.180,62.7094,0.004188
63.212,62.7094,0.004188
63.243,62.7094,0.004188
63.273,62.7094,0.004188
63.304,62.7094,0.004188
63.336,62.7094,0.004188
63.367,62.7094,0.004131
63.399,62.7094,0.004131
63.429,62.7094,0.004131
63.460,62.7094,0.004131
63.491,62.7094,0.004131
63.523,62.7094,0.004131
63.554,62.7094,0.004131
63.584,62.7094,0.004131
63.616,62.7094,0.004131
63.646,62.7094,0.004131
63.678,62.7094,0.004103
63.708,62.7094,0.004103
63.739,62.7094,0.004103
63.771,62.7094,0.004103
63.801,62.7092,0.004103
63.832,62.7085,0.004103
63.863,62.7070,0.004103
63.895,62.7048,0.004103
63.925,62.7018,0.004122
63.956,62.6982,0.004122
63.987,62.6937,0.004122
64.018,62.6886,0.004122
64.049,62.6827,0.004122
64.080,62.6762,0.004122
64.112,62.6687,0.004122
64.142,62.6607,0.004216
64.173,62.6519,0.004216
64.204,62.6425,0.004216
64.235,62.6325,0.004216
64.266,62.6214,0.004216
64.297,62.6099,0.004216
64.327,62.5977,0.004216
64.359,62.5838,0.004216
64.389,62.5709,0.004216
64.420,62.5561,0.004329
64.451,62.5413,0.004329
64.482,62.5248,0.004329
64.513,62.5087,0.004329
64.545,62.4906,0.004329
64.574,62.4730,0.004329
64.606,62.4535,0.004329
64.636,62.4346,0.004263
64.666,62.4145,0.004263
64.697,62.3938,0.004263
64.729,62.3711,0.004263
64.760,62.3489,0.004263
64.791,62.3260,0.004263
64.822,62.3017,0.004263
64.854,62.2768,0.004263
64.885,62.2505,0.004216
64.917,62.2234,0.004216
64.947,62.1976,0.004216
64.977,62.1705,0.004216
65.008,62.1428,0.004216
65.039,62.1133,0.004216
65.070,62.0839,0.004216
65.101,62.0533,0.004216
65.132,62.0220,0.004263
65.163,61.9888,0.004263
65.193,61.9580,0.004263
65.225,61.9225,0.004263
65.255,61.8907,0.004263
65.286,61.8550,0.004263
65.317,61.8205,0.004263
65.347,61.7841,0.004263
65.379,61.7459,0.004319
65.411,61.7067,0.004319
65.441,61.6693,0.004319
65.472,61.6316,0.004319
65.503,61.5914,0.004319
65.534,61.5500,0.004319
65.565,61.5098,0.004319
65.595,61.4685,0.004319
65.626,61.4248,0.004253
65.658,61.3803,0.004253
65.688,61.3370,0.004253
65.718,61.2936,0.004253
65.749,61.2486,0.004253
65.780,61.2013,0.004253
65.811,61.1552,0.004253
65.842,61.1063,0.004253
65.873,61.0579,0.004197
65.905,61.0079,0.004197
65.936,60.9564,0.004197
65.966,60.9074,0.004197
65.997,60.8553,0.004197
66.028,60.8044,0.004197
66.059,60.7500,0.004197
66.090,60.6969,0.004197
66.121,60.6434,0.004197
66.151,60.5879,0.004244
66.182,60.5330,0.004244
66.213,60.4756,0.004244
66.244,60.4188,0.004244
66.275,60.3611,0.004244
66.306,60.3023,0.004244
66.336,60.2453,0.004244
66.368,60.1836,0.004253
66.398,60.1232,0.004253
66.430,60.0641,0.004253
66.460,60.0044,0.004253
66.491,59.9471,0.004253
66.522,59.8889,0.004253
66.553,59.8350,0.004253
66.584,59.7783,0.004253
66.615,59.7239,0.004084
66.645,59.6698,0.004084
66.676,59.6172,0.004084
66.706,59.5642,0.004084
66.737,59.5122,0.004084
66.769,59.4599,0.004084
66.800,59.4086,0.004084
66.831,59.3584,0.004084
66.862,59.3095,0.004084
66.893,59.2604,0.003962
66.924,59.2128,0.003962
66.955,59.1651,0.003962
66.986,59.1186,0.003962
67.017,59.0735,0.003962
67.049,59.0266,0.003962
67.080,58.9831,0.003962
67.111,58.9389,0.003962
67.142,58.8964,0.003943
67.173,58.8540,0.003943
67.205,58.8120,0.003943
67.235,58.7716,0.003943
67.267,58.7317,0.003943
67.296,58.6935,0.003943
67.328,58.6550,0.003943
67.358,58.6181,0.003943
67.389,58.5822,0.003943
67.419,58.5463,0.003962
67.450,58.5109,0.003962
67.481,58.4757,0.003962
67.512,58.4422,0.003962
67.543,58.4083,0.003962
67.575,58.3752,0.003962
67.605,58.3436,0.003962
67.637,58.3114,0.003962
67.671,58.2777,0.003971
67.699,58.2513,0.003971
67.732,58.2206,0.003971
67.760,58.1951,0.003971
67.790,58.1684,0.003971
67.821,58.1413,0.003971
67.852,58.1150,0.003971
67.884,58.0895,0.003981
67.914,58.0654,0.003981
67.946,58.0410,0.003981
67.977,58.0174,0.003981
68.010,57.9936,0.003981
68.039,57.9733,0.003981
68.070,57.9523,0.003981
68.101,57.9318,0.003981
68.136,57.9104,0.003981
68.163,57.8935,0.003981
68.194,57.8754,0.003981
68.225,57.8587,0.003981
68.257,57.8411,0.003981
68.287,57.8257,0.003981
68.320,57.8097,0.003981
68.350,57.7955,0.003981
68.385,57.7800,0.003981
68.412,57.7688,0.003924
68.443,57.7566,0.003924
68.474,57.7453,0.003924
68.505,57.7344,0.003924
68.535,57.7245,0.003924
68.566,57.7152,0.003924
68.597,57.7067,0.003924
68.628,57.6986,0.003924
68.658,57.6916,0.003971
68.690,57.6849,0.003971
68.721,57.6793,0.003971
68.754,57.6739,0.003971
68.785,57.6698,0.003971
68.810,57.6668,0.003971
68.847,57.6635,0.003971
68.877,57.6613,0.004009
68.908,57.6600,0.004009
68.941,57.6594,0.004009
68.971,57.6594,0.004009
69.005,57.6594,0.004009
69.034,57.6594,0.004009
69.065,57.6594,0.004009
69.094,57.6599,0.004009
69.128,57.6612,0.004009
69.157,57.6631,0.004028
69.188,57.6658,0.004028
69.218,57.6690,0.004028
69.249,57.6733,0.004028
69.280,57.6781,0.004028
69.311,57.6837,0.004028
69.342,57.6900,0.004028
69.373,57.6972,0.004028
69.404,57.7048,0.003971
69.435,57.7132,0.003971
69.465,57.7222,0.003971
69.497,57.7322,0.003971
69.528,57.7430,0.003971
69.558,57.7539,0.003971
69.588,57.7658,0.003971
69.619,57.7784,0.003971
69.649,57.7919,0.003952
69.679,57.8055,0.003952
69.711,57.8206,0.003952
69.741,57.8360,0.003952
69.771,57.8521,0.003952
69.802,57.8691,0.003952
69.833,57.8865,0.003952
69.864,57.9054,0.003952
69.895,57.9248,0.003952
69.926,57.9449,0.003981
69.958,57.9660,0.003981
69.989,57.9877,0.003981
70.020,58.0099,0.003981
70.051,58.0326,0.003981
70.082,58.0567,0.003981
70.113,58.0812,0.003981
70.145,58.1068,0.004009
70.178,58.1347,0.004009
70.208,58.1597,0.004009
70.239,58.1878,0.004009
70.271,58.2167,0.004009
70.304,58.2474,0.004009
70.333,58.2753,0.004009
70.364,58.3059,0.004009
70.394,58.3355,0.004028
70.424,58.3668,0.004028
70.455,58.3984,0.004028
70.485,58.4313,0.004028
70.516,58.4648,0.004028
70.548,58.5000,0.004028
70.578,58.5350,0.004028
70.610,58.5709,0.004028
70.640,58.6075,0.004046
70.672,58.6465,0.004046
70.703,58.6839,0.004046
70.733,58.7215,0.004046
70.764,58.7627,0.004046
70.795,58.8012,0.004046
70.826,58.8425,0.004046
70.856,58.8838,0.004046
70.887,58.9263,0.004056
70.919,58.9717,0.004056
70.950,59.0152,0.004056
70.981,59.0601,0.004056
71.012,59.1051,0.004056
71.043,59.1520,0.004056
71.075,59.1999,0.004056
71.106,59.2484,0.004056
71.137,59.2960,0.004046
71.168,59.3456,0.004046
71.198,59.3942,0.004046
71.229,59.4451,0.004046
71.260,59.4947,0.004046
71.291,59.5475,0.004046
71.326,59.6074,0.004046
71.353,59.6537,0.004046
71.385,59.7098,0.004046
71.415,59.7627,0.004056
71.451,59.8278,0.004056
71.477,59.8744,0.004056
71.508,59.9317,0.004056
71.538,59.9880,0.004056
71.569,60.0455,0.004056
71.600,60.1047,0.004056
71.630,60.1636,0.004056
71.661,60.2235,0.003990
71.692,60.2841,0.003990
71.723,60.3415,0.003990
71.755,60.4005,0.003990
71.786,60.4578,0.003990
71.818,60.5159,0.003990
71.849,60.5716,0.003990
71.880,60.6258,0.003990
71.910,60.6798,0.004075
71.942,60.7322,0.004075
71.973,60.7864,0.004075
72.004,60.8370,0.004075
72.034,60.8872,0.004075
72.066,60.9388,0.004075
72.096,60.9864,0.004075
72.127,61.0369,0.004075
72.157,61.0834,0.004235
72.190,61.1333,0.004235
72.219,61.1777,0.004235
72.255,61.2305,0.004235
72.282,61.2693,0.004235
72.313,61.3157,0.004235
72.344,61.3595,0.004235
72.375,61.4030,0.004235
72.407,61.4448,0.004235
72.438,61.4875,0.004235
72.473,61.5330,0.004235
72.499,61.5675,0.004235
72.531,61.6080,0.004235
72.561,61.6462,0.004235
72.591,61.6833,0.004235
72.623,61.7211,0.004235
72.654,61.7580,0.004263
72.684,61.7919,0.004263
72.716,61.8289,0.004263
72.746,61.8615,0.004263
72.778,61.8965,0.004263
72.808,61.9281,0.004263
72.839,61.9610,0.004263
72.870,61.9916,0.004244
72.900,62.0225,0.004244
72.932,62.0525,0.004244
72.963,62.0822,0.004244
72.994,62.1114,0.004244
73.025,62.1385,0.004244
73.056,62.1659,0.004244
73.086,62.1911,0.004244
73.118,62.2176,0.004225
73.150,62.2434,0.004225
73.180,62.2671,0.004225
73.210,62.2902,0.004225
73.242,62.3133,0.004225
73.273,62.3359,0.004225
73.304,62.3569,0.004225
73.336,62.3787,0.004225
73.366,62.3976,0.004225
73.397,62.4163,0.004225
73.427,62.4344,0.004225
73.457,62.4521,0.004225
73.488,62.4687,0.004225
73.520,62.4851,0.004225
73.550,62.5006,0.004225
73.585,62.5174,0.004225
73.613,62.5299,0.004206
73.643,62.5429,0.004206
73.674,62.5558,0.004206
73.705,62.5673,0.004206
73.735,62.5784,0.004206
73.767,62.5889,0.004206
73.798,62.5988,0.004206
73.829,62.6079,0.004206
73.860,62.6162,0.004206
73.891,62.6237,0.004225
73.922,62.6306,0.004225
73.955,62.6372,0.004225
73.985,62.6421,0.004225
74.015,62.6467,0.004225
74.046,62.6506,0.004225
74.077,62.6538,0.004225
74.109,62.6564,0.004225
74.139,62.6581,0.004225
74.170,62.6591,0.004291
74.201,62.6594,0.004291
74.232,62.6594,0.004291
74.264,62.6594,0.004291
74.295,62.6594,0.004291
74.325,62.6594,0.004291
74.357,62.6594,0.004291
74.389,62.6594,0.004291
74.420,62.6594,0.004272
74.451,62.6594,0.004272
74.482,62.6594,0.004272
74.517,62.6594,0.004272
74.544,62.6594,0.004272
74.578,62.6594,0.004272
74.606,62.6594,0.004272
74.636,62.6594,0.004188
74.667,62.6594,0.004188
74.701,62.6594,0.004188
74.730,62.6594,0.004188
74.761,62.6594,0.004188
74.792,62.6594,0.004188
74.823,62.6594,0.004188
74.856,62.6594,0.004188
74.886,62.6594,0.004178
74.916,62.6594,0.004178
74.947,62.6594,0.004178
74.976,62.6594,0.004178
75.008,62.6594,0.004178
75.038,62.6594,0.004178
75.070,62.6594,0.004178
75.100,62.6594,0.004178
75.132,62.6594,0.004159
75.163,62.6594,0.004159
75.193,62.6594,0.004159
75.224,62.6594,0.004159
75.255,62.6594,0.004159
75.286,62.6594,0.004159
75.317,62.6594,0.004159
75.349,62.6594,0.004159
75.379,62.6594,0.004122
75.410,62.6594,0.004122
75.440,62.6594,0.004122
75.472,62.6594,0.004122
75.502,62.6594,0.004122
75.533,62.6594,0.004122
75.565,62.6594,0.004122
75.596,62.6594,0.004122
75.627,62.6594,0.004122
75.658,62.6594,0.004112
75.689,62.6594,0.004112
75.720,62.6594,0.004112
75.752,62.6594,0.004112
75.783,62.6594,0.004112
75.813,62.6594,0.004112
75.844,62.6594,0.004112
75.877,62.6594,0.004112
75.907,62.6594,0.004112
75.937,62.6594,0.004112
75.968,62.6594,0.004112
75.999,62.6594,0.004112
76.029,62.6594,0.004112
76.060,62.6594,0.004112
76.091,62.6594,0.004112
76.123,62.6594,0.004150
76.154,62.6594,0.004150
76.186,62.6594,0.004150
76.217,62.6594,0.004150
76.249,62.6594,0.004150
76.280,62.6594,0.004150
76.312,62.6594,0.004150
76.343,62.6594,0.004150
76.376,62.6594,0.004150
76.405,62.6594,0.004150
76.436,62.6594,0.004150
76.467,62.6594,0.004150
76.497,62.6594,0.004150
76.528,62.6594,0.004150
76.557,62.6594,0.004150
76.588,62.6594,0.004150
76.619,62.6594,0.004150
76.649,62.6594,0.004141
76.680,62.6594,0.004141
76.711,62.6594,0.004141
76.742,62.6594,0.004141
76.773,62.6594,0.004141
76.805,62.6594,0.004141
76.835,62.6594,0.004141
76.866,62.6594,0.004141
76.896,62.6594,0.004169
76.927,62.6594,0.004169
76.958,62.6594,0.004169
76.990,62.6594,0.004169
77.021,62.6594,0.004169
77.053,62.6594,0.004169
77.083,62.6594,0.004169
77.113,62.6594,0.004169
77.144,62.6594,0.004141
77.175,62.6594,0.004141
77.207,62.6594,0.004141
77.238,62.6594,0.004141
77.269,62.6594,0.004141
77.300,62.6594,0.004141
77.331,62.6594,0.004141
77.362,62.6594,0.004141
77.393,62.6594,0.004112
77.424,62.6594,0.004112
77.455,62.6594,0.004112
77.487,62.6594,0.004112
77.519,62.6594,0.004112
77.549,62.6594,0.004112
77.580,62.6594,0.004112
77.611,62.6594,0.004112
77.641,62.6594,0.004094
77.672,62.6594,0.004094
77.704,62.6594,0.004094
77.735,62.6594,0.004094
77.766,62.6594,0.004094
77.797,62.6594,0.004094
77.828,62.6594,0.004094
77.860,62.6594,0.004094
77.891,62.6594,0.004112
77.922,62.6594,0.004112
77.952,62.6594,0.004112
77.984,62.6594,0.004112
78.015,62.6594,0.004112
78.045,62.6594,0.004112
78.077,62.6594,0.004112
78.108,62.6594,0.004112
78.138,62.6594,0.004141
78.169,62.6594,0.004141
78.200,62.6594,0.004141
78.230,62.6594,0.004141
78.261,62.6594,0.004141
78.292,62.6594,0.004141
78.323,62.6594,0.004141
78.354,62.6594,0.004141
78.385,62.6594,0.004131
78.416,62.6594,0.004131
78.447,62.6594,0.004131
78.478,62.6592,0.004131
78.512,62.6585,0.004131
78.541,62.6570,0.004131
78.573,62.6548,0.004131
78.605,62.6518,0.004131
78.633,62.6482,0.004141
78.664,62.6439,0.004141
78.695,62.6389,0.004141
78.726,62.6331,0.004141
78.757,62.6265,0.004141
78.788,62.6193,0.004141
78.818,62.6112,0.004141
78.850,62.6026,0.004141
78.881,62.5933,0.004141
78.912,62.5832,0.004206
78.943,62.5721,0.004206
78.974,62.5606,0.004206
79.006,62.5479,0.004206
79.035,62.5353,0.004206
79.066,62.5212,0.004206
79.097,62.5071,0.004206
79.129,62.4913,0.004206
79.160,62.4753,0.004235
79.190,62.4588,0.004235
79.221,62.4415,0.004235
79.252,62.4236,0.004235
79.283,62.4045,0.004235
79.315,62.3845,0.004235
79.349,62.3618,0.004235
79.376,62.3431,0.004235
79.407,62.3218,0.004235
79.438,62.2990,0.004235
79.469,62.2759,0.004235
79.499,62.2523,0.004235
79.533,62.2254,0.004235
79.561,62.2022,0.004235
79.598,62.1717,0.004235
79.624,62.1488,0.004235
79.655,62.1219,0.004291
79.686,62.0926,0.004291
79.716,62.0643,0.004291
79.747,62.0353,0.004291
79.778,62.0042,0.004291
79.809,61.9722,0.004291
79.843,61.9378,0.004291
79.871,61.9090,0.004291
79.902,61.8749,0.004310
79.932,61.8417,0.004310
79.963,61.8060,0.004310
79.994,61.7714,0.004310
80.025,61.7344,0.004310
80.055,61.6997,0.004310
80.086,61.6623,0.004310
80.117,61.6244,0.004310
80.150,61.5810,0.004291
80.179,61.5444,0.004291
80.209,61.5045,0.004291
80.240,61.4643,0.004291
80.271,61.4206,0.004291
80.302,61.3786,0.004291
80.333,61.3350,0.004291
80.365,61.2900,0.004253
80.396,61.2453,0.004253
80.427,61.1996,0.004253
80.457,61.1527,0.004253
80.488,61.1071,0.004253
80.519,61.0595,0.004253
80.550,61.0108,0.004253
80.580,60.9621,0.004253
80.612,60.9109,0.004253
80.647,60.8538,0.004291
80.674,60.8092,0.004291
80.705,60.7557,0.004291
80.735,60.7036,0.004291
80.767,60.6496,0.004291
80.798,60.5950,0.004291
80.830,60.5378,0.004291
80.860,60.4831,0.004282
80.892,60.4252,0.004282
80.923,60.3687,0.004282
80.954,60.3097,0.004282
80.985,60.2510,0.004282
81.016,60.1908,0.004282
81.047,60.1316,0.004282
81.078,60.0703,0.004282
81.109,60.0102,0.004282
81.140,59.9517,0.004253
81.172,59.8934,0.004253
81.202,59.8372,0.004253
81.234,59.7797,0.004253
81.264,59.7250,0.004253
81.296,59.6689,0.004253
81.327,59.6141,0.004253
81.357,59.5619,0.004253
81.388,59.5077,0.004131
81.419,59.4578,0.004131
81.449,59.4069,0.004131
81.481,59.3548,0.004131
81.512,59.3055,0.004131
81.542,59.2565,0.004131
81.573,59.2085,0.004131
81.603,59.1618,0.004131
81.634,59.1149,0.003971
81.665,59.0689,0.003971
81.697,59.0221,0.003971
81.727,58.9774,0.003971
81.758,58.9327,0.003971
81.790,58.8882,0.003971
81.819,58.8485,0.003971
81.853,58.8030,0.003971
81.883,58.7618,0.003990
81.915,58.7204,0.003990
81.946,58.6808,0.003990
81.979,58.6394,0.003990
82.008,58.6038,0.003990
82.039,58.5659,0.003990
82.070,58.5278,0.003990
82.100,58.4933,0.003990
82.132,58.4567,0.003971
82.164,58.4204,0.003971
82.194,58.3875,0.003971
82.225,58.3546,0.003971
82.257,58.3216,0.003971
82.287,58.2905,0.003971
82.321,58.2564,0.003971
82.346,58.2314,0.003971
82.380,58.1990,0.003971
82.411,58.1696,0.003971
82.442,58.1426,0.003990
82.473,58.1150,0.003990
82.504,58.0879,0.003990
82.535,58.0614,0.003990
82.566,58.0365,0.003990
82.597,58.0120,0.003990
82.627,57.9884,0.004046
82.658,57.9658,0.004046
82.689,57.9431,0.004046
82.719,57.9220,0.004046
82.750,57.9010,0.004046
82.781,57.8811,0.004046
82.812,57.8612,0.004046
82.844,57.8419,0.004046
82.874,57.8247,0.003990
82.904,57.8078,0.003990
82.935,57.7913,0.003990
82.967,57.7751,0.003990
82.997,57.7601,0.003990
83.028,57.7457,0.003990
83.059,57.7322,0.003990
83.090,57.7189,0.003990
83.121,57.7070,0.003990
83.152,57.6952,0.003990
83.183,57.6845,0.003990
83.214,57.6742,0.003990
83.245,57.6651,0.003990
83.276,57.6563,0.003990
83.307,57.6482,0.003990
83.338,57.6413,0.003990
83.368,57.6351,0.004037
83.399,57.6292,0.004037
83.430,57.6243,0.004037
83.462,57.6198,0.004037
83.493,57.6163,0.004037
83.524,57.6135,0.004037
83.555,57.6114,0.004037
83.586,57.6100,0.004037
83.617,57.6094,0.004037
83.649,57.6094,0.004018
83.679,57.6094,0.004018
83.711,57.6094,0.004018
83.742,57.6094,0.004018
83.773,57.6095,0.004018
83.804,57.6104,0.004018
83.835,57.6119,0.004018
83.866,57.6142,0.004028
83.897,57.6172,0.004028
83.928,57.6210,0.004028
83.959,57.6254,0.004028
83.991,57.6308,0.004028
84.021,57.6367,0.004028
84.053,57.6434,0.004028
84.084,57.6508,0.004028
84.115,57.6590,0.003962
84.147,57.6683,0.003962
84.179,57.6780,0.003962
84.211,57.6886,0.003962
84.242,57.6998,0.003962
84.272,57.7115,0.003962
84.304,57.7244,0.003962
84.335,57.7375,0.003962
84.366,57.7520,0.003962
84.398,57.7666,0.003943
84.429,57.7825,0.003943
84.459,57.7984,0.003943
84.490,57.8154,0.003943
84.522,57.8331,0.003943
84.552,57.8511,0.003943
84.583,57.8702,0.003943
84.615,57.8914,0.003990
84.646,57.9111,0.003990
84.677,57.9330,0.003990
84.708,57.9547,0.003990
84.739,57.9777,0.003990
84.769,58.0009,0.003990
84.800,58.0240,0.003990
84.831,58.0495,0.003990
84.863,58.0753,0.003934
84.892,58.1008,0.003934
84.923,58.1272,0.003934
84.953,58.1546,0.003934
84.984,58.1835,0.003934
85.015,58.2133,0.003934
85.047,58.2426,0.003934
85.077,58.2732,0.003934
85.108,58.3055,0.003934
85.141,58.3388,0.003934
85.170,58.3698,0.003934
85.202,58.4038,0.003934
85.232,58.4376,0.003934
85.264,58.4748,0.003934
85.296,58.5100,0.003934
85.327,58.5479,0.003934
85.357,58.5838,0.003934
85.388,58.6218,0.003999
85.420,58.6621,0.003999
85.450,58.6994,0.003999
85.481,58.7390,0.003999
85.511,58.7804,0.003999
85.538,58.8149,0.003999
85.572,58.8630,0.003999
85.602,58.9044,0.003999
85.633,58.9473,0.004046
85.664,58.9921,0.004046
85.696,59.0402,0.004046
85.725,59.0818,0.004046
85.757,59.1295,0.004046
85.787,59.1758,0.004046
85.817,59.2238,0.004046
85.848,59.2717,0.004046
85.879,59.3218,0.003971
85.911,59.3718,0.003971
85.941,59.4235,0.003971
85.973,59.4753,0.003971
86.006,59.5310,0.003971
86.034,59.5791,0.003971
86.065,59.6326,0.003971
86.096,59.6874,0.003971
86.130,59.7485,0.003924
86.157,59.7989,0.003924
86.189,59.8557,0.003924
86.220,59.9126,0.003924
86.251,59.9718,0.003924
86.282,60.0301,0.003924
86.313,60.0911,0.003924
86.344,60.1499,0.003924
86.377,60.2125,0.003981
86.407,60.2701,0.003981
86.439,60.3293,0.003981
86.469,60.3852,0.003981
86.501,60.4428,0.003981
86.531,60.4975,0.003981
86.562,60.5528,0.003981
86.593,60.6073,0.003981
86.630,60.6718,0.003981
86.670,60.7401,0.004112
86.701,60.7917,0.004112
86.732,60.8414,0.004112
86.762,60.8898,0.004112
86.793,60.9408,0.004112
86.823,60.9878,0.004112
86.855,61.0371,0.004112
86.887,61.0865,0.004112
86.918,61.1323,0.004282
86.948,61.1779,0.004282
86.979,61.2227,0.004282
87.010,61.2683,0.004282
87.041,61.3122,0.004282
87.071,61.3537,0.004282
87.102,61.3963,0.004282
87.133,61.4370,0.004282
87.165,61.4792,0.004282
87.197,61.5211,0.004282
87.227,61.5588,0.004282
87.257,61.5972,0.004282
87.289,61.6357,0.004282
87.320,61.6734,0.004282
87.352,61.7101,0.004282
87.385,61.7497,0.004282
87.412,61.7793,0.004253
87.442,61.8128,0.004253
87.473,61.8459,0.004253
87.504,61.8790,0.004253
87.535,61.9118,0.004253
87.566,61.9436,0.004253
87.597,61.9731,0.004253
87.627,62.0023,0.004253
87.659,62.0333,0.004235
87.689,62.0606,0.004235
87.722,62.0908,0.004235
87.751,62.1163,0.004235
87.783,62.1432,0.004235
87.814,62.1686,0.004235
87.844,62.1932,0.004235
87.876,62.2173,0.004263
87.906,62.2409,0.004263
87.937,62.2639,0.004263
87.968,62.2851,0.004263
87.999,62.3069,0.004263
88.029,62.3271,0.004263
88.061,62.3476,0.004263
88.092,62.3665,0.004263
88.123,62.3854,0.004263
88.154,62.4030,0.004244
88.185,62.4201,0.004244
88.217,62.4363,0.004244
88.247,62.4514,0.004244
88.277,62.4659,0.004244
88.308,62.4799,0.004244
88.339,62.4931,0.004244
88.371,62.5061,0.004235
88.403,62.5185,0.004235
88.433,62.5294,0.004235
88.464,62.5399,0.004235
88.496,62.5495,0.004235
88.527,62.5588,0.004235
88.558,62.5667,0.004235
88.589,62.5745,0.004235
88.620,62.5812,0.004272
88.650,62.5871,0.004272
88.682,62.5925,0.004272
88.712,62.5970,0.004272
88.744,62.6010,0.004272
88.774,62.6041,0.004272
88.806,62.6065,0.004272
88.837,62.6081,0.004272
88.868,62.6091,0.004253
88.899,62.6094,0.004253
88.930,62.6094,0.004253
88.963,62.6094,0.004253
88.993,62.6094,0.004253
89.024,62.6094,0.004253
