Elapsed Time (s),Position (mm),Force (N)
-0.017,66.1593,0.004413
0.014,66.1593,0.004413
0.045,66.1593,0.004413
0.076,66.1593,0.004413
0.107,66.1593,0.004413
0.139,66.1593,0.004413
0.169,66.1593,0.004413
0.200,66.1593,0.004310
0.231,66.1593,0.004310
0.265,66.1593,0.004310
0.292,66.1593,0.004310
0.322,66.1593,0.004310
0.355,66.1593,0.004310
0.386,66.1593,0.004310
0.416,66.1593,0.004263
0.447,66.1593,0.004263
0.479,66.1593,0.004263
0.511,66.1593,0.004263
0.542,66.1593,0.004263
0.575,66.1593,0.004263
0.603,66.1593,0.004263
0.635,66.1593,0.004263
0.666,66.1593,0.004235
0.692,66.1593,0.004235
0.727,66.1593,0.004235
0.758,66.1593,0.004235
0.789,66.1593,0.004235
0.820,66.1593,0.004235
0.850,66.1593,0.004235
0.881,66.1593,0.004235
0.919,66.1593,0.004253
0.959,66.1593,0.004253
0.990,66.1593,0.004253
1.020,66.1593,0.004253
1.052,66.1593,0.004253
1.083,66.1593,0.004253
1.115,66.1593,0.004253
1.144,66.1593,0.004263
1.175,66.1593,0.004263
1.206,66.1593,0.004263
1.238,66.1593,0.004263
1.269,66.1593,0.004263
1.300,66.1593,0.004263
1.331,66.1593,0.004263
1.363,66.1593,0.004263
1.394,66.1593,0.004263
1.425,66.1593,0.004263
1.456,66.1593,0.004263
1.487,66.1593,0.004263
1.518,66.1593,0.004263
1.549,66.1593,0.004263
1.580,66.1593,0.004263
1.612,66.1593,0.004263
1.643,66.1593,0.004263
1.674,66.1593,0.004291
1.705,66.1593,0.004291
1.737,66.1593,0.004291
1.768,66.1593,0.004291
1.800,66.1593,0.004291
1.830,66.1593,0.004291
1.862,66.1593,0.004291
1.895,66.1593,0.004291
1.924,66.1593,0.004282
1.955,66.1593,0.004282
1.987,66.1593,0.004282
2.018,66.1593,0.004282
2.049,66.1593,0.004282
2.080,66.1593,0.004282
2.111,66.1593,0.004282
2.142,66.1593,0.004282
2.172,66.1593,0.004282
2.203,66.1593,0.004282
2.234,66.1593,0.004282
2.266,66.1593,0.004282
2.298,66.1593,0.004282
2.329,66.1593,0.004282
2.360,66.1593,0.004282
2.392,66.1593,0.004282
2.422,66.1593,0.004291
2.453,66.1593,0.004291
2.484,66.1593,0.004291
2.515,66.1593,0.004291
2.545,66.1593,0.004291
2.576,66.1593,0.004291
2.608,66.1593,0.004291
2.641,66.1593,0.004291
2.670,66.1593,0.004282
2.701,66.1593,0.004282
2.732,66.1593,0.004282
2.763,66.1593,0.004282
2.795,66.1593,0.004282
2.826,66.1593,0.004282
2.856,66.1593,0.004282
2.888,66.1593,0.004282
2.919,66.1593,0.004244
2.949,66.1593,0.004244
2.981,66.1593,0.004244
3.012,66.1593,0.004244
3.042,66.1593,0.004244
3.073,66.1593,0.004244
3.104,66.1593,0.004244
3.138,66.1593,0.004244
3.166,66.1593,0.004291
3.197,66.1593,0.004291
3.228,66.1593,0.004291
3.259,66.1593,0.004291
3.290,66.1593,0.004291
3.320,66.1593,0.004291
3.351,66.1593,0.004291
3.383,66.1593,0.004291
3.412,66.1593,0.004301
3.442,66.1593,0.004301
3.473,66.1593,0.004301
3.504,66.1593,0.004301
3.535,66.1593,0.004301
3.566,66.1593,0.004301
3.598,66.1593,0.004301
3.629,66.1593,0.004301
3.661,66.1593,0.004282
3.691,66.1593,0.004282
3.722,66.1593,0.004282
3.753,66.1593,0.004282
3.784,66.1593,0.004282
3.816,66.1593,0.004282
3.846,66.1593,0.004282
3.877,66.1593,0.004282
3.907,66.1593,0.004282
3.938,66.1593,0.004291
3.969,66.1593,0.004291
4.000,66.1593,0.004291
4.030,66.1593,0.004291
4.061,66.1593,0.004291
4.092,66.1593,0.004291
4.122,66.1593,0.004291
4.152,66.1587,0.004291
4.184,66.1573,0.004216
4.215,66.1552,0.004216
4.246,66.1524,0.004216
4.277,66.1488,0.004216
4.308,66.1444,0.004216
4.340,66.1393,0.004216
4.371,66.1335,0.004216
4.401,66.1272,0.004216
4.432,66.1200,0.004385
4.462,66.1123,0.004385
4.493,66.1037,0.004385
4.525,66.0941,0.004385
4.556,66.0840,0.004385
4.586,66.0735,0.004385
4.619,66.0616,0.004385
4.649,66.0492,0.004451
4.681,66.0359,0.004451
4.712,66.0220,0.004451
4.743,66.0078,0.004451
4.774,65.9926,0.004451
4.805,65.9767,0.004451
4.836,65.9598,0.004451
4.867,65.9429,0.004451
4.898,65.9243,0.004451
4.929,65.9051,0.004348
4.961,65.8855,0.004348
4.991,65.8654,0.004348
5.022,65.8447,0.004348
5.054,65.8221,0.004348
5.084,65.8003,0.004348
5.116,65.7763,0.004348
5.146,65.7525,0.004376
5.177,65.7289,0.004376
5.208,65.7036,0.004376
5.239,65.6772,0.004376
5.270,65.6508,0.004376
5.300,65.6229,0.004376
5.331,65.5950,0.004376
5.362,65.5657,0.004376
5.393,65.5365,0.004385
5.425,65.5052,0.004385
5.455,65.4746,0.004385
5.486,65.4423,0.004385
5.517,65.4100,0.004385
5.548,65.3760,0.004385
5.579,65.3422,0.004385
5.610,65.3068,0.004385
5.641,65.2724,0.004413
5.673,65.2342,0.004413
5.704,65.1975,0.004413
5.737,65.1579,0.004413
5.766,65.1211,0.004413
5.798,65.0796,0.004413
5.828,65.0424,0.004413
5.858,65.0028,0.004413
5.890,64.9605,0.004413
5.921,64.9190,0.004432
5.952,64.8748,0.004432
5.982,64.8321,0.004432
6.014,64.7877,0.004432
6.044,64.7441,0.004432
6.076,64.6966,0.004432
6.106,64.6514,0.004432
6.138,64.6023,0.004432
6.167,64.5585,0.004404
6.200,64.5058,0.004404
6.229,64.4597,0.004404
6.263,64.4041,0.004404
6.292,64.3587,0.004404
6.323,64.3063,0.004404
6.354,64.2538,0.004404
6.385,64.2011,0.004404
6.416,64.1465,0.004376
6.447,64.0921,0.004376
6.478,64.0357,0.004376
6.509,63.9815,0.004376
6.540,63.9252,0.004376
6.571,63.8686,0.004376
6.602,63.8107,0.004376
6.632,63.7516,0.004376
6.664,63.6915,0.004376
6.694,63.6305,0.004376
6.725,63.5718,0.004376
6.756,63.5114,0.004376
6.786,63.4549,0.004376
6.817,63.3968,0.004376
6.848,63.3406,0.004376
6.880,63.2827,0.004376
6.910,63.2290,0.004291
6.941,63.1733,0.004291
6.972,63.1195,0.004291
7.002,63.0662,0.004291
7.033,63.0123,0.004291
7.064,62.9617,0.004291
7.095,62.9093,0.004291
7.125,62.8594,0.004291
7.157,62.8099,0.004216
7.188,62.7593,0.004216
7.218,62.7121,0.004216
7.249,62.6632,0.004216
7.280,62.6179,0.004216
7.311,62.5711,0.004216
7.342,62.5251,0.004216
7.372,62.4818,0.004216
7.404,62.4363,0.004141
7.434,62.3921,0.004141
7.465,62.3514,0.004141
7.496,62.3090,0.004141
7.527,62.2680,0.004141
7.560,62.2238,0.004141
7.588,62.1870,0.004141
7.619,62.1481,0.004141
7.650,62.1090,0.004141
7.681,62.0729,0.004103
7.711,62.0360,0.004103
7.742,61.9997,0.004103
7.773,61.9643,0.004103
7.804,61.9294,0.004103
7.835,61.8950,0.004103
7.866,61.8615,0.004103
7.897,61.8287,0.004150
7.929,61.7965,0.004150
7.960,61.7645,0.004150
7.992,61.7335,0.004150
8.023,61.7033,0.004150
8.055,61.6739,0.004150
8.085,61.6460,0.004150
8.116,61.6188,0.004150
8.147,61.5920,0.004178
8.177,61.5662,0.004178
8.208,61.5413,0.004178
8.238,61.5171,0.004178
8.270,61.4926,0.004178
8.301,61.4690,0.004178
8.333,61.4463,0.004178
8.364,61.4243,0.004178
8.394,61.4036,0.004206
8.425,61.3834,0.004206
8.456,61.3634,0.004206
8.487,61.3445,0.004206
8.519,61.3264,0.004206
8.550,61.3086,0.004206
8.581,61.2920,0.004206
8.612,61.2760,0.004206
8.643,61.2609,0.004169
8.675,61.2457,0.004169
8.706,61.2321,0.004169
8.738,61.2188,0.004169
8.768,61.2071,0.004169
8.799,61.1956,0.004169
8.829,61.1849,0.004169
8.860,61.1751,0.004169
8.891,61.1653,0.004169
8.922,61.1567,0.004122
8.953,61.1486,0.004122
8.985,61.1413,0.004122
9.017,61.1346,0.004122
9.047,61.1290,0.004122
9.079,61.1238,0.004122
9.109,61.1199,0.004122
9.141,61.1161,0.004122
9.171,61.1135,0.004084
9.202,61.1114,0.004084
9.232,61.1101,0.004084
9.263,61.1093,0.004084
9.294,61.1093,0.004084
9.321,61.1093,0.004084
9.357,61.1093,0.004084
9.390,61.1093,0.004084
9.419,61.1097,0.004178
9.450,61.1107,0.004178
9.481,61.1125,0.004178
9.513,61.1150,0.004178
9.544,61.1184,0.004178
9.575,61.1225,0.004178
9.607,61.1273,0.004178
9.638,61.1329,0.004178
9.669,61.1390,0.004216
9.701,61.1459,0.004216
9.731,61.1536,0.004216
9.762,61.1619,0.004216
9.792,61.1708,0.004216
9.823,61.1805,0.004216
9.854,61.1911,0.004216
9.885,61.2022,0.004216
9.917,61.2145,0.004122
9.947,61.2269,0.004122
9.978,61.2403,0.004122
10.010,61.2549,0.004122
10.041,61.2699,0.004122
10.073,61.2859,0.004122
10.104,61.3026,0.004122
10.135,61.3194,0.004122
10.166,61.3378,0.004169
10.197,61.3563,0.004169
10.228,61.3751,0.004169
10.258,61.3950,0.004169
10.289,61.4159,0.004169
10.320,61.4379,0.004169
10.352,61.4599,0.004169
10.384,61.4835,0.004169
10.414,61.5066,0.004206
10.447,61.5330,0.004206
10.477,61.5573,0.004206
10.509,61.5840,0.004206
10.539,61.6095,0.004206
10.570,61.6373,0.004206
10.600,61.6645,0.004206
10.632,61.6941,0.004206
10.662,61.7225,0.004159
10.694,61.7535,0.004159
10.724,61.7839,0.004159
10.756,61.8156,0.004159
10.787,61.8491,0.004159
10.817,61.8815,0.004159
10.849,61.9156,0.004159
10.880,61.9511,0.004159
10.911,61.9855,0.004159
10.942,62.0211,0.004103
10.974,62.0592,0.004103
11.005,62.0975,0.004103
11.036,62.1350,0.004103
11.067,62.1753,0.004103
11.099,62.2151,0.004103
11.130,62.2565,0.004103
11.161,62.2968,0.004112
11.191,62.3377,0.004112
11.222,62.3796,0.004112
11.253,62.4237,0.004112
11.283,62.4664,0.004112
11.315,62.5125,0.004112
11.345,62.5579,0.004112
11.382,62.6141,0.004112
11.423,62.6738,0.004141
11.455,62.7232,0.004141
11.485,62.7714,0.004141
11.516,62.8207,0.004141
11.547,62.8716,0.004141
11.578,62.9230,0.004141
11.616,62.9857,0.004141
11.656,63.0544,0.004103
11.687,63.1080,0.004103
11.720,63.1644,0.004103
11.749,63.2172,0.004103
11.780,63.2730,0.004103
11.811,63.3291,0.004103
11.844,63.3895,0.004103
11.873,63.4448,0.004103
11.904,63.5046,0.004150
11.935,63.5626,0.004150
11.967,63.6246,0.004150
11.998,63.6829,0.004150
12.028,63.7412,0.004150
12.059,63.7984,0.004150
12.090,63.8571,0.004150
12.121,63.9144,0.004150
12.154,63.9730,0.004150
12.184,64.0270,0.004310
12.214,64.0815,0.004310
12.246,64.1351,0.004310
12.277,64.1892,0.004310
12.307,64.2403,0.004310
12.338,64.2923,0.004310
12.370,64.3435,0.004310
12.401,64.3941,0.004310
12.431,64.4437,0.004395
12.462,64.4918,0.004395
12.493,64.5407,0.004395
12.524,64.5869,0.004395
12.556,64.6357,0.004395
12.587,64.6812,0.004395
12.617,64.7256,0.004395
12.649,64.7706,0.004395
12.679,64.8146,0.004338
12.710,64.8576,0.004338
12.741,64.8984,0.004338
12.771,64.9392,0.004338
12.801,64.9790,0.004338
12.832,65.0192,0.004338
12.864,65.0589,0.004338
12.895,65.0984,0.004338
12.925,65.1354,0.004376
12.957,65.1728,0.004376
12.987,65.2083,0.004376
13.018,65.2450,0.004376
13.048,65.2787,0.004376
13.080,65.3147,0.004376
13.111,65.3472,0.004376
13.142,65.3802,0.004376
13.172,65.4113,0.004470
13.203,65.4441,0.004470
13.234,65.4741,0.004470
13.266,65.5052,0.004470
13.296,65.5339,0.004470
13.328,65.5633,0.004470
13.359,65.5903,0.004470
13.392,65.6210,0.004470
13.420,65.6435,0.004489
13.452,65.6694,0.004489
13.482,65.6945,0.004489
13.513,65.7187,0.004489
13.545,65.7428,0.004489
13.576,65.7650,0.004489
13.606,65.7880,0.004489
13.638,65.8089,0.004489
13.669,65.8292,0.004423
13.699,65.8485,0.004423
13.730,65.8677,0.004423
13.760,65.8858,0.004423
13.793,65.9041,0.004423
13.824,65.9211,0.004423
13.856,65.9379,0.004423
13.887,65.9532,0.004423
13.918,65.9674,0.004413
13.949,65.9817,0.004413
13.979,65.9946,0.004413
14.010,66.0074,0.004413
14.040,66.0188,0.004413
14.072,66.0302,0.004413
14.103,66.0405,0.004413
14.133,66.0498,0.004413
14.164,66.0587,0.004413
14.195,66.0669,0.004404
14.227,66.0746,0.004404
14.257,66.0813,0.004404
14.288,66.0871,0.004404
14.321,66.0928,0.004404
14.350,66.0972,0.004404
14.380,66.1009,0.004404
14.412,66.1041,0.004385
14.442,66.1065,0.004385
14.473,66.1081,0.004385
14.504,66.1091,0.004385
14.535,66.1093,0.004385
14.566,66.1093,0.004385
14.597,66.1093,0.004385
14.629,66.1093,0.004385
14.659,66.1093,0.004385
14.691,66.1093,0.004385
14.722,66.1093,0.004385
14.753,66.1093,0.004385
14.784,66.1093,0.004385
14.815,66.1093,0.004385
14.846,66.1093,0.004385
14.877,66.1093,0.004385
14.909,66.1093,0.004282
14.939,66.1093,0.004282
14.970,66.1093,0.004282
15.001,66.1093,0.004282
15.032,66.1093,0.004282
15.063,66.1093,0.004282
15.095,66.1093,0.004282
15.128,66.1093,0.004282
15.158,66.1093,0.004253
15.191,66.1093,0.004253
15.221,66.1093,0.004253
15.252,66.1093,0.004253
15.282,66.1093,0.004253
15.314,66.1093,0.004253
15.345,66.1093,0.004253
15.375,66.1093,0.004253
15.406,66.1093,0.004329
15.437,66.1093,0.004329
15.469,66.1093,0.004329
15.500,66.1093,0.004329
15.530,66.1093,0.004329
15.561,66.1093,0.004329
15.592,66.1093,0.004329
15.623,66.1093,0.004329
15.654,66.1093,0.004329
15.683,66.1093,0.004376
15.714,66.1093,0.004376
15.745,66.1093,0.004376
15.775,66.1093,0.004376
15.807,66.1093,0.004376
15.839,66.1093,0.004376
15.869,66.1093,0.004376
15.901,66.1093,0.004376
15.931,66.1093,0.004319
15.963,66.1093,0.004319
15.994,66.1093,0.004319
16.025,66.1093,0.004319
16.054,66.1093,0.004319
16.085,66.1093,0.004319
16.117,66.1093,0.004319
16.149,66.1093,0.004319
16.180,66.1093,0.004235
16.211,66.1093,0.004235
16.242,66.1093,0.004235
16.273,66.1093,0.004235
16.304,66.1093,0.004235
16.335,66.1093,0.004235
16.366,66.1093,0.004235
16.397,66.1093,0.004235
16.428,66.1093,0.004272
16.458,66.1093,0.004272
16.489,66.1093,0.004272
16.520,66.1093,0.004272
16.551,66.1093,0.004272
16.583,66.1093,0.004272
16.615,66.1093,0.004272
16.646,66.1093,0.004272
16.677,66.1093,0.004319
16.713,66.1093,0.004319
16.739,66.1093,0.004319
16.769,66.1093,0.004319
16.800,66.1093,0.004319
16.831,66.1093,0.004319
16.862,66.1093,0.004319
16.893,66.1093,0.004319
16.924,66.1093,0.004301
16.955,66.1093,0.004301
16.987,66.1093,0.004301
17.018,66.1093,0.004301
17.049,66.1093,0.004301
17.080,66.1093,0.004301
17.109,66.1093,0.004301
17.140,66.1093,0.004301
17.171,66.1093,0.004291
17.202,66.1093,0.004291
17.232,66.1093,0.004291
17.264,66.1093,0.004291
17.295,66.1093,0.004291
17.327,66.1093,0.004291
17.358,66.1093,0.004291
17.388,66.1093,0.004291
17.420,66.1093,0.004291
17.451,66.1093,0.004301
17.482,66.1093,0.004301
17.512,66.1093,0.004301
17.543,66.1093,0.004301
17.574,66.1093,0.004301
17.605,66.1093,0.004301
17.636,66.1093,0.004301
17.667,66.1093,0.004272
17.698,66.1093,0.004272
17.728,66.1093,0.004272
17.758,66.1093,0.004272
17.790,66.1093,0.004272
17.825,66.1093,0.004272
17.855,66.1093,0.004272
17.883,66.1093,0.004272
17.915,66.1093,0.004282
17.946,66.1093,0.004282
17.977,66.1093,0.004282
18.008,66.1093,0.004282
18.039,66.1093,0.004282
18.070,66.1093,0.004282
18.102,66.1093,0.004282
18.133,66.1093,0.004282
18.164,66.1093,0.004301
18.195,66.1093,0.004301
18.227,66.1093,0.004301
18.258,66.1093,0.004301
18.288,66.1093,0.004301
18.320,66.1093,0.004301
18.351,66.1093,0.004301
18.381,66.1093,0.004301
18.411,66.1093,0.004301
18.442,66.1093,0.004301
18.474,66.1093,0.004301
18.505,66.1093,0.004301
18.535,66.1093,0.004301
18.566,66.1093,0.004301
18.597,66.1093,0.004301
18.628,66.1093,0.004301
18.660,66.1093,0.004291
18.691,66.1093,0.004291
18.721,66.1093,0.004291
18.752,66.1093,0.004291
18.783,66.1093,0.004291
18.813,66.1093,0.004291
18.844,66.1092,0.004291
18.874,66.1085,0.004291
18.906,66.1070,0.004338
18.936,66.1047,0.004338
18.967,66.1018,0.004338
18.998,66.0980,0.004338
19.029,66.0936,0.004338
19.059,66.0890,0.004338
19.090,66.0829,0.004338
19.120,66.0768,0.004338
19.151,66.0694,0.004461
19.183,66.0613,0.004461
19.214,66.0525,0.004461
19.244,66.0432,0.004461
19.276,66.0328,0.004461
19.308,66.0215,0.004461
19.338,66.0101,0.004461
19.370,65.9978,0.004461
19.401,65.9846,0.004461
19.431,65.9709,0.004461
19.463,65.9558,0.004461
19.494,65.9407,0.004461
19.526,65.9240,0.004461
19.555,65.9083,0.004461
19.586,65.8910,0.004461
19.617,65.8728,0.004461
19.650,65.8531,0.004461
19.680,65.8336,0.004376
19.714,65.8113,0.004376
19.741,65.7929,0.004376
19.772,65.7707,0.004376
19.802,65.7487,0.004376
19.839,65.7210,0.004376
19.865,65.7008,0.004376
19.896,65.6762,0.004376
19.927,65.6506,0.004366
19.959,65.6238,0.004366
19.990,65.5967,0.004366
20.020,65.5698,0.004366
20.054,65.5392,0.004366
20.083,65.5113,0.004366
20.114,65.4825,0.004366
20.140,65.4565,0.004366
20.174,65.4219,0.004366
20.205,65.3905,0.004366
20.235,65.3582,0.004366
20.266,65.3250,0.004366
20.297,65.2900,0.004366
20.328,65.2551,0.004366
20.359,65.2203,0.004366
20.390,65.1842,0.004366
20.422,65.1460,0.004404
20.455,65.1049,0.004404
20.485,65.0689,0.004404
20.514,65.0318,0.004404
20.545,64.9918,0.004404
20.575,64.9521,0.004404
20.607,64.9094,0.004404
20.638,64.8671,0.004404
20.669,64.8232,0.004404
20.700,64.7808,0.004442
20.732,64.7353,0.004442
20.762,64.6912,0.004442
20.793,64.6462,0.004442
20.824,64.6000,0.004442
20.855,64.5518,0.004442
20.886,64.5038,0.004442
20.917,64.4545,0.004423
20.948,64.4059,0.004423
20.980,64.3545,0.004423
21.011,64.3034,0.004423
21.042,64.2505,0.004423
21.074,64.1968,0.004423
21.104,64.1453,0.004423
21.135,64.0918,0.004423
21.167,64.0354,0.004423
21.197,63.9808,0.004385
21.229,63.9248,0.004385
21.260,63.8682,0.004385
21.291,63.8106,0.004385
21.322,63.7516,0.004385
21.352,63.6943,0.004385
21.384,63.6322,0.004385
21.415,63.5733,0.004385
21.447,63.5115,0.004385
21.477,63.4536,0.004385
21.508,63.3962,0.004385
21.539,63.3375,0.004385
21.570,63.2792,0.004385
21.601,63.2244,0.004385
21.632,63.1685,0.004385
21.663,63.1134,0.004301
21.694,63.0585,0.004301
21.725,63.0049,0.004301
21.756,62.9509,0.004301
21.787,62.9011,0.004301
21.819,62.8478,0.004301
21.848,62.7991,0.004301
21.879,62.7483,0.004301
21.911,62.6996,0.004178
21.943,62.6497,0.004178
21.972,62.6038,0.004178
22.003,62.5572,0.004178
22.034,62.5103,0.004178
22.064,62.4663,0.004178
22.096,62.4201,0.004178
22.127,62.3763,0.004178
22.158,62.3334,0.004159
22.188,62.2902,0.004159
22.220,62.2487,0.004159
22.251,62.2072,0.004159
22.281,62.1675,0.004159
22.312,62.1273,0.004159
22.343,62.0897,0.004159
22.374,62.0503,0.004159
22.405,62.0133,0.004150
22.436,61.9760,0.004150
22.467,61.9407,0.004150
22.498,61.9041,0.004150
22.529,61.8702,0.004150
22.560,61.8351,0.004150
22.591,61.8027,0.004150
22.621,61.7706,0.004150
22.652,61.7391,0.004159
22.688,61.7027,0.004159
22.714,61.6772,0.004159
22.745,61.6478,0.004159
22.776,61.6197,0.004159
22.806,61.5913,0.004159
22.837,61.5642,0.004159
22.868,61.5376,0.004159
22.899,61.5122,0.004178
22.930,61.4867,0.004178
22.961,61.4617,0.004178
22.992,61.4377,0.004178
23.023,61.4147,0.004178
23.053,61.3931,0.004178
23.084,61.3713,0.004178
23.114,61.3508,0.004178
23.146,61.3302,0.004169
23.178,61.3106,0.004169
23.209,61.2916,0.004169
23.239,61.2740,0.004169
23.271,61.2562,0.004169
23.301,61.2404,0.004169
23.332,61.2244,0.004169
23.362,61.2095,0.004169
23.393,61.1954,0.004169
23.423,61.1819,0.004169
23.455,61.1687,0.004169
23.485,61.1568,0.004169
23.516,61.1452,0.004169
23.547,61.1341,0.004169
23.578,61.1245,0.004169
23.609,61.1150,0.004169
23.640,61.1062,0.004169
23.670,61.0985,0.004131
23.701,61.0915,0.004131
23.732,61.0850,0.004131
23.763,61.0793,0.004131
23.794,61.0742,0.004131
23.825,61.0699,0.004131
23.856,61.0663,0.004131
23.887,61.0636,0.004131
23.918,61.0615,0.004112
23.948,61.0601,0.004112
23.979,61.0595,0.004112
24.010,61.0593,0.004112
24.040,61.0593,0.004112
24.071,61.0593,0.004112
24.102,61.0593,0.004112
24.133,61.0593,0.004112
24.164,61.0593,0.004112
24.194,61.0593,0.004216
24.225,61.0598,0.004216
24.255,61.0610,0.004216
24.285,61.0629,0.004216
24.316,61.0655,0.004216
24.347,61.0689,0.004216
24.378,61.0730,0.004216
24.410,61.0779,0.004216
24.441,61.0834,0.004263
24.471,61.0896,0.004263
24.502,61.0963,0.004263
24.533,61.1040,0.004263
24.564,61.1124,0.004263
24.594,61.1217,0.004263
24.625,61.1313,0.004263
24.655,61.1416,0.004263
24.687,61.1531,0.004197
24.720,61.1659,0.004197
24.750,61.1783,0.004197
24.782,61.1924,0.004197
24.812,61.2062,0.004197
24.843,61.2217,0.004197
24.874,61.2372,0.004197
24.905,61.2533,0.004197
24.937,61.2709,0.004131
24.968,61.2890,0.004131
24.999,61.3074,0.004131
25.029,61.3271,0.004131
25.060,61.3462,0.004131
25.090,61.3673,0.004131
25.121,61.3883,0.004131
25.153,61.4112,0.004131
25.184,61.4341,0.004103
25.215,61.4583,0.004103
25.245,61.4815,0.004103
25.276,61.5068,0.004103
25.306,61.5320,0.004103
25.337,61.5580,0.004103
25.368,61.5859,0.004103
25.405,61.6188,0.004103
25.430,61.6430,0.004141
25.461,61.6724,0.004141
25.493,61.7031,0.004141
25.523,61.7329,0.004141
25.556,61.7678,0.004141
25.586,61.7978,0.004141
25.617,61.8316,0.004141
25.648,61.8652,0.004112
25.679,61.9000,0.004112
25.709,61.9338,0.004112
25.740,61.9700,0.004112
25.770,62.0064,0.004112
25.801,62.0432,0.004112
25.832,62.0812,0.004112
25.863,62.1201,0.004112
25.894,62.1596,0.004056
25.924,62.1994,0.004056
25.954,62.2387,0.004056
25.986,62.2816,0.004056
26.016,62.3234,0.004056
26.047,62.3670,0.004056
26.078,62.4097,0.004056
26.109,62.4557,0.004056
26.140,62.5004,0.004056
26.171,62.5473,0.004065
26.203,62.5946,0.004065
26.234,62.6420,0.004065
26.264,62.6894,0.004065
26.294,62.7371,0.004065
26.327,62.7898,0.004065
26.358,62.8402,0.004065
26.389,62.8909,0.004075
26.419,62.9423,0.004075
26.450,62.9950,0.004075
26.481,63.0476,0.004075
26.512,63.1006,0.004075
26.542,63.1557,0.004075
26.574,63.2125,0.004075
26.604,63.2667,0.004075
26.635,63.3234,0.004075
26.666,63.3835,0.004075
26.694,63.4339,0.004056
26.728,63.4990,0.004056
26.760,63.5626,0.004056
26.791,63.6207,0.004056
26.824,63.6849,0.004056
26.855,63.7422,0.004056
26.885,63.7977,0.004056
26.915,63.8527,0.004169
26.949,63.9159,0.004169
26.978,63.9666,0.004169
27.009,64.0223,0.004169
27.041,64.0782,0.004169
27.072,64.1310,0.004169
27.103,64.1841,0.004169
27.134,64.2347,0.004169
27.165,64.2873,0.004282
27.195,64.3364,0.004282
27.226,64.3858,0.004282
27.257,64.4341,0.004282
27.288,64.4821,0.004282
27.319,64.5301,0.004282
27.350,64.5769,0.004282
27.380,64.6227,0.004282
27.412,64.6690,0.004272
27.443,64.7131,0.004272
27.474,64.7572,0.004272
27.505,64.8004,0.004272
27.536,64.8417,0.004272
27.566,64.8837,0.004272
27.597,64.9232,0.004272
27.627,64.9629,0.004272
27.657,65.0011,0.004338
27.688,65.0407,0.004338
27.719,65.0783,0.004338
27.750,65.1159,0.004338
27.780,65.1511,0.004338
27.810,65.1865,0.004338
27.844,65.2245,0.004338
27.873,65.2570,0.004338
27.903,65.2903,0.004338
27.934,65.3223,0.004338
27.964,65.3539,0.004338
27.996,65.3864,0.004338
28.027,65.4179,0.004338
28.059,65.4496,0.004338
28.089,65.4776,0.004338
28.121,65.5068,0.004338
28.151,65.5344,0.004348
28.182,65.5613,0.004348
28.213,65.5879,0.004348
28.244,65.6135,0.004348
28.275,65.6393,0.004348
28.301,65.6592,0.004348
28.338,65.6878,0.004348
28.368,65.7095,0.004348
28.398,65.7313,0.004385
28.430,65.7530,0.004385
28.461,65.7742,0.004385
28.492,65.7938,0.004385
28.521,65.8125,0.004385
28.553,65.8313,0.004385
28.584,65.8494,0.004385
28.615,65.8669,0.004385
28.646,65.8827,0.004385
28.673,65.8963,0.004385
28.709,65.9140,0.004376
28.739,65.9278,0.004376
28.771,65.9413,0.004376
28.801,65.9538,0.004376
28.832,65.9658,0.004376
28.864,65.9772,0.004376
28.894,65.9877,0.004376
28.924,65.9971,0.004385
28.954,66.0063,0.004385
28.987,66.0148,0.004385
29.018,66.0228,0.004385
29.050,66.0298,0.004385
29.081,66.0360,0.004385
29.112,66.0415,0.004385
29.142,66.0462,0.004385
29.173,66.0502,0.004385
29.206,66.0535,0.004357
29.236,66.0561,0.004357
29.267,66.0579,0.004357
29.298,66.0590,0.004357
29.329,66.0593,0.004357
29.360,66.0593,0.004357
29.391,66.0593,0.004357
29.421,66.0593,0.004348
29.452,66.0593,0.004348
29.483,66.0593,0.004348
29.515,66.0593,0.004348
29.545,66.0593,0.004348
29.576,66.0593,0.004348
29.606,66.0593,0.004348
29.637,66.0593,0.004348
29.668,66.0593,0.004291
29.705,66.0593,0.004291
29.745,66.0593,0.004291
29.777,66.0593,0.004291
29.808,66.0593,0.004291
29.839,66.0593,0.004291
29.871,66.0593,0.004291
29.902,66.0593,0.004291
29.932,66.0593,0.004235
29.964,66.0593,0.004235
29.995,66.0593,0.004235
30.025,66.0593,0.004235
30.057,66.0593,0.004235
30.087,66.0593,0.004235
30.119,66.0593,0.004235
30.149,66.0593,0.004272
30.179,66.0593,0.004272
30.210,66.0593,0.004272
30.241,66.0593,0.004272
30.271,66.0593,0.004272
30.304,66.0593,0.004272
30.334,66.0593,0.004272
30.365,66.0593,0.004272
30.396,66.0593,0.004282
30.428,66.0593,0.004282
30.459,66.0593,0.004282
30.490,66.0593,0.004282
30.520,66.0593,0.004282
30.553,66.0593,0.004282
30.583,66.0593,0.004282
30.615,66.0593,0.004282
30.645,66.0593,0.004253
30.677,66.0593,0.004253
30.708,66.0593,0.004253
30.742,66.0593,0.004253
30.769,66.0593,0.004253
30.801,66.0593,0.004253
30.831,66.0593,0.004253
30.862,66.0593,0.004253
30.893,66.0593,0.004216
30.925,66.0593,0.004216
30.954,66.0593,0.004216
30.985,66.0593,0.004216
31.017,66.0593,0.004216
31.048,66.0593,0.004216
31.079,66.0593,0.004216
31.110,66.0593,0.004216
31.141,66.0593,0.004216
31.171,66.0593,0.004253
31.202,66.0593,0.004253
31.233,66.0593,0.004253
31.264,66.0593,0.004253
31.295,66.0593,0.004253
31.325,66.0593,0.004253
31.356,66.0593,0.004253
31.387,66.0593,0.004272
31.419,66.0593,0.004272
31.449,66.0593,0.004272
31.480,66.0593,0.004272
31.512,66.0593,0.004272
31.542,66.0593,0.004272
31.574,66.0593,0.004272
31.605,66.0593,0.004272
31.635,66.0593,0.004272
31.666,66.0593,0.004225
31.698,66.0593,0.004225
31.729,66.0593,0.004225
31.763,66.0593,0.004225
31.789,66.0593,0.004225
31.820,66.0593,0.004225
31.851,66.0593,0.004225
31.888,66.0593,0.004225
31.913,66.0593,0.004225
31.945,66.0593,0.004225
31.976,66.0593,0.004225
32.007,66.0593,0.004225
32.038,66.0593,0.004225
32.068,66.0593,0.004225
32.100,66.0593,0.004225
32.130,66.0593,0.004225
32.161,66.0593,0.004253
32.192,66.0593,0.004253
32.222,66.0593,0.004253
32.253,66.0593,0.004253
32.285,66.0593,0.004253
32.315,66.0593,0.004253
32.346,66.0593,0.004253
32.377,66.0593,0.004253
32.408,66.0593,0.004235
32.439,66.0593,0.004235
32.470,66.0593,0.004235
32.504,66.0593,0.004235
32.531,66.0593,0.004235
32.563,66.0593,0.004235
32.597,66.0593,0.004235
32.624,66.0593,0.004235
32.655,66.0593,0.004235
32.686,66.0593,0.004235
32.716,66.0593,0.004235
32.748,66.0593,0.004235
32.779,66.0593,0.004235
32.812,66.0593,0.004235
32.841,66.0593,0.004235
32.872,66.0593,0.004235
32.902,66.0593,0.004244
32.933,66.0593,0.004244
32.964,66.0593,0.004244
32.995,66.0593,0.004244
33.025,66.0593,0.004244
33.056,66.0593,0.004244
33.088,66.0593,0.004244
33.119,66.0593,0.004244
33.150,66.0593,0.004244
33.183,66.0593,0.004244
33.213,66.0593,0.004244
33.243,66.0593,0.004244
33.274,66.0593,0.004244
33.306,66.0593,0.004244
33.336,66.0593,0.004244
33.367,66.0593,0.004244
33.398,66.0593,0.004263
33.429,66.0593,0.004263
33.460,66.0593,0.004263
33.491,66.0593,0.004263
33.521,66.0593,0.004263
33.553,66.0593,0.004263
33.583,66.0593,0.004263
33.614,66.0591,0.004263
33.645,66.0581,0.004253
33.671,66.0566,0.004253
33.709,66.0538,0.004253
33.739,66.0505,0.004253
33.770,66.0468,0.004253
33.800,66.0420,0.004253
33.832,66.0367,0.004253
33.863,66.0305,0.004253
33.893,66.0240,0.004385
33.924,66.0163,0.004385
33.955,66.0079,0.004385
33.988,65.9983,0.004385
34.018,65.9890,0.004385
34.048,65.9787,0.004385
34.079,65.9678,0.004385
34.110,65.9557,0.004385
34.140,65.9436,0.004413
34.172,65.9296,0.004413
34.205,65.9149,0.004413
34.233,65.9010,0.004413
34.265,65.8853,0.004413
34.295,65.8688,0.004413
34.328,65.8509,0.004413
34.357,65.8350,0.004413
34.392,65.8144,0.004413
34.420,65.7967,0.004413
34.450,65.7768,0.004310
34.482,65.7564,0.004310
34.515,65.7330,0.004310
34.543,65.7134,0.004310
34.574,65.6905,0.004310
34.606,65.6668,0.004310
34.636,65.6426,0.004310
34.668,65.6173,0.004310
34.699,65.5918,0.004385
34.730,65.5644,0.004385
34.761,65.5371,0.004385
34.792,65.5097,0.004385
34.823,65.4810,0.004385
34.853,65.4525,0.004385
34.886,65.4199,0.004385
34.915,65.3919,0.004413
34.945,65.3615,0.004413
34.976,65.3291,0.004413
35.007,65.2965,0.004413
35.038,65.2625,0.004413
35.069,65.2273,0.004413
35.101,65.1919,0.004413
35.131,65.1560,0.004413
35.162,65.1204,0.004413
35.193,65.0819,0.004357
35.224,65.0448,0.004357
35.255,65.0061,0.004357
35.285,64.9677,0.004357
35.318,64.9253,0.004357
35.348,64.8860,0.004357
35.379,64.8440,0.004357
35.410,64.8010,0.004357
35.440,64.7592,0.004329
35.472,64.7146,0.004329
35.503,64.6703,0.004329
35.535,64.6237,0.004329
35.565,64.5784,0.004329
35.596,64.5320,0.004329
35.629,64.4807,0.004329
35.660,64.4338,0.004329
35.691,64.3843,0.004338
35.723,64.3324,0.004338
35.752,64.2857,0.004338
35.783,64.2347,0.004338
35.814,64.1827,0.004338
35.846,64.1274,0.004338
35.877,64.0750,0.004338
35.908,64.0211,0.004338
35.938,63.9667,0.004404
35.969,63.9119,0.004404
36.001,63.8543,0.004404
36.032,63.7968,0.004404
36.064,63.7384,0.004404
36.095,63.6780,0.004404
36.125,63.6212,0.004404
36.156,63.5623,0.004404
36.188,63.4999,0.004413
36.218,63.4402,0.004413
36.250,63.3808,0.004413
36.280,63.3220,0.004413
36.311,63.2661,0.004413
36.342,63.2104,0.004413
36.372,63.1540,0.004413
36.404,63.0967,0.004413
36.435,63.0437,0.004244
36.466,62.9885,0.004244
36.497,62.9362,0.004244
36.529,62.8810,0.004244
36.559,62.8316,0.004244
36.590,62.7792,0.004244
36.621,62.7288,0.004244
36.659,62.6694,0.004244
36.700,62.6050,0.004112
36.731,62.5575,0.004112
36.761,62.5110,0.004112
36.793,62.4642,0.004112
36.824,62.4175,0.004112
36.854,62.3732,0.004112
36.885,62.3298,0.004112
36.916,62.2859,0.004112
36.947,62.2444,0.004103
36.978,62.2011,0.004103
37.008,62.1615,0.004103
37.040,62.1202,0.004103
37.071,62.0801,0.004103
37.103,62.0397,0.004103
37.133,62.0023,0.004103
37.164,61.9656,0.004094
37.194,61.9289,0.004094
37.226,61.8920,0.004094
37.257,61.8554,0.004094
37.289,61.8211,0.004094
37.320,61.7871,0.004094
37.350,61.7535,0.004094
37.381,61.7218,0.004094
37.412,61.6895,0.004131
37.442,61.6595,0.004131
37.474,61.6285,0.004131
37.505,61.5981,0.004131
37.536,61.5702,0.004131
37.566,61.5423,0.004131
37.597,61.5150,0.004131
37.627,61.4887,0.004131
37.659,61.4622,0.004131
37.689,61.4376,0.004131
37.719,61.4136,0.004131
37.750,61.3895,0.004131
37.776,61.3703,0.004131
37.812,61.3447,0.004131
37.842,61.3231,0.004131
37.877,61.2993,0.004131
37.904,61.2822,0.004131
37.934,61.2626,0.004065
37.965,61.2444,0.004065
37.995,61.2264,0.004065
38.027,61.2090,0.004065
38.058,61.1918,0.004065
38.091,61.1756,0.004065
38.120,61.1609,0.004065
38.151,61.1463,0.004056
38.183,61.1326,0.004056
38.214,61.1194,0.004056
38.245,61.1071,0.004056
38.276,61.0953,0.004056
38.307,61.0846,0.004056
38.338,61.0745,0.004056
38.369,61.0650,0.004056
38.402,61.0561,0.004056
38.431,61.0486,0.004056
38.457,61.0425,0.004075
38.492,61.0350,0.004075
38.522,61.0296,0.004075
38.553,61.0245,0.004075
38.584,61.0202,0.004075
38.615,61.0166,0.004075
38.646,61.0137,0.004103
38.677,61.0116,0.004103
38.708,61.0101,0.004103
38.740,61.0095,0.004103
38.771,61.0094,0.004103
38.801,61.0094,0.004103
38.834,61.0094,0.004103
38.863,61.0094,0.004103
38.893,61.0094,0.004103
38.925,61.0094,0.004188
38.955,61.0095,0.004188
38.986,61.0104,0.004188
39.018,61.0121,0.004188
39.049,61.0144,0.004188
39.081,61.0175,0.004188
39.111,61.0213,0.004188
39.142,61.0257,0.004235
39.174,61.0313,0.004235
39.205,61.0371,0.004235
39.235,61.0437,0.004235
39.267,61.0514,0.004235
39.299,61.0596,0.004235
39.330,61.0686,0.004235
39.361,61.0783,0.004235
39.392,61.0886,0.004235
39.422,61.0997,0.004178
39.454,61.1117,0.004178
39.484,61.1241,0.004178
39.513,61.1365,0.004178
39.546,61.1514,0.004178
39.577,61.1663,0.004178
39.608,61.1810,0.004178
39.639,61.1974,0.004112
39.670,61.2144,0.004112
39.701,61.2320,0.004112
39.732,61.2508,0.004112
39.763,61.2694,0.004112
39.794,61.2893,0.004112
39.825,61.3104,0.004112
39.856,61.3308,0.004112
39.887,61.3527,0.004112
39.917,61.3755,0.004075
39.948,61.3987,0.004075
39.979,61.4229,0.004075
40.010,61.4479,0.004075
40.041,61.4731,0.004075
40.073,61.5009,0.004075
40.105,61.5283,0.004075
40.134,61.5548,0.004122
40.167,61.5842,0.004122
40.197,61.6136,0.004122
40.229,61.6445,0.004122
40.260,61.6751,0.004122
40.291,61.7066,0.004122
40.321,61.7378,0.004122
40.353,61.7709,0.004122
40.384,61.8051,0.004122
40.415,61.8391,0.004178
40.445,61.8736,0.004178
40.477,61.9100,0.004178
40.508,61.9471,0.004178
40.538,61.9831,0.004178
40.569,62.0220,0.004178
40.601,62.0603,0.004178
40.632,62.1000,0.004178
40.663,62.1417,0.004159
40.693,62.1813,0.004159
40.724,62.2217,0.004159
40.756,62.2662,0.004159
40.786,62.3076,0.004159
40.818,62.3524,0.004159
40.848,62.3963,0.004159
40.879,62.4416,0.004159
40.909,62.4862,0.004122
40.940,62.5324,0.004122
40.971,62.5804,0.004122
41.002,62.6274,0.004122
41.032,62.6767,0.004122
41.062,62.7237,0.004122
41.093,62.7745,0.004122
41.124,62.8247,0.004122
41.156,62.8777,0.004112
41.186,62.9281,0.004112
41.218,62.9831,0.004112
41.248,63.0359,0.004112
41.280,63.0922,0.004112
41.311,63.1498,0.004112
41.343,63.2052,0.004112
41.374,63.2629,0.004112
41.405,63.3215,0.004112
41.436,63.3786,0.004084
41.468,63.4394,0.004084
41.498,63.4983,0.004084
41.529,63.5579,0.004084
41.560,63.6166,0.004084
41.591,63.6761,0.004084
41.622,63.7325,0.004084
41.652,63.7897,0.004084
41.683,63.8460,0.004169
41.713,63.9012,0.004169
41.745,63.9555,0.004169
41.777,64.0126,0.004169
41.807,64.0639,0.004169
41.839,64.1183,0.004169
41.870,64.1705,0.004169
41.899,64.2191,0.004169
41.930,64.2699,0.004366
41.961,64.3189,0.004366
41.992,64.3694,0.004366
42.024,64.4174,0.004366
42.055,64.4658,0.004366
42.085,64.5114,0.004366
42.115,64.5572,0.004366
42.148,64.6047,0.004366
42.178,64.6475,0.004366
42.209,64.6922,0.004357
42.239,64.7345,0.004357
42.271,64.7779,0.004357
42.302,64.8199,0.004357
42.334,64.8628,0.004357
42.364,64.9027,0.004357
42.396,64.9435,0.004357
42.427,64.9822,0.004338
42.457,65.0199,0.004338
42.488,65.0572,0.004338
42.519,65.0939,0.004338
42.550,65.1298,0.004338
42.580,65.1644,0.004338
42.611,65.1985,0.004338
42.642,65.2330,0.004338
42.673,65.2665,0.004366
42.703,65.2973,0.004366
42.733,65.3286,0.004366
42.764,65.3601,0.004366
42.796,65.3904,0.004366
42.827,65.4212,0.004366
42.859,65.4501,0.004366
42.890,65.4789,0.004366
42.922,65.5063,0.004404
42.952,65.5329,0.004404
42.983,65.5589,0.004404
43.015,65.5850,0.004404
43.047,65.6095,0.004404
43.078,65.6337,0.004404
43.108,65.6563,0.004404
43.140,65.6793,0.004404
43.171,65.7004,0.004432
43.202,65.7214,0.004432
43.233,65.7415,0.004432
43.264,65.7614,0.004432
43.297,65.7803,0.004432
43.326,65.7978,0.004432
43.358,65.8153,0.004432
43.388,65.8313,0.004432
43.419,65.8470,0.004404
43.450,65.8615,0.004404
43.480,65.8758,0.004404
43.511,65.8896,0.004404
43.542,65.9025,0.004404
43.573,65.9145,0.004404
43.605,65.9261,0.004404
43.635,65.9366,0.004404
43.666,65.9467,0.004357
43.698,65.9558,0.004357
43.727,65.9637,0.004357
43.758,65.9714,0.004357
43.789,65.9785,0.004357
43.819,65.9849,0.004357
43.849,65.9901,0.004357
43.881,65.9954,0.004357
43.912,65.9994,0.004357
43.943,66.0029,0.004319
43.974,66.0056,0.004319
44.005,66.0076,0.004319
44.038,66.0089,0.004319
44.067,66.0094,0.004319
44.101,66.0094,0.004319
44.129,66.0094,0.004319
44.160,66.0094,0.004319
44.191,66.0094,0.004357
44.222,66.0094,0.004357
44.252,66.0094,0.004357
44.283,66.0094,0.004357
44.314,66.0094,0.004357
44.345,66.0094,0.004357
44.376,66.0094,0.004357
44.406,66.0094,0.004357
44.437,66.0094,0.004348
44.468,66.0094,0.004348
44.498,66.0094,0.004348
44.530,66.0094,0.004348
44.561,66.0094,0.004348
44.595,66.0094,0.004348
44.622,66.0094,0.004348
44.654,66.0094,0.004348
44.685,66.0094,0.004291
44.717,66.0094,0.004291
44.747,66.0094,0.004291
44.778,66.0094,0.004291
44.809,66.0094,0.004291
44.840,66.0094,0.004291
44.871,66.0094,0.004291
44.902,66.0094,0.004244
44.933,66.0094,0.004244
44.964,66.0094,0.004244
44.996,66.0094,0.004244
45.027,66.0094,0.004244
45.058,66.0094,0.004244
45.089,66.0094,0.004244
45.120,66.0094,0.004244
45.151,66.0094,0.004197
45.182,66.0094,0.004197
45.213,66.0094,0.004197
45.243,66.0094,0.004197
45.274,66.0094,0.004197
45.305,66.0094,0.004197
45.337,66.0094,0.004197
45.368,66.0094,0.004197
45.399,66.0094,0.004197
45.431,66.0094,0.004206
45.461,66.0094,0.004206
45.493,66.0094,0.004206
45.522,66.0094,0.004206
45.552,66.0094,0.004206
45.584,66.0094,0.004206
45.615,66.0094,0.004206
45.647,66.0094,0.004282
45.678,66.0094,0.004282
45.708,66.0094,0.004282
45.740,66.0094,0.004282
45.771,66.0094,0.004282
45.802,66.0094,0.004282
45.834,66.0094,0.004282
45.865,66.0094,0.004282
45.895,66.0094,0.004263
45.927,66.0094,0.004263
45.957,66.0094,0.004263
45.988,66.0094,0.004263
46.019,66.0094,0.004263
46.049,66.0094,0.004263
46.081,66.0094,0.004263
46.111,66.0094,0.004263
46.143,66.0094,0.004235
46.173,66.0094,0.004235
46.204,66.0094,0.004235
46.235,66.0094,0.004235
46.266,66.0094,0.004235
46.298,66.0094,0.004235
46.329,66.0094,0.004235
46.359,66.0094,0.004235
46.391,66.0094,0.004235
46.421,66.0094,0.004282
46.453,66.0094,0.004282
46.484,66.0094,0.004282
46.515,66.0094,0.004282
46.546,66.0094,0.004282
46.576,66.0094,0.004282
46.608,66.0094,0.004282
46.638,66.0094,0.004282
46.670,66.0094,0.004244
46.701,66.0094,0.004244
46.732,66.0094,0.004244
46.763,66.0094,0.004244
46.794,66.0094,0.004244
46.825,66.0094,0.004244
46.856,66.0094,0.004244
46.887,66.0094,0.004244
46.917,66.0094,0.004150
46.949,66.0094,0.004150
46.980,66.0094,0.004150
47.010,66.0094,0.004150
47.041,66.0094,0.004150
47.072,66.0094,0.004150
47.103,66.0094,0.004150
47.134,66.0094,0.004150
47.165,66.0094,0.004206
47.196,66.0094,0.004206
47.228,66.0094,0.004206
47.259,66.0094,0.004206
47.290,66.0094,0.004206
47.322,66.0094,0.004206
47.352,66.0094,0.004206
47.387,66.0094,0.004206
47.414,66.0094,0.004235
47.446,66.0094,0.004235
47.478,66.0094,0.004235
47.509,66.0094,0.004235
47.542,66.0094,0.004235
47.573,66.0094,0.004235
47.602,66.0094,0.004235
47.637,66.0094,0.004235
47.664,66.0094,0.004235
47.699,66.0094,0.004206
47.727,66.0094,0.004206
47.758,66.0094,0.004206
47.788,66.0094,0.004206
47.819,66.0094,0.004206
47.853,66.0094,0.004206
47.881,66.0094,0.004206
47.919,66.0094,0.004225
47.959,66.0094,0.004225
47.991,66.0094,0.004225
48.022,66.0094,0.004225
48.051,66.0094,0.004225
48.082,66.0094,0.004225
48.114,66.0094,0.004225
48.145,66.0094,0.004225
48.176,66.0094,0.004263
48.207,66.0094,0.004263
48.238,66.0094,0.004263
48.269,66.0094,0.004263
48.300,66.0094,0.004263
48.331,66.0094,0.004263
48.363,66.0090,0.004263
48.394,66.0080,0.004253
48.424,66.0061,0.004253
48.455,66.0037,0.004253
48.487,66.0003,0.004253
48.518,65.9965,0.004253
48.550,65.9916,0.004253
48.580,65.9863,0.004253
48.611,65.9801,0.004253
48.642,65.9732,0.004329
48.673,65.9655,0.004329
48.704,65.9570,0.004329
48.734,65.9483,0.004329
48.765,65.9383,0.004329
48.796,65.9281,0.004329
48.827,65.9163,0.004329
48.859,65.9048,0.004329
48.890,65.8914,0.004329
48.922,65.8781,0.004413
48.953,65.8634,0.004413
48.984,65.8489,0.004413
49.014,65.8335,0.004413
49.046,65.8169,0.004413
49.077,65.7993,0.004413
49.109,65.7815,0.004413
49.139,65.7637,0.004413
49.169,65.7446,0.004376
49.200,65.7247,0.004376
49.231,65.7036,0.004376
49.263,65.6822,0.004376
49.293,65.6600,0.004376
49.324,65.6374,0.004376
49.354,65.6145,0.004376
49.388,65.5877,0.004376
49.417,65.5645,0.004376
49.451,65.5358,0.004357
49.479,65.5115,0.004357
49.511,65.4838,0.004357
49.541,65.4562,0.004357
49.575,65.4236,0.004357
49.604,65.3979,0.004357
49.635,65.3677,0.004357
49.666,65.3367,0.004357
49.696,65.3052,0.004357
49.727,65.2732,0.004357
49.757,65.2412,0.004357
49.788,65.2073,0.004357
49.819,65.1734,0.004357
49.851,65.1370,0.004357
49.881,65.1023,0.004357
49.912,65.0648,0.004357
49.943,65.0281,0.004348
49.974,64.9893,0.004348
50.004,64.9517,0.004348
50.035,64.9119,0.004348
50.065,64.8732,0.004348
50.096,64.8316,0.004348
50.128,64.7884,0.004348
50.160,64.7457,0.004348
50.190,64.7035,0.004338
50.221,64.6592,0.004338
50.253,64.6145,0.004338
50.284,64.5676,0.004338
50.315,64.5223,0.004338
50.346,64.4751,0.004338
50.377,64.4283,0.004338
50.408,64.3793,0.004338
50.438,64.3316,0.004376
50.469,64.2817,0.004376
50.500,64.2317,0.004376
50.531,64.1798,0.004376
50.562,64.1286,0.004376
50.593,64.0747,0.004376
50.623,64.0236,0.004376
50.656,63.9669,0.004376
50.688,63.9106,0.004423
50.718,63.8550,0.004423
50.749,63.7980,0.004423
50.782,63.7400,0.004423
50.812,63.6841,0.004423
50.843,63.6233,0.004423
50.874,63.5652,0.004423
50.905,63.5037,0.004423
50.936,63.4449,0.004413
50.967,63.3842,0.004413
50.999,63.3251,0.004413
51.030,63.2647,0.004413
51.060,63.2108,0.004413
51.091,63.1531,0.004413
51.122,63.0980,0.004413
51.152,63.0425,0.004413
51.183,62.9889,0.004206
51.214,62.9331,0.004206
51.245,62.8812,0.004206
51.279,62.8237,0.004206
51.307,62.7773,0.004206
51.338,62.7256,0.004206
51.369,62.6751,0.004206
51.400,62.6259,0.004206
51.431,62.5778,0.004206
51.462,62.5288,0.004094
51.493,62.4814,0.004094
51.524,62.4353,0.004094
51.555,62.3890,0.004094
51.586,62.3432,0.004094
51.617,62.2997,0.004094
51.647,62.2557,0.004094
51.678,62.2142,0.004131
51.709,62.1707,0.004131
51.741,62.1289,0.004131
51.773,62.0869,0.004131
51.803,62.0469,0.004131
51.835,62.0064,0.004131
51.865,61.9689,0.004131
51.896,61.9309,0.004131
51.928,61.8933,0.004112
51.959,61.8569,0.004112
51.989,61.8216,0.004112
52.020,61.7864,0.004112
52.051,61.7524,0.004112
52.083,61.7182,0.004112
52.114,61.6852,0.004112
52.146,61.6524,0.004112
52.175,61.6222,0.004122
52.206,61.5913,0.004122
52.237,61.5614,0.004122
52.269,61.5319,0.004122
52.300,61.5029,0.004122
52.332,61.4741,0.004122
52.364,61.4464,0.004122
52.395,61.4194,0.004122
52.426,61.3946,0.004141
52.457,61.3692,0.004141
52.488,61.3456,0.004141
52.520,61.3218,0.004141
52.550,61.2996,0.004141
52.581,61.2774,0.004141
52.612,61.2568,0.004141
52.643,61.2367,0.004141
52.674,61.2165,0.004141
52.706,61.1973,0.004141
52.736,61.1793,0.004141
52.768,61.1615,0.004141
52.799,61.1444,0.004141
52.832,61.1274,0.004141
52.862,61.1128,0.004141
52.893,61.0979,0.004141
52.923,61.0844,0.004094
52.954,61.0714,0.004094
52.985,61.0595,0.004094
53.015,61.0478,0.004094
53.046,61.0368,0.004094
53.077,61.0264,0.004094
53.109,61.0169,0.004094
53.139,61.0082,0.004094
53.170,61.0004,0.004094
53.201,60.9930,0.004084
53.232,60.9864,0.004084
53.263,60.9805,0.004084
53.293,60.9754,0.004084
53.327,60.9704,0.004084
53.355,60.9672,0.004084
53.388,60.9640,0.004084
53.417,60.9619,0.004112
53.448,60.9604,0.004112
53.479,60.9595,0.004112
53.510,60.9594,0.004112
53.540,60.9594,0.004112
53.572,60.9594,0.004112
53.602,60.9594,0.004112
53.633,60.9594,0.004112
53.664,60.9596,0.004112
53.695,60.9606,0.004084
53.726,60.9625,0.004084
53.757,60.9648,0.004084
53.788,60.9682,0.004084
53.820,60.9720,0.004084
53.851,60.9767,0.004084
53.881,60.9821,0.004084
53.913,60.9882,0.004084
53.943,60.9947,0.004046
53.974,61.0025,0.004046
54.005,61.0108,0.004046
54.035,61.0195,0.004046
54.066,61.0293,0.004046
54.097,61.0396,0.004046
54.128,61.0509,0.004046
54.160,61.0631,0.004065
54.191,61.0753,0.004065
54.222,61.0891,0.004065
54.253,61.1031,0.004065
54.288,61.1201,0.004065
54.315,61.1331,0.004065
54.346,61.1495,0.004065
54.378,61.1675,0.004065
54.409,61.1850,0.004065
54.440,61.2033,0.004103
54.471,61.2227,0.004103
54.500,61.2417,0.004103
54.532,61.2630,0.004103
54.563,61.2837,0.004103
54.593,61.3055,0.004103
54.624,61.3285,0.004103
54.656,61.3523,0.004103
54.686,61.3762,0.004103
54.719,61.4030,0.004084
54.750,61.4281,0.004084
54.781,61.4557,0.004084
54.812,61.4823,0.004084
54.843,61.5104,0.004084
54.874,61.5391,0.004084
54.905,61.5685,0.004084
54.936,61.5987,0.004084
54.973,61.6347,0.004084
54.999,61.6614,0.004084
55.031,61.6955,0.004084
55.061,61.7280,0.004084
55.091,61.7604,0.004084
55.123,61.7957,0.004084
55.154,61.8318,0.004084
55.185,61.8669,0.004084
55.215,61.9039,0.004084
55.246,61.9397,0.004103
55.277,61.9782,0.004103
55.308,62.0161,0.004103
55.338,62.0562,0.004103
55.370,62.0967,0.004103
55.402,62.1396,0.004094
55.433,62.1810,0.004094
55.464,62.2234,0.004094
55.494,62.2653,0.004094
55.526,62.3114,0.004094
55.557,62.3551,0.004094
55.589,62.4024,0.004094
55.619,62.4459,0.004094
55.654,62.5032,0.004094
55.680,62.5398,0.004122
55.711,62.5887,0.004122
55.743,62.6373,0.004122
55.773,62.6872,0.004122
55.805,62.7396,0.004122
55.836,62.7895,0.004122
55.867,62.8427,0.004122
55.898,62.8944,0.004169
55.929,62.9501,0.004169
55.961,63.0037,0.004169
55.992,63.0606,0.004169
56.023,63.1152,0.004169
56.054,63.1722,0.004169
56.086,63.2289,0.004169
56.116,63.2880,0.004169
56.148,63.3455,0.004141
56.179,63.4057,0.004141
56.210,63.4651,0.004141
56.241,63.5260,0.004141
56.272,63.5850,0.004141
56.301,63.6398,0.004141
56.335,63.7022,0.004141
56.365,63.7595,0.004141
56.396,63.8151,0.004188
56.427,63.8701,0.004188
56.459,63.9261,0.004188
56.490,63.9808,0.004188
56.521,64.0342,0.004188
56.552,64.0866,0.004188
56.583,64.1387,0.004188
56.614,64.1891,0.004188
56.645,64.2407,0.004188
56.677,64.2910,0.004348
56.707,64.3384,0.004348
56.738,64.3853,0.004348
56.769,64.4341,0.004348
56.800,64.4804,0.004348
56.831,64.5275,0.004348
56.862,64.5727,0.004348
56.893,64.6176,0.004348
56.925,64.6626,0.004348
56.955,64.7034,0.004348
56.986,64.7461,0.004348
57.018,64.7880,0.004348
57.049,64.8289,0.004348
57.080,64.8697,0.004348
57.110,64.9087,0.004348
57.141,64.9469,0.004329
57.173,64.9856,0.004329
57.204,65.0228,0.004329
57.235,65.0600,0.004329
57.265,65.0937,0.004329
57.295,65.1282,0.004329
57.326,65.1627,0.004329
57.357,65.1971,0.004329
57.389,65.2304,0.004348
57.421,65.2636,0.004348
57.452,65.2946,0.004348
57.483,65.3260,0.004348
57.513,65.3554,0.004348
57.545,65.3850,0.004348
57.576,65.4139,0.004348
57.607,65.4411,0.004348
57.638,65.4687,0.004348
57.673,65.4978,0.004348
57.700,65.5201,0.004348
57.730,65.5450,0.004348
57.764,65.5714,0.004348
57.792,65.5924,0.004348
57.823,65.6155,0.004348
57.854,65.6377,0.004348
57.885,65.6585,0.004348
57.916,65.6786,0.004348
57.947,65.6991,0.004357
57.979,65.7188,0.004357
58.013,65.7386,0.004357
58.042,65.7549,0.004357
58.073,65.7720,0.004357
58.104,65.7879,0.004357
58.136,65.8051,0.004357
58.166,65.8181,0.004357
58.199,65.8329,0.004357
58.228,65.8454,0.004357
58.258,65.8576,0.004357
58.289,65.8695,0.004357
58.319,65.8803,0.004357
58.351,65.8907,0.004357
58.382,65.9003,0.004357
58.412,65.9093,0.004357
58.446,65.9178,0.004395
58.475,65.9250,0.004395
58.506,65.9316,0.004395
58.536,65.9376,0.004395
58.566,65.9426,0.004395
58.598,65.9474,0.004395
58.628,65.9511,0.004395
58.660,65.9542,0.004395
58.690,65.9565,0.004395
58.721,65.9581,0.004395
58.752,65.9591,0.004395
58.783,65.9594,0.004395
58.814,65.9594,0.004395
58.845,65.9594,0.004395
58.875,65.9594,0.004395
58.906,65.9594,0.004395
58.938,65.9594,0.004348
58.969,65.9594,0.004348
59.001,65.9594,0.004348
59.032,65.9594,0.004348
59.063,65.9594,0.004348
59.093,65.9594,0.004348
59.124,65.9594,0.004348
59.156,65.9594,0.004282
59.187,65.9594,0.004282
59.218,65.9594,0.004282
59.249,65.9594,0.004282
59.280,65.9594,0.004282
59.311,65.9594,0.004282
59.341,65.9594,0.004282
59.372,65.9594,0.004282
59.404,65.9594,0.004225
59.434,65.9594,0.004225
59.465,65.9594,0.004225
59.497,65.9594,0.004225
59.529,65.9594,0.004225
59.559,65.9594,0.004225
59.590,65.9594,0.004225
59.620,65.9594,0.004225
59.652,65.9594,0.004206
59.685,65.9594,0.004206
59.715,65.9594,0.004206
59.746,65.9594,0.004206
59.776,65.9594,0.004206
59.806,65.9594,0.004206
59.836,65.9594,0.004206
59.868,65.9594,0.004206
59.899,65.9594,0.004225
59.930,65.9594,0.004225
59.961,65.9594,0.004225
59.994,65.9594,0.004225
60.024,65.9594,0.004225
60.055,65.9594,0.004225
60.086,65.9594,0.004225
60.118,65.9594,0.004225
60.147,65.9594,0.004225
60.178,65.9594,0.004272
60.209,65.9594,0.004272
60.242,65.9594,0.004272
60.272,65.9594,0.004272
60.302,65.9594,0.004272
60.333,65.9594,0.004272
60.364,65.9594,0.004272
60.395,65.9594,0.004272
60.426,65.9594,0.004253
60.457,65.9594,0.004253
60.488,65.9594,0.004253
60.519,65.9594,0.004253
60.549,65.9594,0.004253
60.581,65.9594,0.004253
60.612,65.9594,0.004253
60.643,65.9594,0.004253
60.675,65.9594,0.004225
60.707,65.9594,0.004225
60.739,65.9594,0.004225
60.768,65.9594,0.004225
60.798,65.9594,0.004225
60.830,65.9594,0.004225
60.861,65.9594,0.004225
60.892,65.9594,0.004263
60.924,65.9594,0.004263
60.954,65.9594,0.004263
60.986,65.9594,0.004263
61.017,65.9594,0.004263
61.048,65.9594,0.004263
61.078,65.9594,0.004263
61.110,65.9594,0.004263
61.140,65.9594,0.004263
61.171,65.9594,0.004263
61.201,65.9594,0.004263
61.232,65.9594,0.004263
61.267,65.9594,0.004263
61.293,65.9594,0.004263
61.323,65.9594,0.004263
61.355,65.9594,0.004263
61.387,65.9594,0.004263
61.419,65.9594,0.004225
61.450,65.9594,0.004225
61.481,65.9594,0.004225
61.512,65.9594,0.004225
61.542,65.9594,0.004225
61.573,65.9594,0.004225
61.604,65.9594,0.004225
61.634,65.9594,0.004225
61.667,65.9594,0.004235
61.699,65.9594,0.004235
61.730,65.9594,0.004235
61.761,65.9594,0.004235
61.791,65.9594,0.004235
61.822,65.9594,0.004235
61.852,65.9594,0.004235
61.883,65.9594,0.004235
61.914,65.9594,0.004235
61.945,65.9594,0.004282
61.976,65.9594,0.004282
62.007,65.9594,0.004282
62.037,65.9594,0.004282
62.069,65.9594,0.004282
62.101,65.9594,0.004282
62.132,65.9594,0.004282
62.163,65.9594,0.004282
62.193,65.9594,0.004263
62.226,65.9594,0.004263
62.257,65.9594,0.004263
62.289,65.9594,0.004263
62.319,65.9594,0.004263
62.351,65.9594,0.004263
62.383,65.9594,0.004263
62.414,65.9594,0.004244
62.445,65.9594,0.004244
62.475,65.9594,0.004244
62.507,65.9594,0.004244
62.539,65.9594,0.004244
62.569,65.9594,0.004244
62.600,65.9594,0.004244
62.630,65.9594,0.004244
62.661,65.9594,0.004235
62.692,65.9594,0.004235
62.723,65.9594,0.004235
62.754,65.9594,0.004235
62.785,65.9594,0.004235
62.817,65.9594,0.004235
62.848,65.9594,0.004235
62.880,65.9594,0.004235
62.910,65.9594,0.004225
62.941,65.9594,0.004225
62.972,65.9594,0.004225
63.003,65.9594,0.004225
63.034,65.9594,0.004225
63.065,65.9593,0.004225
63.095,65.9586,0.004225
63.127,65.9572,0.004225
63.157,65.9550,0.004225
63.188,65.9522,0.004253
63.219,65.9486,0.004253
63.250,65.9443,0.004253
63.281,65.9392,0.004253
63.312,65.9332,0.004253
63.343,65.9268,0.004253
63.376,65.9192,0.004253
63.407,65.9113,0.004338
63.441,65.9013,0.004338
63.469,65.8928,0.004338
63.500,65.8826,0.004338
63.529,65.8723,0.004338
63.560,65.8609,0.004338
63.591,65.8486,0.004338
63.627,65.8331,0.004338
63.654,65.8213,0.004338
63.685,65.8066,0.004385
63.717,65.7912,0.004385
63.747,65.7750,0.004385
63.779,65.7585,0.004385
63.810,65.7405,0.004385
63.840,65.7229,0.004385
63.871,65.7039,0.004385
63.901,65.6850,0.004366
63.932,65.6645,0.004366
63.962,65.6442,0.004366
63.995,65.6212,0.004366
64.025,65.5995,0.004366
64.056,65.5757,0.004366
64.087,65.5527,0.004366
64.118,65.5274,0.004366
64.149,65.5020,0.004404
64.181,65.4751,0.004404
64.212,65.4477,0.004404
64.243,65.4205,0.004404
64.274,65.3920,0.004404
64.305,65.3635,0.004404
64.335,65.3341,0.004404
64.366,65.3037,0.004404
64.397,65.2727,0.004404
64.428,65.2407,0.004413
64.459,65.2081,0.004413
64.489,65.1756,0.004413
64.521,65.1401,0.004413
64.552,65.1059,0.004413
64.583,65.0696,0.004413
64.615,65.0327,0.004413
64.646,64.9958,0.004385
64.676,64.9576,0.004385
64.707,64.9198,0.004385
64.738,64.8795,0.004385
64.770,64.8391,0.004385
64.803,64.7960,0.004385
64.832,64.7572,0.004385
64.864,64.7137,0.004385
64.895,64.6699,0.004385
64.926,64.6272,0.004357
64.957,64.5820,0.004357
64.987,64.5387,0.004357
65.018,64.4923,0.004357
65.050,64.4457,0.004357
65.081,64.3976,0.004357
65.112,64.3501,0.004357
65.144,64.2996,0.004301
65.175,64.2502,0.004301
65.207,64.1984,0.004301
65.237,64.1491,0.004301
65.268,64.0974,0.004301
65.299,64.0451,0.004301
65.330,63.9916,0.004301
65.360,63.9383,0.004301
65.392,63.8835,0.004301
65.423,63.8283,0.004310
65.454,63.7721,0.004310
65.484,63.7167,0.004310
65.515,63.6584,0.004310
65.548,63.5975,0.004310
65.576,63.5440,0.004310
65.608,63.4825,0.004310
65.638,63.4251,0.004348
65.669,63.3649,0.004348
65.700,63.3044,0.004348
65.730,63.2472,0.004348
65.761,63.1886,0.004348
65.791,63.1331,0.004348
65.829,63.0650,0.004348
65.868,62.9965,0.004348
65.898,62.9420,0.004348
65.929,62.8894,0.004348
65.960,62.8340,0.004263
65.991,62.7828,0.004263
66.022,62.7313,0.004263
66.053,62.6797,0.004263
66.084,62.6287,0.004263
66.115,62.5791,0.004263
66.147,62.5298,0.004263
66.178,62.4814,0.004103
66.209,62.4334,0.004103
66.239,62.3875,0.004103
66.271,62.3406,0.004103
66.302,62.2950,0.004103
66.333,62.2517,0.004103
66.363,62.2085,0.004103
66.394,62.1655,0.004103
66.426,62.1219,0.004075
66.457,62.0789,0.004075
66.489,62.0375,0.004075
66.520,61.9978,0.004075
66.551,61.9588,0.004075
66.581,61.9206,0.004075
66.612,61.8826,0.004075
66.645,61.8428,0.004075
66.674,61.8094,0.004075
66.705,61.7732,0.004150
66.736,61.7378,0.004150
66.768,61.7031,0.004150
66.799,61.6684,0.004150
66.833,61.6327,0.004150
66.861,61.6037,0.004150
66.892,61.5723,0.004150
66.923,61.5420,0.004159
66.954,61.5117,0.004159
66.986,61.4821,0.004159
67.017,61.4536,0.004159
67.048,61.4261,0.004159
67.078,61.3993,0.004159
67.110,61.3724,0.004159
67.140,61.3472,0.004159
67.170,61.3230,0.004112
67.203,61.2973,0.004112
67.232,61.2755,0.004112
67.263,61.2526,0.004112
67.294,61.2309,0.004112
67.325,61.2095,0.004112
67.356,61.1889,0.004112
67.390,61.1670,0.004112
67.419,61.1499,0.004112
67.448,61.1321,0.004103
67.479,61.1148,0.004103
67.513,61.0959,0.004103
67.541,61.0814,0.004103
67.572,61.0657,0.004103
67.604,61.0513,0.004103
67.634,61.0371,0.004103
67.666,61.0236,0.004065
67.696,61.0112,0.004065
67.727,60.9998,0.004065
67.758,60.9884,0.004065
67.790,60.9779,0.004065
67.824,60.9672,0.004065
67.852,60.9596,0.004065
67.883,60.9511,0.004065
67.913,60.9440,0.004056
67.952,60.9357,0.004056
67.990,60.9287,0.004056
68.020,60.9239,0.004056
68.051,60.9197,0.004056
68.082,60.9161,0.004056
68.114,60.9134,0.004056
68.144,60.9114,0.004056
68.175,60.9100,0.004075
68.206,60.9094,0.004075
68.237,60.9094,0.004075
68.268,60.9094,0.004075
68.299,60.9094,0.004075
68.332,60.9094,0.004075
68.362,60.9094,0.004075
68.393,60.9099,0.004075
68.425,60.9111,0.004150
68.455,60.9130,0.004150
68.487,60.9157,0.004150
68.518,60.9192,0.004150
68.549,60.9232,0.004150
68.580,60.9281,0.004150
68.611,60.9337,0.004150
68.643,60.9402,0.004150
68.673,60.9470,0.004103
68.705,60.9550,0.004103
68.735,60.9633,0.004103
68.766,60.9727,0.004103
68.798,60.9826,0.004103
68.831,60.9945,0.004103
68.860,61.0046,0.004103
68.891,61.0169,0.004103
68.921,61.0292,0.003999
68.952,61.0428,0.003999
68.983,61.0571,0.003999
69.016,61.0732,0.003999
69.046,61.0887,0.003999
69.077,61.1051,0.003999
69.109,61.1227,0.003999
69.140,61.1408,0.003999
69.171,61.1594,0.004065
69.202,61.1794,0.004065
69.233,61.1991,0.004065
69.265,61.2207,0.004065
69.295,61.2420,0.004065
69.326,61.2642,0.004065
69.356,61.2868,0.004065
69.387,61.3109,0.004075
69.419,61.3350,0.004075
69.450,61.3615,0.004075
69.481,61.3869,0.004075
69.512,61.4140,0.004075
69.543,61.4411,0.004075
69.574,61.4696,0.004075
69.605,61.4991,0.004075
69.637,61.5285,0.004056
69.668,61.5590,0.004056
69.699,61.5905,0.004056
69.729,61.6210,0.004056
69.760,61.6544,0.004056
69.791,61.6867,0.004056
69.822,61.7200,0.004056
69.852,61.7546,0.004056
69.884,61.7908,0.004056
69.915,61.8267,0.004103
69.946,61.8643,0.004103
69.977,61.9021,0.004103
70.008,61.9404,0.004103
70.039,61.9792,0.004103
70.072,62.0208,0.004103
70.102,62.0612,0.004103
70.132,62.1005,0.004103
70.163,62.1433,0.004141
70.194,62.1852,0.004141
70.225,62.2289,0.004141
70.256,62.2734,0.004141
70.288,62.3186,0.004141
70.318,62.3649,0.004141
70.349,62.4098,0.004141
70.380,62.4567,0.004141
70.411,62.5047,0.004084
70.443,62.5553,0.004084
70.474,62.6042,0.004084
70.506,62.6559,0.004084
70.536,62.7058,0.004084
70.568,62.7578,0.004084
70.599,62.8094,0.004084
70.629,62.8619,0.004084
70.660,62.9145,0.004065
70.692,62.9712,0.004065
70.722,63.0266,0.004065
70.754,63.0814,0.004065
70.784,63.1371,0.004065
70.815,63.1934,0.004065
70.845,63.2508,0.004065
70.876,63.3106,0.004065
70.907,63.3687,0.004150
70.939,63.4312,0.004150
70.970,63.4895,0.004150
71.000,63.5497,0.004150
71.032,63.6074,0.004150
71.063,63.6661,0.004150
71.094,63.7215,0.004150
71.127,63.7808,0.004150
71.158,63.8359,0.004253
71.189,63.8920,0.004253
71.220,63.9443,0.004253
71.250,63.9971,0.004253
71.281,64.0489,0.004253
71.312,64.1011,0.004253
71.343,64.1531,0.004253
71.374,64.2021,0.004253
71.406,64.2528,0.004366
71.437,64.3017,0.004366
71.467,64.3482,0.004366
71.498,64.3956,0.004366
71.530,64.4439,0.004366
71.560,64.4881,0.004366
71.592,64.5339,0.004366
71.623,64.5784,0.004366
71.655,64.6230,0.004338
71.685,64.6652,0.004338
71.717,64.7089,0.004338
71.748,64.7500,0.004338
71.780,64.7917,0.004338
71.810,64.8320,0.004338
71.841,64.8711,0.004338
71.873,64.9100,0.004338
71.904,64.9471,0.004301
71.935,64.9849,0.004301
71.965,65.0208,0.004301
71.997,65.0571,0.004301
72.028,65.0911,0.004301
72.059,65.1258,0.004301
72.090,65.1592,0.004301
72.121,65.1924,0.004301
72.151,65.2223,0.004348
72.182,65.2539,0.004348
72.213,65.2848,0.004348
72.244,65.3141,0.004348
72.275,65.3434,0.004348
72.307,65.3728,0.004348
72.338,65.3997,0.004348
72.369,65.4270,0.004348
72.399,65.4524,0.004329
72.430,65.4776,0.004329
72.461,65.5022,0.004329
72.491,65.5258,0.004329
72.523,65.5494,0.004329
72.553,65.5712,0.004329
72.584,65.5931,0.004329
72.618,65.6160,0.004329
72.645,65.6342,0.004338
72.676,65.6532,0.004338
72.706,65.6724,0.004338
72.740,65.6921,0.004338
72.769,65.7081,0.004338
72.799,65.7241,0.004338
72.830,65.7401,0.004338
72.860,65.7556,0.004338
72.892,65.7701,0.004348
72.922,65.7838,0.004348
72.954,65.7973,0.004348
72.984,65.8092,0.004348
73.014,65.8206,0.004348
73.045,65.8316,0.004348
73.076,65.8419,0.004348
73.106,65.8510,0.004348
73.138,65.8602,0.004348
73.168,65.8680,0.004348
73.199,65.8754,0.004348
73.229,65.8820,0.004348
73.260,65.8879,0.004348
73.292,65.8933,0.004348
73.323,65.8977,0.004348
73.354,65.9015,0.004348
73.385,65.9046,0.004348
73.417,65.9068,0.004385
73.448,65.9083,0.004385
73.479,65.9092,0.004385
73.510,65.9093,0.004385
73.543,65.9093,0.004385
73.572,65.9093,0.004385
73.603,65.9093,0.004385
73.634,65.9093,0.004385
73.665,65.9093,0.004366
73.696,65.9093,0.004366
73.728,65.9093,0.004366
73.759,65.9093,0.004366
73.795,65.9093,0.004366
73.821,65.9093,0.004366
73.852,65.9093,0.004366
73.883,65.9093,0.004366
73.918,65.9093,0.004310
73.945,65.9093,0.004310
73.976,65.9093,0.004310
74.008,65.9093,0.004310
74.038,65.9093,0.004310
74.070,65.9093,0.004310
74.101,65.9093,0.004310
74.132,65.9093,0.004310
74.165,65.9093,0.004197
74.194,65.9093,0.004197
74.226,65.9093,0.004197
74.256,65.9093,0.004197
74.288,65.9093,0.004197
74.318,65.9093,0.004197
74.349,65.9093,0.004197
74.380,65.9093,0.004197
74.410,65.9093,0.004197
74.440,65.9093,0.004206
74.472,65.9093,0.004206
74.503,65.9093,0.004206
74.534,65.9093,0.004206
74.565,65.9093,0.004206
74.596,65.9093,0.004206
74.628,65.9093,0.004206
74.659,65.9093,0.004206
74.690,65.9093,0.004235
74.721,65.9093,0.004235
74.753,65.9093,0.004235
74.784,65.9093,0.004235
74.815,65.9093,0.004235
74.847,65.9093,0.004235
74.878,65.9093,0.004235
74.909,65.9093,0.004235
74.939,65.9093,0.004141
74.976,65.9093,0.004141
75.017,65.9093,0.004141
75.049,65.9093,0.004141
75.079,65.9093,0.004141
75.113,65.9093,0.004141
75.142,65.9093,0.004141
75.173,65.9093,0.004150
75.204,65.9093,0.004150
75.235,65.9093,0.004150
75.267,65.9093,0.004150
75.296,65.9093,0.004150
75.326,65.9093,0.004150
75.357,65.9093,0.004150
75.390,65.9093,0.004150
75.418,65.9093,0.004188
75.450,65.9093,0.004188
75.481,65.9093,0.004188
75.511,65.9093,0.004188
75.542,65.9093,0.004188
75.574,65.9093,0.004188
75.605,65.9093,0.004188
75.636,65.9093,0.004188
75.667,65.9093,0.004206
75.699,65.9093,0.004206
75.730,65.9093,0.004206
75.761,65.9093,0.004206
75.792,65.9093,0.004206
75.824,65.9093,0.004206
75.854,65.9093,0.004206
75.885,65.9093,0.004206
75.916,65.9093,0.004244
75.947,65.9093,0.004244
75.978,65.9093,0.004244
76.009,65.9093,0.004244
76.041,65.9093,0.004244
76.072,65.9093,0.004244
76.102,65.9093,0.004244
76.133,65.9093,0.004244
76.164,65.9093,0.004253
76.195,65.9093,0.004253
76.226,65.9093,0.004253
76.257,65.9093,0.004253
76.288,65.9093,0.004253
76.319,65.9093,0.004253
76.350,65.9093,0.004253
76.381,65.9093,0.004253
76.411,65.9093,0.004216
76.443,65.9093,0.004216
76.473,65.9093,0.004216
76.506,65.9093,0.004216
76.538,65.9093,0.004216
76.568,65.9093,0.004216
76.599,65.9093,0.004216
76.630,65.9093,0.004216
76.661,65.9093,0.004197
76.692,65.9093,0.004197
76.722,65.9093,0.004197
76.753,65.9093,0.004197
76.784,65.9093,0.004197
76.816,65.9093,0.004197
76.848,65.9093,0.004197
76.877,65.9093,0.004197
76.909,65.9093,0.004197
76.940,65.9093,0.004197
76.971,65.9093,0.004197
77.003,65.9093,0.004197
77.033,65.9093,0.004197
77.066,65.9093,0.004197
77.096,65.9093,0.004197
77.126,65.9093,0.004197
77.158,65.9093,0.004206
77.189,65.9093,0.004206
77.220,65.9093,0.004206
77.251,65.9093,0.004206
77.281,65.9093,0.004206
77.312,65.9093,0.004206
77.343,65.9093,0.004206
77.373,65.9093,0.004206
77.405,65.9093,0.004206
77.436,65.9093,0.004206
77.468,65.9093,0.004206
77.499,65.9093,0.004206
77.529,65.9093,0.004206
77.561,65.9093,0.004206
77.592,65.9093,0.004206
77.623,65.9093,0.004206
77.654,65.9093,0.004188
77.686,65.9093,0.004188
77.717,65.9093,0.004188
77.749,65.9090,0.004188
77.780,65.9080,0.004188
77.810,65.9063,0.004188
77.841,65.9038,0.004188
77.873,65.9006,0.004188
77.903,65.8969,0.004197
77.935,65.8919,0.004197
77.964,65.8870,0.004197
77.995,65.8808,0.004197
78.026,65.8741,0.004197
78.057,65.8666,0.004197
78.088,65.8586,0.004197
78.119,65.8496,0.004197
78.149,65.8398,0.004197
78.181,65.8295,0.004272
78.211,65.8185,0.004272
78.242,65.8068,0.004272
78.272,65.7943,0.004272
78.303,65.7815,0.004272
78.334,65.7673,0.004272
78.365,65.7529,0.004272
78.396,65.7370,0.004272
78.427,65.7208,0.004338
78.458,65.7035,0.004338
78.490,65.6860,0.004338
78.520,65.6679,0.004338
78.551,65.6488,0.004338
78.583,65.6285,0.004338
78.613,65.6083,0.004338
78.644,65.5872,0.004338
78.674,65.5651,0.004357
78.706,65.5428,0.004357
78.737,65.5193,0.004357
78.768,65.4947,0.004357
78.799,65.4696,0.004357
78.830,65.4441,0.004357
78.861,65.4184,0.004357
78.893,65.3897,0.004357
78.923,65.3628,0.004366
78.954,65.3337,0.004366
78.985,65.3052,0.004366
79.017,65.2739,0.004366
79.048,65.2434,0.004366
79.080,65.2104,0.004366
79.110,65.1793,0.004366
79.141,65.1457,0.004366
79.173,65.1126,0.004338
79.204,65.0772,0.004338
79.234,65.0431,0.004338
79.266,65.0065,0.004338
79.296,64.9715,0.004338
79.327,64.9332,0.004338
79.358,64.8954,0.004338
79.389,64.8573,0.004338
79.419,64.8184,0.004338
79.451,64.7771,0.004301
79.482,64.7373,0.004301
79.513,64.6937,0.004301
79.544,64.6518,0.004301
79.575,64.6090,0.004301
79.606,64.5647,0.004301
79.637,64.5206,0.004301
79.668,64.4754,0.004329
79.700,64.4268,0.004329
79.730,64.3816,0.004329
79.762,64.3336,0.004329
79.791,64.2877,0.004329
79.827,64.2302,0.004329
79.853,64.1896,0.004329
79.884,64.1376,0.004329
79.915,64.0881,0.004348
79.946,64.0366,0.004348
79.977,63.9832,0.004348
80.008,63.9310,0.004348
80.038,63.8781,0.004348
80.070,63.8215,0.004348
80.100,63.7668,0.004348
80.131,63.7120,0.004348
80.161,63.6565,0.004301
80.197,63.5884,0.004301
80.224,63.5402,0.004301
80.256,63.4779,0.004301
80.286,63.4206,0.004301
80.317,63.3597,0.004301
80.347,63.3008,0.004301
80.378,63.2419,0.004301
80.409,63.1837,0.004301
80.440,63.1271,0.004301
80.471,63.0688,0.004301
80.502,63.0131,0.004301
80.533,62.9574,0.004301
80.565,62.9011,0.004301
80.596,62.8471,0.004301
80.627,62.7941,0.004301
80.657,62.7430,0.004216
80.688,62.6895,0.004216
80.719,62.6393,0.004216
80.751,62.5874,0.004216
80.781,62.5383,0.004216
80.812,62.4883,0.004216
80.843,62.4407,0.004216
80.875,62.3926,0.004216
80.905,62.3466,0.004131
80.936,62.2995,0.004131
80.967,62.2547,0.004131
80.998,62.2102,0.004131
81.028,62.1675,0.004131
81.060,62.1228,0.004131
81.091,62.0808,0.004131
81.122,62.0395,0.004131
81.153,61.9978,0.004131
81.184,61.9578,0.004131
81.215,61.9186,0.004131
81.246,61.8783,0.004131
81.277,61.8417,0.004131
81.307,61.8050,0.004131
81.339,61.7671,0.004131
81.373,61.7276,0.004131
81.402,61.6950,0.004094
81.433,61.6597,0.004094
81.464,61.6267,0.004094
81.494,61.5933,0.004094
81.525,61.5618,0.004094
81.557,61.5289,0.004094
81.582,61.5043,0.004094
81.619,61.4681,0.004094
81.650,61.4386,0.004094
81.682,61.4092,0.004065
81.712,61.3818,0.004065
81.745,61.3523,0.004065
81.772,61.3296,0.004065
81.806,61.3018,0.004065
81.836,61.2774,0.004065
81.866,61.2538,0.004065
81.897,61.2300,0.004065
81.928,61.2074,0.004084
81.961,61.1842,0.004084
81.991,61.1632,0.004084
82.023,61.1413,0.004084
82.054,61.1222,0.004084
82.084,61.1031,0.004084
82.116,61.0846,0.004084
82.147,61.0664,0.004084
82.179,61.0492,0.004103
82.210,61.0330,0.004103
82.241,61.0174,0.004103
82.272,61.0028,0.004103
82.303,60.9886,0.004103
82.333,60.9753,0.004103
82.365,60.9629,0.004103
82.397,60.9503,0.004084
82.428,60.9393,0.004084
82.459,60.9286,0.004084
82.491,60.9189,0.004084
82.522,60.9099,0.004084
82.552,60.9017,0.004084
82.584,60.8943,0.004084
82.616,60.8871,0.004084
82.644,60.8817,0.004084
82.674,60.8765,0.004065
82.707,60.8716,0.004065
82.737,60.8679,0.004065
82.767,60.8647,0.004065
82.798,60.8623,0.004065
82.829,60.8607,0.004065
82.861,60.8595,0.004065
82.891,60.8593,0.004075
82.922,60.8593,0.004075
82.953,60.8593,0.004075
82.984,60.8593,0.004075
83.015,60.8593,0.004075
83.045,60.8594,0.004075
83.077,60.8603,0.004075
83.108,60.8618,0.004075
83.139,60.8641,0.004169
83.171,60.8672,0.004169
83.203,60.8711,0.004169
83.234,60.8757,0.004169
83.266,60.8810,0.004169
83.297,60.8872,0.004169
83.329,60.8939,0.004169
83.360,60.9011,0.004169
83.392,60.9096,0.004122
83.422,60.9182,0.004122
83.453,60.9280,0.004122
83.484,60.9383,0.004122
83.514,60.9492,0.004122
83.545,60.9609,0.004122
83.576,60.9734,0.004122
83.607,60.9867,0.004122
83.638,61.0004,0.004122
83.669,61.0149,0.004018
83.700,61.0307,0.004018
83.731,61.0467,0.004018
83.763,61.0642,0.004018
83.794,61.0817,0.004018
83.825,61.1005,0.004018
83.856,61.1195,0.004018
83.889,61.1403,0.004037
83.919,61.1603,0.004037
83.951,61.1822,0.004037
83.981,61.2036,0.004037
84.011,61.2264,0.004037
84.043,61.2501,0.004037
84.074,61.2746,0.004037
84.105,61.2990,0.004037
84.136,61.3249,0.004037
84.166,61.3505,0.004037
84.198,61.3785,0.004037
84.230,61.4065,0.004037
84.260,61.4355,0.004037
84.292,61.4650,0.004037
84.322,61.4944,0.004037
84.352,61.5242,0.004037
84.382,61.5543,0.004037
84.416,61.5892,0.003999
84.444,61.6192,0.003999
84.476,61.6543,0.003999
84.507,61.6879,0.003999
84.537,61.7226,0.003999
84.569,61.7593,0.003999
84.600,61.7952,0.003999
84.631,61.8329,0.003999
84.663,61.8716,0.004075
84.693,61.9098,0.004075
84.724,61.9491,0.004075
84.755,61.9888,0.004075
84.786,62.0306,0.004075
84.818,62.0727,0.004075
84.849,62.1150,0.004075
84.880,62.1589,0.004075
84.910,62.2021,0.004084
84.937,62.2412,0.004084
84.973,62.2924,0.004084
85.005,62.3405,0.004084
85.038,62.3907,0.004084
85.067,62.4366,0.004084
85.097,62.4810,0.004084
85.127,62.5291,0.004084
85.159,62.5786,0.004046
85.191,62.6311,0.004046
85.220,62.6814,0.004046
85.252,62.7335,0.004046
85.283,62.7859,0.004046
85.314,62.8383,0.004046
85.345,62.8941,0.004046
85.375,62.9459,0.004046
85.406,63.0017,0.004112
85.437,63.0571,0.004112
85.468,63.1154,0.004112
85.500,63.1736,0.004112
85.531,63.2331,0.004112
85.562,63.2910,0.004112
85.594,63.3523,0.004112
85.624,63.4117,0.004112
85.655,63.4714,0.004112
85.686,63.5293,0.004141
85.718,63.5889,0.004141
85.748,63.6430,0.004141
85.779,63.7007,0.004141
85.810,63.7567,0.004141
85.842,63.8127,0.004141
85.872,63.8676,0.004141
85.902,63.9181,0.004141
85.933,63.9719,0.004197
85.964,64.0230,0.004197
85.995,64.0755,0.004197
86.028,64.1267,0.004197
86.057,64.1743,0.004197
86.088,64.2237,0.004197
86.119,64.2717,0.004197
86.151,64.3203,0.004197
86.182,64.3669,0.004225
86.213,64.4139,0.004225
86.244,64.4588,0.004225
86.275,64.5048,0.004225
86.307,64.5486,0.004225
86.338,64.5926,0.004225
86.369,64.6347,0.004225
86.399,64.6766,0.004225
86.429,64.7162,0.004263
86.461,64.7569,0.004263
86.491,64.7962,0.004263
86.522,64.8351,0.004263
86.554,64.8747,0.004263
86.585,64.9120,0.004263
86.615,64.9482,0.004263
86.645,64.9831,0.004263
86.676,65.0188,0.004357
86.712,65.0574,0.004357
86.739,65.0880,0.004357
86.771,65.1212,0.004357
86.802,65.1550,0.004357
86.832,65.1849,0.004357
86.865,65.2195,0.004357
86.894,65.2453,0.004357
86.928,65.2781,0.004348
86.956,65.3039,0.004348
86.989,65.3349,0.004348
87.018,65.3601,0.004348
87.049,65.3860,0.004348
87.080,65.4121,0.004348
87.110,65.4363,0.004348
87.141,65.4613,0.004348
87.171,65.4839,0.004319
87.202,65.5072,0.004319
87.233,65.5293,0.004319
87.263,65.5511,0.004319
87.295,65.5712,0.004319
87.326,65.5912,0.004319
87.356,65.6103,0.004319
87.386,65.6286,0.004319
87.418,65.6470,0.004282
87.448,65.6636,0.004282
87.480,65.6807,0.004282
87.510,65.6957,0.004282
87.541,65.7111,0.004282
87.572,65.7255,0.004282
87.603,65.7390,0.004282
87.634,65.7516,0.004282
87.665,65.7639,0.004263
87.698,65.7758,0.004263
87.726,65.7856,0.004263
87.757,65.7957,0.004263
87.788,65.8049,0.004263
87.821,65.8140,0.004263
87.850,65.8211,0.004263
87.881,65.8283,0.004263
87.913,65.8347,0.004301
87.943,65.8403,0.004301
87.974,65.8452,0.004301
88.006,65.8495,0.004301
88.037,65.8528,0.004301
88.069,65.8556,0.004301
88.098,65.8576,0.004301
88.129,65.8588,0.004301
88.160,65.8593,0.004301
88.191,65.8593,0.004319
88.222,65.8593,0.004319
88.256,65.8593,0.004319
88.284,65.8593,0.004319
88.315,65.8593,0.004319
