Elapsed Time (s),Position (mm),Force (N)
-0.020,73.9093,0.004564
0.011,73.9093,0.004564
0.042,73.9093,0.004564
0.073,73.9093,0.004564
0.104,73.9093,0.004564
0.136,73.9093,0.004564
0.167,73.9093,0.004564
0.198,73.9093,0.004564
0.230,73.9093,0.004498
0.262,73.9093,0.004498
0.292,73.9093,0.004498
0.324,73.9093,0.004498
0.354,73.9093,0.004498
0.386,73.9093,0.004498
0.417,73.9093,0.004498
0.448,73.9093,0.004442
0.480,73.9093,0.004442
0.511,73.9093,0.004442
0.543,73.9093,0.004442
0.574,73.9093,0.004442
0.605,73.9093,0.004442
0.636,73.9093,0.004442
0.667,73.9093,0.004442
0.693,73.9093,0.004442
0.730,73.9093,0.004442
0.761,73.9093,0.004442
0.791,73.9093,0.004442
0.821,73.9093,0.004442
0.853,73.9093,0.004442
0.884,73.9093,0.004442
0.916,73.9093,0.004442
0.946,73.9093,0.004413
0.978,73.9093,0.004413
1.009,73.9093,0.004413
1.040,73.9093,0.004413
1.071,73.9093,0.004413
1.103,73.9093,0.004413
1.133,73.9093,0.004413
1.163,73.9093,0.004413
1.195,73.9093,0.004413
1.226,73.9093,0.004451
1.258,73.9093,0.004451
1.289,73.9093,0.004451
1.321,73.9093,0.004451
1.353,73.9093,0.004451
1.385,73.9093,0.004451
1.416,73.9093,0.004451
1.446,73.9093,0.004479
1.477,73.9093,0.004479
1.509,73.9093,0.004479
1.539,73.9093,0.004479
1.570,73.9093,0.004479
1.601,73.9093,0.004479
1.633,73.9093,0.004479
1.663,73.9093,0.004479
1.695,73.9093,0.004423
1.727,73.9093,0.004423
1.757,73.9093,0.004423
1.788,73.9093,0.004423
1.820,73.9093,0.004423
1.850,73.9093,0.004423
1.881,73.9093,0.004423
1.912,73.9093,0.004423
1.942,73.9093,0.004423
1.973,73.9093,0.004413
2.004,73.9093,0.004413
2.037,73.9093,0.004413
2.068,73.9093,0.004413
2.100,73.9093,0.004413
2.131,73.9093,0.004413
2.162,73.9093,0.004413
2.193,73.9093,0.004413
2.224,73.9093,0.004432
2.255,73.9093,0.004432
2.287,73.9093,0.004432
2.317,73.9093,0.004432
2.348,73.9093,0.004432
2.379,73.9093,0.004432
2.411,73.9093,0.004432
2.442,73.9093,0.004470
2.475,73.9093,0.004470
2.505,73.9093,0.004470
2.537,73.9093,0.004470
2.567,73.9093,0.004470
2.597,73.9093,0.004470
2.628,73.9093,0.004470
2.658,73.9093,0.004470
2.689,73.9093,0.004451
2.721,73.9093,0.004451
2.751,73.9093,0.004451
2.783,73.9093,0.004451
2.814,73.9093,0.004451
2.845,73.9093,0.004451
2.876,73.9093,0.004451
2.908,73.9093,0.004451
2.939,73.9093,0.004395
2.970,73.9093,0.004395
3.000,73.9093,0.004395
3.032,73.9093,0.004395
3.064,73.9093,0.004395
3.094,73.9093,0.004395
3.125,73.9093,0.004395
3.157,73.9093,0.004395
3.187,73.9093,0.004395
3.218,73.9093,0.004395
3.248,73.9093,0.004395
3.279,73.9093,0.004395
3.310,73.9093,0.004395
3.340,73.9093,0.004395
3.371,73.9093,0.004395
3.402,73.9093,0.004395
3.433,73.9093,0.004423
3.464,73.9093,0.004423
3.495,73.9093,0.004423
3.526,73.9093,0.004423
3.557,73.9093,0.004423
3.587,73.9093,0.004423
3.618,73.9093,0.004423
3.649,73.9093,0.004423
3.680,73.9093,0.004423
3.711,73.9093,0.004423
3.742,73.9093,0.004423
3.773,73.9093,0.004423
3.805,73.9093,0.004423
3.836,73.9093,0.004423
3.867,73.9093,0.004423
3.899,73.9093,0.004423
3.929,73.9093,0.004395
3.960,73.9093,0.004395
3.991,73.9093,0.004395
4.023,73.9093,0.004395
4.053,73.9093,0.004395
4.083,73.9089,0.004395
4.114,73.9078,0.004395
4.146,73.9059,0.004395
4.177,73.9033,0.004395
4.209,73.8999,0.004395
4.239,73.8960,0.004395
4.270,73.8913,0.004395
4.302,73.8857,0.004395
4.333,73.8793,0.004395
4.364,73.8726,0.004395
4.395,73.8648,0.004395
4.425,73.8566,0.004395
4.456,73.8473,0.004498
4.487,73.8377,0.004498
4.518,73.8271,0.004498
4.549,73.8158,0.004498
4.580,73.8036,0.004498
4.612,73.7908,0.004498
4.642,73.7777,0.004498
4.672,73.7637,0.004573
4.703,73.7489,0.004573
4.734,73.7333,0.004573
4.765,73.7167,0.004573
4.796,73.6998,0.004573
4.827,73.6820,0.004573
4.857,73.6641,0.004573
4.888,73.6446,0.004573
4.919,73.6251,0.004611
4.950,73.6044,0.004611
4.981,73.5831,0.004611
5.012,73.5603,0.004611
5.042,73.5383,0.004611
5.074,73.5139,0.004611
5.104,73.4905,0.004611
5.136,73.4648,0.004611
5.167,73.4390,0.004668
5.198,73.4120,0.004668
5.229,73.3850,0.004668
5.260,73.3569,0.004668
5.291,73.3277,0.004668
5.322,73.2985,0.004668
5.354,73.2683,0.004668
5.383,73.2383,0.004668
5.415,73.2061,0.004602
5.445,73.1743,0.004602
5.476,73.1418,0.004602
5.507,73.1076,0.004602
5.537,73.0749,0.004602
5.569,73.0389,0.004602
5.599,73.0035,0.004602
5.632,72.9642,0.004602
5.662,72.9280,0.004545
5.694,72.8880,0.004545
5.723,72.8525,0.004545
5.756,72.8103,0.004545
5.786,72.7724,0.004545
5.818,72.7292,0.004545
5.849,72.6873,0.004545
5.878,72.6464,0.004545
5.909,72.6034,0.004545
5.943,72.5563,0.004489
5.971,72.5151,0.004489
6.002,72.4697,0.004489
6.036,72.4186,0.004489
6.065,72.3760,0.004489
6.095,72.3294,0.004489
6.127,72.2804,0.004489
6.158,72.2315,0.004489
6.188,72.1820,0.004479
6.220,72.1312,0.004479
6.251,72.0789,0.004479
6.281,72.0283,0.004479
6.313,71.9750,0.004479
6.344,71.9209,0.004479
6.377,71.8643,0.004479
6.406,71.8119,0.004479
6.437,71.7565,0.004508
6.467,71.7010,0.004508
6.498,71.6449,0.004508
6.530,71.5857,0.004508
6.562,71.5244,0.004508
6.592,71.4660,0.004508
6.624,71.4050,0.004508
6.656,71.3444,0.004508
6.688,71.2830,0.004545
6.719,71.2224,0.004545
6.750,71.1653,0.004545
6.781,71.1078,0.004545
6.811,71.0512,0.004545
6.842,70.9950,0.004545
6.873,70.9408,0.004545
6.906,70.8804,0.004545
6.936,70.8308,0.004423
6.970,70.7719,0.004423
6.998,70.7250,0.004423
7.032,70.6679,0.004423
7.060,70.6215,0.004423
7.092,70.5701,0.004423
7.122,70.5220,0.004423
7.153,70.4730,0.004423
7.183,70.4258,0.004423
7.215,70.3772,0.004338
7.247,70.3300,0.004338
7.277,70.2851,0.004338
7.308,70.2393,0.004338
7.342,70.1906,0.004338
7.370,70.1510,0.004338
7.401,70.1092,0.004338
7.433,70.0651,0.004357
7.464,70.0243,0.004357
7.495,69.9822,0.004357
7.526,69.9425,0.004357
7.557,69.9033,0.004357
7.588,69.8646,0.004357
7.621,69.8245,0.004357
7.649,69.7910,0.004357
7.681,69.7526,0.004357
7.715,69.7144,0.004329
7.742,69.6837,0.004329
7.774,69.6486,0.004329
7.805,69.6150,0.004329
7.835,69.5821,0.004329
7.866,69.5510,0.004329
7.898,69.5191,0.004329
7.930,69.4875,0.004272
7.960,69.4585,0.004272
7.990,69.4304,0.004272
8.023,69.3991,0.004272
8.051,69.3747,0.004272
8.083,69.3466,0.004272
8.114,69.3204,0.004272
8.144,69.2956,0.004272
8.176,69.2699,0.004253
8.206,69.2467,0.004253
8.238,69.2229,0.004253
8.266,69.2027,0.004253
8.299,69.1790,0.004253
8.330,69.1572,0.004253
8.361,69.1372,0.004253
8.391,69.1180,0.004253
8.423,69.0989,0.004338
8.453,69.0812,0.004338
8.483,69.0634,0.004338
8.514,69.0469,0.004338
8.545,69.0305,0.004338
8.576,69.0152,0.004338
8.607,69.0002,0.004338
8.638,68.9865,0.004338
8.670,68.9727,0.004272
8.701,68.9604,0.004272
8.732,68.9485,0.004272
8.763,68.9376,0.004272
8.790,68.9286,0.004272
8.825,68.9177,0.004272
8.855,68.9092,0.004272
8.886,68.9010,0.004272
8.916,68.8938,0.004272
8.947,68.8871,0.004272
8.978,68.8810,0.004272
9.009,68.8759,0.004272
9.040,68.8712,0.004272
9.071,68.8675,0.004272
9.102,68.8644,0.004272
9.133,68.8620,0.004272
9.165,68.8604,0.004329
9.197,68.8594,0.004329
9.227,68.8593,0.004329
9.258,68.8593,0.004329
9.289,68.8593,0.004329
9.321,68.8593,0.004329
9.352,68.8598,0.004329
9.383,68.8609,0.004329
9.414,68.8628,0.004395
9.445,68.8654,0.004395
9.477,68.8689,0.004395
9.507,68.8727,0.004395
9.537,68.8777,0.004395
9.568,68.8830,0.004395
9.599,68.8892,0.004395
9.630,68.8961,0.004395
9.661,68.9038,0.004395
9.692,68.9123,0.004301
9.722,68.9212,0.004301
9.753,68.9312,0.004301
9.784,68.9415,0.004301
9.815,68.9529,0.004301
9.846,68.9651,0.004301
9.878,68.9780,0.004301
9.909,68.9915,0.004301
9.940,69.0059,0.004225
9.971,69.0209,0.004225
10.002,69.0362,0.004225
10.033,69.0529,0.004225
10.065,69.0703,0.004225
10.096,69.0884,0.004225
10.126,69.1067,0.004225
10.158,69.1262,0.004225
10.188,69.1459,0.004272
10.220,69.1675,0.004272
10.250,69.1882,0.004272
10.281,69.2110,0.004272
10.312,69.2335,0.004272
10.343,69.2574,0.004272
10.374,69.2814,0.004272
10.405,69.3068,0.004272
10.436,69.3325,0.004263
10.468,69.3599,0.004263
10.499,69.3874,0.004263
10.530,69.4159,0.004263
10.562,69.4448,0.004263
10.592,69.4738,0.004263
10.622,69.5030,0.004263
10.653,69.5346,0.004263
10.685,69.5659,0.004253
10.715,69.5982,0.004253
10.745,69.6313,0.004253
10.777,69.6650,0.004253
10.809,69.7002,0.004253
10.839,69.7347,0.004253
10.870,69.7706,0.004253
10.900,69.8075,0.004253
10.930,69.8445,0.004253
10.962,69.8840,0.004225
10.994,69.9229,0.004225
11.024,69.9620,0.004225
11.055,70.0013,0.004225
11.086,70.0440,0.004225
11.117,70.0844,0.004225
11.148,70.1274,0.004225
11.180,70.1707,0.004253
11.211,70.2169,0.004253
11.243,70.2611,0.004253
11.274,70.3074,0.004253
11.305,70.3537,0.004253
11.336,70.3998,0.004253
11.367,70.4490,0.004253
11.398,70.4974,0.004253
11.429,70.5460,0.004263
11.460,70.5961,0.004263
11.492,70.6472,0.004263
11.523,70.7003,0.004263
11.553,70.7500,0.004263
11.584,70.8025,0.004263
11.615,70.8562,0.004263
11.646,70.9098,0.004263
11.677,70.9651,0.004282
11.708,71.0210,0.004282
11.739,71.0783,0.004282
11.770,71.1365,0.004282
11.802,71.1938,0.004282
11.832,71.2513,0.004282
11.863,71.3115,0.004282
11.895,71.3719,0.004282
11.925,71.4323,0.004310
11.956,71.4895,0.004310
11.987,71.5478,0.004310
12.017,71.6051,0.004310
12.048,71.6610,0.004310
12.079,71.7182,0.004310
12.110,71.7732,0.004310
12.142,71.8292,0.004310
12.172,71.8822,0.004413
12.203,71.9356,0.004413
12.234,71.9877,0.004413
12.265,72.0394,0.004413
12.296,72.0894,0.004413
12.327,72.1400,0.004413
12.358,72.1891,0.004413
12.388,72.2381,0.004413
12.419,72.2866,0.004526
12.450,72.3334,0.004526
12.481,72.3809,0.004526
12.512,72.4255,0.004526
12.543,72.4721,0.004526
12.574,72.5158,0.004526
12.604,72.5587,0.004526
12.636,72.6032,0.004526
12.667,72.6445,0.004536
12.698,72.6865,0.004536
12.728,72.7266,0.004536
12.760,72.7680,0.004536
12.791,72.8077,0.004536
12.824,72.8481,0.004536
12.853,72.8845,0.004536
12.885,72.9223,0.004536
12.915,72.9582,0.004564
12.946,72.9946,0.004564
12.977,73.0292,0.004564
13.009,73.0641,0.004564
13.040,73.0978,0.004564
13.072,73.1317,0.004564
13.102,73.1633,0.004564
13.134,73.1953,0.004564
13.165,73.2259,0.004573
13.195,73.2552,0.004573
13.225,73.2841,0.004573
13.256,73.3130,0.004573
13.287,73.3405,0.004573
13.321,73.3698,0.004573
13.350,73.3943,0.004573
13.381,73.4203,0.004573
13.412,73.4451,0.004573
13.443,73.4701,0.004564
13.474,73.4927,0.004564
13.505,73.5158,0.004564
13.535,73.5370,0.004564
13.566,73.5578,0.004564
13.597,73.5784,0.004564
13.628,73.5982,0.004564
13.658,73.6175,0.004564
13.689,73.6356,0.004545
13.721,73.6538,0.004545
13.752,73.6705,0.004545
13.783,73.6865,0.004545
13.813,73.7017,0.004545
13.844,73.7166,0.004545
13.874,73.7302,0.004545
13.905,73.7435,0.004545
13.935,73.7559,0.004517
13.966,73.7678,0.004517
13.997,73.7792,0.004517
14.028,73.7892,0.004517
14.059,73.7992,0.004517
14.090,73.8080,0.004517
14.121,73.8163,0.004517
14.154,73.8243,0.004517
14.183,73.8307,0.004517
14.214,73.8367,0.004564
14.246,73.8423,0.004564
14.275,73.8465,0.004564
14.305,73.8505,0.004564
14.337,73.8538,0.004564
14.368,73.8562,0.004564
14.399,73.8579,0.004564
14.430,73.8591,0.004555
14.461,73.8593,0.004555
14.492,73.8593,0.004555
14.523,73.8593,0.004555
14.553,73.8593,0.004555
14.583,73.8593,0.004555
14.614,73.8593,0.004555
14.647,73.8593,0.004555
14.676,73.8593,0.004479
14.708,73.8593,0.004479
14.738,73.8593,0.004479
14.769,73.8593,0.004479
14.799,73.8593,0.004479
14.830,73.8593,0.004479
14.862,73.8593,0.004479
14.893,73.8593,0.004479
14.924,73.8593,0.004498
14.956,73.8593,0.004498
14.987,73.8593,0.004498
15.018,73.8593,0.004498
15.049,73.8593,0.004498
15.081,73.8593,0.004498
15.111,73.8593,0.004498
15.143,73.8593,0.004498
15.174,73.8593,0.004489
15.204,73.8593,0.004489
15.236,73.8593,0.004489
15.267,73.8593,0.004489
15.296,73.8593,0.004489
15.327,73.8593,0.004489
15.357,73.8593,0.004489
15.389,73.8593,0.004489
15.420,73.8593,0.004451
15.451,73.8593,0.004451
15.482,73.8593,0.004451
15.512,73.8593,0.004451
15.543,73.8593,0.004451
15.574,73.8593,0.004451
15.606,73.8593,0.004451
15.637,73.8593,0.004451
15.668,73.8593,0.004442
15.699,73.8593,0.004442
15.729,73.8593,0.004442
15.761,73.8593,0.004442
15.791,73.8593,0.004442
15.822,73.8593,0.004442
15.853,73.8593,0.004442
15.885,73.8593,0.004442
15.916,73.8593,0.004376
15.947,73.8593,0.004376
15.977,73.8593,0.004376
16.008,73.8593,0.004376
16.039,73.8593,0.004376
16.070,73.8593,0.004376
16.101,73.8593,0.004376
16.133,73.8593,0.004376
16.163,73.8593,0.004376
16.195,73.8593,0.004385
16.227,73.8593,0.004385
16.258,73.8593,0.004385
16.290,73.8593,0.004385
16.321,73.8593,0.004385
16.353,73.8593,0.004385
16.384,73.8593,0.004385
16.416,73.8593,0.004385
16.446,73.8593,0.004489
16.477,73.8593,0.004489
16.508,73.8593,0.004489
16.539,73.8593,0.004489
16.570,73.8593,0.004489
16.601,73.8593,0.004489
16.632,73.8593,0.004489
16.664,73.8593,0.004451
16.697,73.8593,0.004451
16.728,73.8593,0.004451
16.759,73.8593,0.004451
16.790,73.8593,0.004451
16.821,73.8593,0.004451
16.852,73.8593,0.004451
16.883,73.8593,0.004451
16.914,73.8593,0.004423
16.945,73.8593,0.004423
16.976,73.8593,0.004423
17.007,73.8593,0.004423
17.038,73.8593,0.004423
17.071,73.8593,0.004423
17.100,73.8593,0.004423
17.132,73.8593,0.004423
17.163,73.8593,0.004423
17.193,73.8593,0.004423
17.224,73.8593,0.004423
17.260,73.8593,0.004423
17.287,73.8593,0.004423
17.318,73.8593,0.004423
17.350,73.8593,0.004423
17.381,73.8593,0.004423
17.412,73.8593,0.004404
17.443,73.8593,0.004404
17.474,73.8593,0.004404
17.506,73.8593,0.004404
17.537,73.8593,0.004404
17.568,73.8593,0.004404
17.598,73.8593,0.004404
17.629,73.8593,0.004404
17.661,73.8593,0.004404
17.691,73.8593,0.004404
17.723,73.8593,0.004404
17.756,73.8593,0.004404
17.787,73.8593,0.004404
17.817,73.8593,0.004404
17.849,73.8593,0.004404
17.880,73.8593,0.004404
17.910,73.8593,0.004404
17.944,73.8593,0.004376
17.972,73.8593,0.004376
18.003,73.8593,0.004376
18.034,73.8593,0.004376
18.066,73.8593,0.004376
18.096,73.8593,0.004376
18.127,73.8593,0.004376
18.157,73.8593,0.004376
18.189,73.8593,0.004404
18.218,73.8593,0.004404
18.250,73.8593,0.004404
18.281,73.8593,0.004404
18.313,73.8593,0.004404
18.344,73.8593,0.004404
18.375,73.8593,0.004404
18.406,73.8593,0.004395
18.437,73.8593,0.004395
18.468,73.8593,0.004395
18.502,73.8593,0.004395
18.530,73.8593,0.004395
18.562,73.8593,0.004395
18.592,73.8593,0.004395
18.622,73.8593,0.004395
18.653,73.8593,0.004395
18.684,73.8593,0.004423
18.716,73.8593,0.004423
18.747,73.8592,0.004423
18.778,73.8584,0.004423
18.810,73.8569,0.004423
18.839,73.8548,0.004423
18.869,73.8521,0.004423
18.901,73.8484,0.004423
18.931,73.8442,0.004451
18.963,73.8390,0.004451
18.995,73.8331,0.004451
19.026,73.8264,0.004451
19.055,73.8195,0.004451
19.088,73.8112,0.004451
19.119,73.8023,0.004451
19.150,73.7928,0.004451
19.182,73.7825,0.004479
19.212,73.7720,0.004479
19.243,73.7602,0.004479
19.274,73.7478,0.004479
19.305,73.7349,0.004479
19.336,73.7206,0.004479
19.367,73.7063,0.004479
19.399,73.6903,0.004479
19.430,73.6745,0.004526
19.461,73.6574,0.004526
19.494,73.6395,0.004526
19.524,73.6211,0.004526
19.558,73.6011,0.004526
19.586,73.5825,0.004526
19.617,73.5623,0.004526
19.649,73.5408,0.004526
19.679,73.5194,0.004526
19.710,73.4973,0.004498
19.741,73.4738,0.004498
19.771,73.4505,0.004498
19.802,73.4249,0.004498
19.833,73.4000,0.004498
19.869,73.3685,0.004498
19.896,73.3460,0.004498
19.927,73.3181,0.004498
19.958,73.2903,0.004508
19.988,73.2611,0.004508
20.019,73.2308,0.004508
20.050,73.2014,0.004508
20.082,73.1686,0.004508
20.114,73.1358,0.004508
20.144,73.1034,0.004508
20.175,73.0706,0.004508
20.206,73.0362,0.004564
20.238,72.9999,0.004564
20.269,72.9645,0.004564
20.300,72.9275,0.004564
20.331,72.8904,0.004564
20.363,72.8520,0.004564
20.394,72.8132,0.004564
20.424,72.7747,0.004564
20.455,72.7347,0.004564
20.487,72.6929,0.004564
20.518,72.6514,0.004564
20.550,72.6070,0.004564
20.580,72.5662,0.004564
20.611,72.5211,0.004564
20.642,72.4779,0.004564
20.673,72.4325,0.004564
20.704,72.3868,0.004564
20.735,72.3395,0.004564
20.765,72.2940,0.004564
20.797,72.2454,0.004564
20.827,72.1973,0.004564
20.858,72.1475,0.004564
20.889,72.0979,0.004564
20.920,72.0457,0.004564
20.951,71.9939,0.004592
20.982,71.9423,0.004592
21.013,71.8902,0.004592
21.044,71.8346,0.004592
21.074,71.7822,0.004592
21.111,71.7148,0.004592
21.137,71.6694,0.004592
21.167,71.6134,0.004592
21.198,71.5561,0.004517
21.230,71.4973,0.004517
21.260,71.4397,0.004517
21.291,71.3791,0.004517
21.322,71.3196,0.004517
21.353,71.2597,0.004517
21.384,71.1995,0.004517
21.416,71.1395,0.004517
21.447,71.0827,0.004432
21.478,71.0241,0.004432
21.509,70.9693,0.004432
21.540,70.9124,0.004432
21.571,70.8576,0.004432
21.601,70.8056,0.004432
21.632,70.7513,0.004432
21.663,70.6970,0.004432
21.694,70.6469,0.004329
21.727,70.5912,0.004329
21.756,70.5448,0.004329
21.788,70.4934,0.004329
21.818,70.4459,0.004329
21.848,70.3984,0.004329
21.880,70.3497,0.004329
21.910,70.3047,0.004329
21.941,70.2579,0.004272
21.971,70.2134,0.004272
22.003,70.1679,0.004272
22.033,70.1231,0.004272
22.064,70.0814,0.004272
22.096,70.0378,0.004272
22.127,69.9954,0.004272
22.157,69.9558,0.004272
22.188,69.9154,0.004338
22.220,69.8744,0.004338
22.250,69.8361,0.004338
22.281,69.7974,0.004338
22.312,69.7611,0.004338
22.343,69.7237,0.004338
22.373,69.6888,0.004338
22.404,69.6531,0.004338
22.435,69.6189,0.004310
22.466,69.5851,0.004310
22.496,69.5523,0.004310
22.527,69.5194,0.004310
22.559,69.4876,0.004310
22.588,69.4578,0.004310
22.619,69.4277,0.004310
22.650,69.3979,0.004310
22.682,69.3685,0.004348
22.712,69.3406,0.004348
22.742,69.3142,0.004348
22.774,69.2868,0.004348
22.805,69.2610,0.004348
22.837,69.2351,0.004348
22.866,69.2112,0.004348
22.897,69.1880,0.004348
22.928,69.1648,0.004348
22.959,69.1424,0.004395
22.990,69.1211,0.004395
23.021,69.1002,0.004395
23.050,69.0811,0.004395
23.081,69.0611,0.004395
23.112,69.0426,0.004395
23.143,69.0244,0.004395
23.174,69.0073,0.004291
23.206,68.9901,0.004291
23.237,68.9745,0.004291
23.267,68.9594,0.004291
23.298,68.9452,0.004291
23.330,68.9314,0.004291
23.361,68.9183,0.004291
23.392,68.9061,0.004291
23.423,68.8942,0.004282
23.454,68.8836,0.004282
23.484,68.8739,0.004282
23.515,68.8644,0.004282
23.547,68.8560,0.004282
23.578,68.8480,0.004282
23.609,68.8408,0.004282
23.639,68.8346,0.004282
23.670,68.8289,0.004291
23.701,68.8238,0.004291
23.732,68.8197,0.004291
23.763,68.8161,0.004291
23.793,68.8134,0.004291
23.824,68.8114,0.004291
23.855,68.8101,0.004291
23.886,68.8093,0.004291
23.917,68.8093,0.004272
23.948,68.8093,0.004272
23.979,68.8093,0.004272
24.010,68.8093,0.004272
24.042,68.8093,0.004272
24.073,68.8094,0.004272
24.104,68.8103,0.004272
24.136,68.8118,0.004272
24.166,68.8140,0.004272
24.197,68.8170,0.004272
24.228,68.8206,0.004357
24.258,68.8251,0.004357
24.289,68.8302,0.004357
24.320,68.8361,0.004357
24.351,68.8427,0.004357
24.382,68.8498,0.004357
24.413,68.8579,0.004357
24.443,68.8665,0.004357
24.474,68.8760,0.004376
24.507,68.8867,0.004376
24.536,68.8968,0.004376
24.567,68.9087,0.004376
24.598,68.9208,0.004376
24.629,68.9342,0.004376
24.659,68.9474,0.004376
24.690,68.9621,0.004338
24.721,68.9774,0.004338
24.755,68.9952,0.004338
24.782,69.0094,0.004338
24.812,69.0267,0.004338
24.843,69.0446,0.004338
24.874,69.0633,0.004338
24.904,69.0830,0.004301
24.935,69.1025,0.004301
24.966,69.1245,0.004301
24.998,69.1464,0.004301
25.029,69.1691,0.004301
25.061,69.1930,0.004301
25.091,69.2165,0.004301
25.132,69.2489,0.004301
25.169,69.2801,0.004291
25.201,69.3065,0.004291
25.232,69.3344,0.004291
25.262,69.3610,0.004291
25.293,69.3905,0.004291
25.324,69.4188,0.004291
25.355,69.4504,0.004291
25.387,69.4815,0.004291
25.418,69.5132,0.004291
25.449,69.5450,0.004301
25.481,69.5800,0.004301
25.511,69.6131,0.004301
25.543,69.6470,0.004301
25.573,69.6827,0.004301
25.605,69.7187,0.004301
25.636,69.7555,0.004301
25.666,69.7925,0.004301
25.698,69.8323,0.004291
25.729,69.8703,0.004291
25.760,69.9103,0.004291
25.791,69.9511,0.004291
25.821,69.9908,0.004291
25.853,70.0336,0.004291
25.884,70.0766,0.004291
25.915,70.1196,0.004244
25.946,70.1634,0.004244
25.977,70.2081,0.004244
26.008,70.2534,0.004244
26.038,70.2986,0.004244
26.070,70.3470,0.004244
26.101,70.3935,0.004244
26.132,70.4428,0.004244
26.163,70.4914,0.004282
26.194,70.5423,0.004282
26.224,70.5917,0.004282
26.255,70.6423,0.004282
26.287,70.6960,0.004282
26.319,70.7489,0.004282
26.349,70.8035,0.004282
26.380,70.8566,0.004282
26.411,70.9118,0.004282
26.441,70.9652,0.004282
26.472,71.0220,0.004329
26.506,71.0839,0.004329
26.534,71.1364,0.004329
26.566,71.1970,0.004329
26.597,71.2570,0.004329
26.627,71.3134,0.004329
26.661,71.3809,0.004329
26.686,71.4283,0.004319
26.720,71.4905,0.004319
26.751,71.5501,0.004319
26.785,71.6116,0.004319
26.814,71.6630,0.004319
26.844,71.7179,0.004319
26.876,71.7741,0.004319
26.906,71.8280,0.004319
26.937,71.8793,0.004470
26.968,71.9316,0.004470
26.999,71.9839,0.004470
27.030,72.0359,0.004470
27.061,72.0869,0.004470
27.092,72.1353,0.004470
27.122,72.1824,0.004470
27.152,72.2306,0.004470
27.184,72.2789,0.004470
27.213,72.3228,0.004620
27.246,72.3723,0.004620
27.276,72.4162,0.004620
27.308,72.4623,0.004620
27.340,72.5070,0.004620
27.370,72.5492,0.004620
27.402,72.5930,0.004620
27.433,72.6349,0.004620
27.464,72.6761,0.004620
27.495,72.7156,0.004620
27.526,72.7549,0.004620
27.557,72.7938,0.004620
27.587,72.8310,0.004620
27.618,72.8682,0.004620
27.649,72.9046,0.004620
27.679,72.9405,0.004583
27.711,72.9755,0.004583
27.741,73.0100,0.004583
27.767,73.0380,0.004583
27.804,73.0775,0.004583
27.833,73.1072,0.004583
27.864,73.1390,0.004583
27.895,73.1706,0.004583
27.926,73.1999,0.004536
27.957,73.2290,0.004536
27.988,73.2574,0.004536
28.017,73.2850,0.004536
28.051,73.3145,0.004536
28.080,73.3384,0.004536
28.109,73.3640,0.004536
28.140,73.3883,0.004536
28.172,73.4133,0.004555
28.202,73.4365,0.004555
28.234,73.4600,0.004555
28.264,73.4815,0.004555
28.295,73.5031,0.004555
28.323,73.5218,0.004555
28.357,73.5440,0.004555
28.388,73.5630,0.004555
28.419,73.5815,0.004602
28.451,73.5996,0.004602
28.482,73.6170,0.004602
28.514,73.6342,0.004602
28.545,73.6496,0.004602
28.575,73.6641,0.004602
28.606,73.6781,0.004602
28.638,73.6917,0.004602
28.669,73.7045,0.004602
28.701,73.7171,0.004564
28.731,73.7277,0.004564
28.762,73.7384,0.004564
28.793,73.7482,0.004564
28.824,73.7572,0.004564
28.855,73.7655,0.004564
28.887,73.7734,0.004564
28.917,73.7801,0.004536
28.948,73.7863,0.004536
28.980,73.7917,0.004536
29.011,73.7965,0.004536
29.042,73.8005,0.004536
29.073,73.8037,0.004536
29.105,73.8062,0.004536
29.135,73.8080,0.004536
29.166,73.8090,0.004526
29.199,73.8093,0.004526
29.231,73.8093,0.004526
29.262,73.8093,0.004526
29.293,73.8093,0.004526
29.324,73.8093,0.004526
29.354,73.8093,0.004526
29.385,73.8093,0.004526
29.416,73.8093,0.004526
29.447,73.8093,0.004461
29.478,73.8093,0.004461
29.509,73.8093,0.004461
29.541,73.8093,0.004461
29.572,73.8093,0.004461
29.603,73.8093,0.004461
29.634,73.8093,0.004461
29.667,73.8093,0.004461
29.696,73.8093,0.004413
29.729,73.8093,0.004413
29.759,73.8093,0.004413
29.791,73.8093,0.004413
29.821,73.8093,0.004413
29.853,73.8093,0.004413
29.884,73.8093,0.004413
29.915,73.8093,0.004413
29.944,73.8093,0.004413
29.976,73.8093,0.004404
30.006,73.8093,0.004404
30.037,73.8093,0.004404
30.067,73.8093,0.004404
30.099,73.8093,0.004404
30.129,73.8093,0.004404
30.161,73.8093,0.004404
30.192,73.8093,0.004432
30.226,73.8093,0.004432
30.254,73.8093,0.004432
30.286,73.8093,0.004432
30.316,73.8093,0.004432
30.347,73.8093,0.004432
30.378,73.8093,0.004432
30.408,73.8093,0.004432
30.439,73.8093,0.004442
30.465,73.8093,0.004442
30.501,73.8093,0.004442
30.535,73.8093,0.004442
30.563,73.8093,0.004442
30.597,73.8093,0.004442
30.625,73.8093,0.004442
30.656,73.8093,0.004442
30.687,73.8093,0.004442
30.717,73.8093,0.004461
30.748,73.8093,0.004461
30.779,73.8093,0.004461
30.810,73.8093,0.004461
30.842,73.8093,0.004461
30.874,73.8093,0.004461
30.906,73.8093,0.004461
30.937,73.8093,0.004461
30.972,73.8093,0.004489
30.999,73.8093,0.004489
31.030,73.8093,0.004489
31.061,73.8093,0.004489
31.092,73.8093,0.004489
31.123,73.8093,0.004489
31.154,73.8093,0.004489
31.185,73.8093,0.004413
31.216,73.8093,0.004413
31.247,73.8093,0.004413
31.278,73.8093,0.004413
31.310,73.8093,0.004413
31.340,73.8093,0.004413
31.371,73.8093,0.004413
31.402,73.8093,0.004413
31.434,73.8093,0.004413
31.465,73.8093,0.004376
31.498,73.8093,0.004376
31.528,73.8093,0.004376
31.559,73.8093,0.004376
31.591,73.8093,0.004376
31.622,73.8093,0.004376
31.653,73.8093,0.004376
31.684,73.8093,0.004376
31.717,73.8093,0.004442
31.747,73.8093,0.004442
31.778,73.8093,0.004442
31.809,73.8093,0.004442
31.839,73.8093,0.004442
31.870,73.8093,0.004442
31.901,73.8093,0.004442
31.932,73.8093,0.004451
31.963,73.8093,0.004451
31.995,73.8093,0.004451
32.026,73.8093,0.004451
32.057,73.8093,0.004451
32.089,73.8093,0.004451
32.120,73.8093,0.004451
32.151,73.8093,0.004451
32.182,73.8093,0.004432
32.212,73.8093,0.004432
32.243,73.8093,0.004432
32.274,73.8093,0.004432
32.304,73.8093,0.004432
32.336,73.8093,0.004432
32.367,73.8093,0.004432
32.399,73.8093,0.004432
32.429,73.8093,0.004442
32.461,73.8093,0.004442
32.491,73.8093,0.004442
32.522,73.8093,0.004442
32.553,73.8093,0.004442
32.584,73.8093,0.004442
32.615,73.8093,0.004442
32.646,73.8093,0.004442
32.678,73.8093,0.004442
32.708,73.8093,0.004461
32.740,73.8093,0.004461
32.773,73.8093,0.004461
32.802,73.8093,0.004461
32.831,73.8093,0.004461
32.862,73.8093,0.004461
32.893,73.8093,0.004461
32.925,73.8093,0.004442
32.956,73.8093,0.004442
32.987,73.8093,0.004442
33.018,73.8093,0.004442
33.048,73.8093,0.004442
33.079,73.8093,0.004442
33.111,73.8093,0.004442
33.141,73.8093,0.004442
33.173,73.8093,0.004423
33.203,73.8093,0.004423
33.234,73.8093,0.004423
33.266,73.8093,0.004423
33.296,73.8093,0.004423
33.330,73.8093,0.004423
33.359,73.8093,0.004423
33.389,73.8092,0.004423
33.421,73.8083,0.004404
33.451,73.8068,0.004404
33.482,73.8046,0.004404
33.512,73.8018,0.004404
33.543,73.7980,0.004404
33.574,73.7937,0.004404
33.605,73.7886,0.004404
33.636,73.7828,0.004404
33.665,73.7765,0.004404
33.697,73.7690,0.004404
33.727,73.7613,0.004479
33.759,73.7524,0.004479
33.789,73.7428,0.004479
33.820,73.7328,0.004479
33.852,73.7215,0.004479
33.883,73.7097,0.004479
33.914,73.6976,0.004479
33.945,73.6843,0.004620
33.978,73.6698,0.004620
34.007,73.6558,0.004620
34.039,73.6402,0.004620
34.070,73.6245,0.004620
34.100,73.6079,0.004620
34.131,73.5901,0.004620
34.162,73.5724,0.004620
34.193,73.5532,0.004620
34.224,73.5336,0.004630
34.256,73.5128,0.004630
34.286,73.4918,0.004630
34.326,73.4635,0.004630
34.365,73.4350,0.004630
34.396,73.4115,0.004630
34.426,73.3867,0.004592
34.457,73.3632,0.004592
34.487,73.3377,0.004592
34.517,73.3117,0.004592
34.548,73.2841,0.004592
34.579,73.2569,0.004592
34.612,73.2260,0.004592
34.641,73.1986,0.004592
34.673,73.1675,0.004592
34.703,73.1382,0.004583
34.734,73.1052,0.004583
34.765,73.0734,0.004583
34.796,73.0408,0.004583
34.826,73.0081,0.004583
34.856,72.9739,0.004583
34.887,72.9381,0.004583
34.923,72.8963,0.004583
34.949,72.8661,0.004526
34.980,72.8292,0.004526
35.010,72.7928,0.004526
35.041,72.7534,0.004526
35.072,72.7136,0.004526
35.103,72.6731,0.004526
35.134,72.6330,0.004526
35.165,72.5905,0.004526
35.196,72.5480,0.004479
35.233,72.4969,0.004479
35.275,72.4345,0.004479
35.306,72.3920,0.004479
35.335,72.3482,0.004479
35.363,72.3062,0.004479
35.398,72.2537,0.004479
35.430,72.2051,0.004479
35.461,72.1558,0.004536
35.492,72.1064,0.004536
35.522,72.0579,0.004536
35.553,72.0055,0.004536
35.584,71.9553,0.004536
35.615,71.9030,0.004536
35.648,71.8460,0.004536
35.676,71.7985,0.004536
35.706,71.7447,0.004602
35.737,71.6906,0.004602
35.768,71.6349,0.004602
35.799,71.5773,0.004602
35.833,71.5141,0.004602
35.861,71.4611,0.004602
35.892,71.4041,0.004602
35.923,71.3427,0.004602
35.954,71.2816,0.004668
35.985,71.2236,0.004668
36.016,71.1634,0.004668
36.047,71.1049,0.004668
36.079,71.0460,0.004668
36.110,70.9868,0.004668
36.142,70.9296,0.004668
36.172,70.8758,0.004668
36.203,70.8212,0.004508
36.234,70.7658,0.004508
36.265,70.7131,0.004508
36.297,70.6583,0.004508
36.326,70.6084,0.004508
36.358,70.5553,0.004508
36.389,70.5052,0.004508
36.420,70.4554,0.004508
36.452,70.4039,0.004338
36.483,70.3561,0.004338
36.513,70.3089,0.004338
36.544,70.2620,0.004338
36.578,70.2112,0.004338
36.605,70.1704,0.004338
36.636,70.1260,0.004338
36.669,70.0793,0.004291
36.699,70.0367,0.004291
36.734,69.9889,0.004291
36.760,69.9543,0.004291
36.792,69.9116,0.004291
36.821,69.8726,0.004291
36.853,69.8316,0.004291
36.884,69.7926,0.004291
36.916,69.7534,0.004291
36.946,69.7168,0.004263
36.977,69.6797,0.004263
37.008,69.6437,0.004263
37.038,69.6087,0.004263
37.071,69.5716,0.004263
37.100,69.5403,0.004263
37.131,69.5067,0.004263
37.161,69.4756,0.004263
37.192,69.4428,0.004348
37.223,69.4118,0.004348
37.254,69.3809,0.004348
37.286,69.3514,0.004348
37.315,69.3231,0.004348
37.347,69.2954,0.004348
37.378,69.2672,0.004348
37.409,69.2401,0.004348
37.440,69.2145,0.004348
37.471,69.1882,0.004348
37.497,69.1684,0.004348
37.535,69.1391,0.004348
37.567,69.1144,0.004348
37.596,69.0943,0.004348
37.626,69.0725,0.004348
37.657,69.0518,0.004348
37.693,69.0290,0.004291
37.720,69.0114,0.004291
37.752,68.9924,0.004291
37.782,68.9749,0.004291
37.813,68.9574,0.004291
37.847,68.9390,0.004291
37.875,68.9249,0.004291
37.906,68.9098,0.004291
37.937,68.8954,0.004291
37.969,68.8813,0.004272
38.000,68.8682,0.004272
38.030,68.8561,0.004272
38.060,68.8452,0.004272
38.091,68.8341,0.004272
38.123,68.8241,0.004272
38.154,68.8148,0.004272
38.184,68.8063,0.004329
38.216,68.7982,0.004329
38.247,68.7908,0.004329
38.279,68.7845,0.004329
38.310,68.7787,0.004329
38.340,68.7738,0.004329
38.371,68.7696,0.004329
38.403,68.7660,0.004329
38.433,68.7634,0.004301
38.465,68.7613,0.004301
38.495,68.7600,0.004301
38.527,68.7593,0.004301
38.558,68.7593,0.004301
38.589,68.7593,0.004301
38.619,68.7593,0.004301
38.651,68.7593,0.004301
38.681,68.7593,0.004301
38.711,68.7598,0.004301
38.743,68.7611,0.004301
38.773,68.7629,0.004301
38.804,68.7655,0.004301
38.835,68.7690,0.004301
38.866,68.7731,0.004301
38.898,68.7779,0.004301
38.929,68.7836,0.004310
38.960,68.7900,0.004310
38.991,68.7970,0.004310
39.022,68.8049,0.004310
39.053,68.8132,0.004310
39.084,68.8223,0.004310
39.114,68.8321,0.004310
39.146,68.8428,0.004310
39.177,68.8545,0.004310
39.208,68.8667,0.004310
39.240,68.8796,0.004310
39.271,68.8934,0.004310
39.302,68.9075,0.004310
39.334,68.9234,0.004310
39.365,68.9388,0.004310
39.397,68.9558,0.004310
39.426,68.9725,0.004329
39.458,68.9914,0.004329
39.490,69.0101,0.004329
39.524,69.0316,0.004329
39.553,69.0503,0.004329
39.583,69.0715,0.004329
39.614,69.0927,0.004329
39.645,69.1152,0.004329
39.676,69.1381,0.004310
39.708,69.1627,0.004310
39.741,69.1896,0.004310
39.770,69.2119,0.004310
39.801,69.2391,0.004310
39.832,69.2654,0.004310
39.865,69.2949,0.004310
39.893,69.3198,0.004310
39.923,69.3488,0.004329
39.954,69.3778,0.004329
39.985,69.4090,0.004329
40.017,69.4405,0.004329
40.048,69.4721,0.004329
40.079,69.5047,0.004329
40.110,69.5377,0.004329
40.141,69.5728,0.004329
40.172,69.6064,0.004348
40.203,69.6415,0.004348
40.231,69.6748,0.004348
40.266,69.7167,0.004348
40.298,69.7556,0.004348
40.328,69.7922,0.004348
40.359,69.8309,0.004348
40.391,69.8727,0.004348
40.422,69.9139,0.004310
40.452,69.9544,0.004310
40.483,69.9970,0.004310
40.514,70.0385,0.004310
40.545,70.0819,0.004310
40.576,70.1263,0.004310
40.608,70.1732,0.004310
40.639,70.2182,0.004310
40.670,70.2652,0.004310
40.701,70.3110,0.004282
40.732,70.3601,0.004282
40.763,70.4074,0.004282
40.794,70.4585,0.004282
40.825,70.5071,0.004282
40.856,70.5582,0.004282
40.887,70.6091,0.004282
40.919,70.6638,0.004282
40.950,70.7164,0.004263
40.985,70.7781,0.004263
41.011,70.8245,0.004263
41.042,70.8801,0.004263
41.073,70.9341,0.004263
41.104,70.9910,0.004263
41.135,71.0477,0.004263
41.166,71.1065,0.004263
41.196,71.1635,0.004291
41.228,71.2250,0.004291
41.259,71.2840,0.004291
41.290,71.3442,0.004291
41.321,71.4039,0.004291
41.352,71.4618,0.004291
41.383,71.5191,0.004291
41.414,71.5752,0.004470
41.445,71.6322,0.004470
41.476,71.6873,0.004470
41.507,71.7422,0.004470
41.539,71.7965,0.004470
41.570,71.8498,0.004470
41.601,71.9030,0.004470
41.632,71.9541,0.004470
41.662,72.0034,0.004470
41.693,72.0538,0.004639
41.724,72.1040,0.004639
41.755,72.1522,0.004639
41.787,72.2012,0.004639
41.819,72.2492,0.004639
41.848,72.2951,0.004639
41.880,72.3409,0.004639
41.910,72.3853,0.004602
41.942,72.4297,0.004602
41.973,72.4741,0.004602
42.005,72.5175,0.004602
42.036,72.5604,0.004602
42.067,72.6022,0.004602
42.098,72.6425,0.004602
42.130,72.6839,0.004602
42.161,72.7224,0.004564
42.191,72.7605,0.004564
42.223,72.7992,0.004564
42.253,72.8355,0.004564
42.284,72.8706,0.004564
42.314,72.9063,0.004564
42.346,72.9409,0.004564
42.376,72.9750,0.004564
42.409,73.0099,0.004564
42.439,73.0411,0.004573
42.470,73.0740,0.004573
42.503,73.1074,0.004573
42.531,73.1346,0.004573
42.562,73.1638,0.004573
42.592,73.1924,0.004573
42.622,73.2208,0.004573
42.654,73.2486,0.004573
42.685,73.2757,0.004536
42.715,73.3011,0.004536
42.746,73.3269,0.004536
42.778,73.3512,0.004536
42.811,73.3778,0.004536
42.840,73.3987,0.004536
42.871,73.4214,0.004536
42.901,73.4428,0.004536
42.932,73.4638,0.004564
42.964,73.4846,0.004564
42.994,73.5040,0.004564
43.025,73.5223,0.004564
43.056,73.5408,0.004564
43.086,73.5578,0.004564
43.117,73.5745,0.004564
43.148,73.5903,0.004564
43.178,73.6053,0.004555
43.208,73.6196,0.004555
43.240,73.6338,0.004555
43.270,73.6465,0.004555
43.301,73.6595,0.004555
43.333,73.6712,0.004555
43.364,73.6822,0.004555
43.395,73.6925,0.004555
43.427,73.7020,0.004536
43.457,73.7108,0.004536
43.488,73.7187,0.004536
43.520,73.7261,0.004536
43.551,73.7327,0.004536
43.582,73.7386,0.004536
43.612,73.7437,0.004536
43.643,73.7481,0.004536
43.674,73.7518,0.004536
43.707,73.7549,0.004536
43.737,73.7570,0.004536
43.767,73.7585,0.004536
43.801,73.7592,0.004536
43.830,73.7593,0.004536
43.862,73.7593,0.004536
43.893,73.7593,0.004536
43.923,73.7593,0.004536
43.953,73.7593,0.004526
43.984,73.7593,0.004526
44.016,73.7593,0.004526
44.047,73.7593,0.004526
44.079,73.7593,0.004526
44.110,73.7593,0.004526
44.140,73.7593,0.004526
44.172,73.7593,0.004526
44.202,73.7593,0.004498
44.233,73.7593,0.004498
44.265,73.7593,0.004498
44.296,73.7593,0.004498
44.326,73.7593,0.004498
44.357,73.7593,0.004498
44.388,73.7593,0.004498
44.420,73.7593,0.004498
44.451,73.7593,0.004498
44.482,73.7593,0.004442
44.513,73.7593,0.004442
44.544,73.7593,0.004442
44.575,73.7593,0.004442
44.610,73.7593,0.004442
44.638,73.7593,0.004442
44.669,73.7593,0.004442
44.700,73.7593,0.004451
44.731,73.7593,0.004451
44.763,73.7593,0.004451
44.792,73.7593,0.004451
44.824,73.7593,0.004451
44.855,73.7593,0.004451
44.888,73.7593,0.004451
44.918,73.7593,0.004451
44.949,73.7593,0.004423
44.980,73.7593,0.004423
45.012,73.7593,0.004423
45.042,73.7593,0.004423
45.073,73.7593,0.004423
45.105,73.7593,0.004423
45.135,73.7593,0.004423
45.166,73.7593,0.004404
45.198,73.7593,0.004404
45.229,73.7593,0.004404
45.260,73.7593,0.004404
45.291,73.7593,0.004404
45.322,73.7593,0.004404
45.353,73.7593,0.004404
45.384,73.7593,0.004404
45.415,73.7593,0.004423
45.447,73.7593,0.004423
45.478,73.7593,0.004423
45.512,73.7593,0.004423
45.541,73.7593,0.004423
45.572,73.7593,0.004423
45.603,73.7593,0.004423
45.633,73.7593,0.004423
45.664,73.7593,0.004423
45.695,73.7593,0.004413
45.727,73.7593,0.004413
45.760,73.7593,0.004413
45.789,73.7593,0.004413
45.820,73.7593,0.004413
45.851,73.7593,0.004413
45.882,73.7593,0.004413
45.912,73.7593,0.004423
45.946,73.7593,0.004423
45.974,73.7593,0.004423
46.004,73.7593,0.004423
46.035,73.7593,0.004423
46.069,73.7593,0.004423
46.097,73.7593,0.004423
46.128,73.7593,0.004423
46.159,73.7593,0.004423
46.190,73.7593,0.004470
46.221,73.7593,0.004470
46.252,73.7593,0.004470
46.284,73.7593,0.004470
46.314,73.7593,0.004470
46.346,73.7593,0.004470
46.377,73.7593,0.004470
46.411,73.7593,0.004470
46.439,73.7593,0.004479
46.470,73.7593,0.004479
46.501,73.7593,0.004479
46.536,73.7593,0.004479
46.576,73.7593,0.004479
46.608,73.7593,0.004479
46.638,73.7593,0.004479
46.669,73.7593,0.004479
46.700,73.7593,0.004461
46.735,73.7593,0.004461
46.763,73.7593,0.004461
46.794,73.7593,0.004461
46.824,73.7593,0.004461
46.856,73.7593,0.004461
46.888,73.7593,0.004461
46.917,73.7593,0.004461
46.948,73.7593,0.004413
46.980,73.7593,0.004413
47.010,73.7593,0.004413
47.040,73.7593,0.004413
47.072,73.7593,0.004413
47.103,73.7593,0.004413
47.135,73.7593,0.004413
47.166,73.7593,0.004413
47.197,73.7593,0.004413
47.229,73.7593,0.004413
47.259,73.7593,0.004413
47.291,73.7593,0.004413
47.322,73.7593,0.004413
47.353,73.7593,0.004413
47.384,73.7593,0.004413
47.416,73.7593,0.004489
47.448,73.7593,0.004489
47.478,73.7593,0.004489
47.509,73.7593,0.004489
47.541,73.7593,0.004489
47.571,73.7593,0.004489
47.602,73.7593,0.004489
47.633,73.7593,0.004489
47.665,73.7593,0.004517
47.695,73.7593,0.004517
47.726,73.7593,0.004517
47.757,73.7593,0.004517
47.788,73.7593,0.004517
47.821,73.7593,0.004517
47.851,73.7593,0.004517
47.881,73.7593,0.004517
47.911,73.7593,0.004508
47.942,73.7593,0.004508
47.973,73.7593,0.004508
48.004,73.7593,0.004508
48.034,73.7593,0.004508
48.065,73.7591,0.004508
48.096,73.7581,0.004508
48.128,73.7562,0.004508
48.159,73.7538,0.004508
48.192,73.7503,0.004517
48.221,73.7466,0.004517
48.251,73.7420,0.004517
48.283,73.7366,0.004517
48.314,73.7304,0.004517
48.345,73.7235,0.004517
48.377,73.7157,0.004517
48.409,73.7073,0.004517
48.440,73.6978,0.004545
48.471,73.6883,0.004545
48.503,73.6772,0.004545
48.534,73.6661,0.004545
48.566,73.6534,0.004545
48.598,73.6408,0.004545
48.628,73.6274,0.004545
48.660,73.6129,0.004545
48.690,73.5981,0.004545
48.721,73.5824,0.004545
48.752,73.5662,0.004545
48.783,73.5490,0.004545
48.819,73.5284,0.004545
48.845,73.5130,0.004545
48.876,73.4936,0.004545
48.906,73.4742,0.004545
48.940,73.4506,0.004583
48.970,73.4301,0.004583
49.000,73.4087,0.004583
49.034,73.3839,0.004583
49.061,73.3625,0.004583
49.093,73.3379,0.004583
49.124,73.3122,0.004583
49.155,73.2864,0.004583
49.186,73.2605,0.004620
49.216,73.2334,0.004620
49.247,73.2061,0.004620
49.279,73.1761,0.004620
49.310,73.1468,0.004620
49.341,73.1164,0.004620
49.372,73.0861,0.004620
49.404,73.0524,0.004620
49.434,73.0215,0.004620
49.465,72.9883,0.004630
49.496,72.9544,0.004630
49.528,72.9192,0.004630
49.559,72.8836,0.004630
49.590,72.8480,0.004630
49.621,72.8108,0.004630
49.653,72.7724,0.004630
49.685,72.7328,0.004677
49.715,72.6937,0.004677
49.746,72.6540,0.004677
49.777,72.6146,0.004677
49.808,72.5732,0.004677
49.838,72.5324,0.004677
49.870,72.4891,0.004677
49.901,72.4443,0.004677
49.933,72.4003,0.004649
49.965,72.3543,0.004649
49.995,72.3095,0.004649
50.029,72.2583,0.004649
50.057,72.2171,0.004649
50.089,72.1665,0.004649
50.118,72.1211,0.004649
50.148,72.0724,0.004649
50.179,72.0236,0.004611
50.211,71.9724,0.004611
50.242,71.9206,0.004611
50.273,71.8680,0.004611
50.304,71.8139,0.004611
50.334,71.7637,0.004611
50.365,71.7092,0.004611
50.398,71.6516,0.004611
50.427,71.5984,0.004611
50.458,71.5418,0.004564
50.489,71.4855,0.004564
50.521,71.4256,0.004564
50.550,71.3705,0.004564
50.584,71.3060,0.004564
50.613,71.2486,0.004564
50.644,71.1873,0.004564
50.675,71.1295,0.004611
50.706,71.0694,0.004611
50.738,71.0109,0.004611
50.768,70.9536,0.004611
50.799,70.8987,0.004611
50.830,70.8423,0.004611
50.860,70.7876,0.004611
50.891,70.7321,0.004611
50.922,70.6785,0.004470
50.953,70.6260,0.004470
50.983,70.5752,0.004470
51.015,70.5227,0.004470
51.045,70.4725,0.004470
51.076,70.4217,0.004470
51.108,70.3725,0.004470
51.139,70.3224,0.004470
51.170,70.2748,0.004282
51.201,70.2264,0.004282
51.232,70.1805,0.004282
51.264,70.1340,0.004282
51.294,70.0890,0.004282
51.326,70.0434,0.004282
51.356,70.0008,0.004282
51.388,69.9563,0.004282
51.418,69.9159,0.004348
51.450,69.8732,0.004348
51.480,69.8330,0.004348
51.512,69.7926,0.004348
51.542,69.7543,0.004348
51.573,69.7159,0.004348
51.604,69.6767,0.004348
51.636,69.6399,0.004348
51.666,69.6033,0.004376
51.697,69.5685,0.004376
51.729,69.5318,0.004376
51.760,69.4970,0.004376
51.791,69.4639,0.004376
51.822,69.4323,0.004376
51.852,69.3998,0.004376
51.885,69.3677,0.004376
51.915,69.3375,0.004366
51.946,69.3080,0.004366
51.976,69.2792,0.004366
52.008,69.2502,0.004366
52.039,69.2231,0.004366
52.069,69.1965,0.004366
52.104,69.1670,0.004366
52.131,69.1447,0.004366
52.162,69.1197,0.004366
52.193,69.0958,0.004366
52.224,69.0720,0.004301
52.255,69.0498,0.004301
52.286,69.0272,0.004301
52.318,69.0065,0.004301
52.349,68.9853,0.004301
52.381,68.9660,0.004301
52.411,68.9467,0.004301
52.442,68.9288,0.004291
52.474,68.9104,0.004291
52.505,68.8937,0.004291
52.537,68.8770,0.004291
52.568,68.8620,0.004291
52.600,68.8475,0.004291
52.630,68.8339,0.004291
52.659,68.8216,0.004291
52.695,68.8072,0.004385
52.726,68.7958,0.004385
52.757,68.7846,0.004385
52.790,68.7741,0.004385
52.820,68.7652,0.004385
52.851,68.7565,0.004385
52.881,68.7485,0.004385
52.913,68.7412,0.004385
52.944,68.7349,0.004395
52.975,68.7291,0.004395
53.006,68.7241,0.004395
53.036,68.7200,0.004395
53.067,68.7164,0.004395
53.098,68.7136,0.004395
53.130,68.7115,0.004395
53.161,68.7101,0.004395
53.193,68.7094,0.004357
53.224,68.7094,0.004357
53.253,68.7094,0.004357
53.284,68.7094,0.004357
53.315,68.7094,0.004357
53.346,68.7094,0.004357
53.377,68.7101,0.004357
53.409,68.7115,0.004357
53.439,68.7134,0.004395
53.472,68.7165,0.004395
53.502,68.7200,0.004395
53.533,68.7242,0.004395
53.564,68.7294,0.004395
53.596,68.7352,0.004395
53.627,68.7417,0.004395
53.658,68.7489,0.004395
53.690,68.7574,0.004395
53.720,68.7657,0.004357
53.746,68.7734,0.004357
53.784,68.7858,0.004357
53.813,68.7963,0.004357
53.844,68.8073,0.004357
53.875,68.8205,0.004357
53.906,68.8330,0.004357
53.942,68.8495,0.004291
53.969,68.8617,0.004291
53.999,68.8765,0.004291
54.031,68.8929,0.004291
54.061,68.9093,0.004291
54.094,68.9283,0.004291
54.123,68.9444,0.004291
54.153,68.9634,0.004291
54.184,68.9828,0.004291
54.216,69.0034,0.004338
54.245,69.0235,0.004338
54.276,69.0452,0.004338
54.308,69.0682,0.004338
54.339,69.0920,0.004338
54.371,69.1158,0.004338
54.402,69.1411,0.004338
54.434,69.1673,0.004366
54.465,69.1926,0.004366
54.496,69.2200,0.004366
54.527,69.2481,0.004366
54.558,69.2764,0.004366
54.588,69.3045,0.004366
54.620,69.3348,0.004366
54.651,69.3651,0.004366
54.682,69.3968,0.004366
54.713,69.4282,0.004366
54.744,69.4606,0.004366
54.775,69.4943,0.004366
54.811,69.5349,0.004366
54.852,69.5810,0.004366
54.883,69.6178,0.004366
54.915,69.6550,0.004366
54.945,69.6921,0.004357
54.979,69.7335,0.004357
55.007,69.7681,0.004357
55.038,69.8072,0.004357
55.069,69.8471,0.004357
55.105,69.8964,0.004357
55.145,69.9503,0.004357
55.177,69.9937,0.004357
55.207,70.0359,0.004348
55.237,70.0806,0.004348
55.270,70.1272,0.004348
55.300,70.1717,0.004348
55.331,70.2181,0.004348
55.363,70.2675,0.004348
55.393,70.3138,0.004348
55.425,70.3648,0.004319
55.456,70.4126,0.004319
55.487,70.4630,0.004319
55.519,70.5149,0.004319
55.550,70.5669,0.004319
55.583,70.6233,0.004319
55.612,70.6718,0.004319
55.643,70.7261,0.004319
55.673,70.7791,0.004338
55.704,70.8341,0.004338
55.735,70.8893,0.004338
55.766,70.9477,0.004338
55.796,71.0030,0.004338
55.828,71.0616,0.004338
55.858,71.1189,0.004338
55.900,71.2016,0.004338
55.937,71.2707,0.004366
55.968,71.3313,0.004366
55.998,71.3883,0.004366
56.029,71.4469,0.004366
56.061,71.5039,0.004366
56.092,71.5607,0.004366
56.122,71.6150,0.004366
56.152,71.6668,0.004366
56.183,71.7223,0.004536
56.214,71.7751,0.004536
56.245,71.8293,0.004536
56.276,71.8796,0.004536
56.307,71.9302,0.004536
56.338,71.9815,0.004536
56.369,72.0314,0.004536
56.400,72.0801,0.004536
56.431,72.1279,0.004602
56.462,72.1764,0.004602
56.493,72.2232,0.004602
56.524,72.2707,0.004602
56.556,72.3153,0.004602
56.586,72.3589,0.004602
56.616,72.4020,0.004602
56.648,72.4463,0.004602
56.680,72.4906,0.004517
56.711,72.5334,0.004517
56.744,72.5763,0.004517
56.774,72.6142,0.004517
56.806,72.6553,0.004517
56.838,72.6950,0.004517
56.868,72.7323,0.004517
56.898,72.7686,0.004517
56.931,72.8071,0.004517
56.961,72.8418,0.004564
56.992,72.8774,0.004564
57.023,72.9119,0.004564
57.054,72.9460,0.004564
57.085,72.9794,0.004564
57.115,73.0099,0.004564
57.146,73.0412,0.004564
57.178,73.0726,0.004564
57.209,73.1026,0.004583
57.240,73.1325,0.004583
57.271,73.1617,0.004583
57.303,73.1900,0.004583
57.334,73.2166,0.004583
57.366,73.2437,0.004583
57.396,73.2693,0.004583
57.427,73.2941,0.004583
57.457,73.3174,0.004602
57.488,73.3405,0.004602
57.519,73.3637,0.004602
57.549,73.3850,0.004602
57.581,73.4074,0.004602
57.611,73.4268,0.004602
57.642,73.4471,0.004602
57.673,73.4660,0.004602
57.709,73.4874,0.004602
57.735,73.5022,0.004602
57.768,73.5200,0.004602
57.797,73.5357,0.004602
57.828,73.5511,0.004602
57.860,73.5661,0.004602
57.890,73.5799,0.004602
57.921,73.5934,0.004536
57.951,73.6056,0.004536
57.983,73.6180,0.004536
58.015,73.6292,0.004536
58.045,73.6398,0.004536
58.076,73.6493,0.004536
58.107,73.6580,0.004536
58.138,73.6664,0.004536
58.169,73.6739,0.004517
58.200,73.6808,0.004517
58.230,73.6868,0.004517
58.261,73.6921,0.004517
58.292,73.6967,0.004517
58.323,73.7006,0.004517
58.354,73.7039,0.004517
58.386,73.7064,0.004517
58.417,73.7081,0.004564
58.448,73.7091,0.004564
58.480,73.7094,0.004564
58.510,73.7094,0.004564
58.541,73.7094,0.004564
58.572,73.7094,0.004564
58.603,73.7094,0.004564
58.634,73.7094,0.004564
58.664,73.7094,0.004564
58.695,73.7094,0.004564
58.726,73.7094,0.004508
58.757,73.7094,0.004508
58.788,73.7094,0.004508
58.819,73.7094,0.004508
58.850,73.7094,0.004508
58.881,73.7094,0.004508
58.912,73.7094,0.004508
58.943,73.7094,0.004451
58.974,73.7094,0.004451
59.005,73.7094,0.004451
59.038,73.7094,0.004451
59.068,73.7094,0.004451
59.105,73.7094,0.004451
59.145,73.7094,0.004451
59.176,73.7094,0.004470
59.206,73.7094,0.004470
59.236,73.7094,0.004470
59.267,73.7094,0.004470
59.301,73.7094,0.004470
59.331,73.7094,0.004470
59.361,73.7094,0.004470
59.391,73.7094,0.004470
59.427,73.7094,0.004423
59.453,73.7094,0.004423
59.484,73.7094,0.004423
59.515,73.7094,0.004423
59.547,73.7094,0.004423
59.578,73.7094,0.004423
59.608,73.7094,0.004423
59.640,73.7094,0.004423
59.671,73.7094,0.004404
59.702,73.7094,0.004404
59.733,73.7094,0.004404
59.764,73.7094,0.004404
59.795,73.7094,0.004404
59.827,73.7094,0.004404
59.858,73.7094,0.004404
59.890,73.7094,0.004404
59.926,73.7094,0.004404
59.965,73.7094,0.004404
59.996,73.7094,0.004404
60.027,73.7094,0.004404
60.058,73.7094,0.004404
60.089,73.7094,0.004404
60.120,73.7094,0.004404
60.151,73.7094,0.004404
60.182,73.7094,0.004404
60.213,73.7094,0.004404
60.244,73.7094,0.004404
60.275,73.7094,0.004404
60.307,73.7094,0.004404
60.338,73.7094,0.004404
60.369,73.7094,0.004404
60.400,73.7094,0.004404
60.433,73.7094,0.004404
60.462,73.7094,0.004451
60.493,73.7094,0.004451
60.524,73.7094,0.004451
60.557,73.7094,0.004451
60.588,73.7094,0.004451
60.619,73.7094,0.004451
60.650,73.7094,0.004451
60.682,73.7094,0.004451
60.712,73.7094,0.004470
60.743,73.7094,0.004470
60.773,73.7094,0.004470
60.806,73.7094,0.004470
60.836,73.7094,0.004470
60.867,73.7094,0.004470
60.898,73.7094,0.004470
60.929,73.7094,0.004404
60.960,73.7094,0.004404
60.992,73.7094,0.004404
61.022,73.7094,0.004404
61.053,73.7094,0.004404
61.084,73.7094,0.004404
61.116,73.7094,0.004404
61.147,73.7094,0.004404
61.182,73.7094,0.004404
61.208,73.7094,0.004348
61.239,73.7094,0.004348
61.270,73.7094,0.004348
61.301,73.7094,0.004348
61.334,73.7094,0.004348
61.363,73.7094,0.004348
61.394,73.7094,0.004348
61.425,73.7094,0.004404
61.456,73.7094,0.004404
61.487,73.7094,0.004404
61.519,73.7094,0.004404
61.549,73.7094,0.004404
61.581,73.7094,0.004404
61.613,73.7094,0.004404
61.643,73.7094,0.004404
61.674,73.7094,0.004517
61.706,73.7094,0.004517
61.736,73.7094,0.004517
61.767,73.7094,0.004517
61.798,73.7094,0.004517
61.829,73.7094,0.004517
61.861,73.7094,0.004517
61.892,73.7094,0.004517
61.923,73.7094,0.004545
61.954,73.7094,0.004545
61.985,73.7094,0.004545
62.016,73.7094,0.004545
62.048,73.7094,0.004545
62.079,73.7094,0.004545
62.110,73.7094,0.004545
62.142,73.7094,0.004545
62.172,73.7094,0.004442
62.204,73.7094,0.004442
62.234,73.7094,0.004442
62.269,73.7094,0.004442
62.298,73.7094,0.004442
62.325,73.7094,0.004442
62.360,73.7094,0.004442
62.392,73.7094,0.004442
62.422,73.7094,0.004432
62.457,73.7094,0.004432
62.484,73.7094,0.004432
62.516,73.7094,0.004432
62.547,73.7094,0.004432
62.578,73.7094,0.004432
62.609,73.7094,0.004432
62.640,73.7091,0.004432
62.671,73.7081,0.004461
62.702,73.7063,0.004461
62.733,73.7039,0.004461
62.764,73.7007,0.004461
62.795,73.6968,0.004461
62.827,73.6920,0.004461
62.857,73.6868,0.004461
62.887,73.6807,0.004461
62.918,73.6740,0.004536
62.950,73.6660,0.004536
62.981,73.6579,0.004536
63.014,73.6482,0.004536
63.045,73.6384,0.004536
63.075,73.6281,0.004536
63.106,73.6170,0.004536
63.141,73.6034,0.004536
63.167,73.5928,0.004583
63.198,73.5794,0.004583
63.228,73.5657,0.004583
63.259,73.5510,0.004583
63.290,73.5356,0.004583
63.321,73.5192,0.004583
63.352,73.5016,0.004583
63.382,73.4850,0.004583
63.413,73.4670,0.004583
63.444,73.4477,0.004545
63.476,73.4272,0.004545
63.506,73.4069,0.004545
63.538,73.3854,0.004545
63.569,73.3631,0.004545
63.599,73.3410,0.004545
63.631,73.3163,0.004545
63.662,73.2926,0.004545
63.693,73.2670,0.004564
63.724,73.2413,0.004564
63.758,73.2125,0.004564
63.788,73.1867,0.004564
63.819,73.1576,0.004564
63.851,73.1289,0.004564
63.882,73.0994,0.004564
63.912,73.0703,0.004564
63.943,73.0386,0.004564
63.972,73.0090,0.004602
64.006,72.9744,0.004602
64.036,72.9420,0.004602
64.067,72.9083,0.004602
64.099,72.8725,0.004602
64.129,72.8385,0.004602
64.161,72.8018,0.004602
64.193,72.7638,0.004611
64.224,72.7261,0.004611
64.256,72.6873,0.004611
64.286,72.6485,0.004611
64.316,72.6094,0.004611
64.348,72.5690,0.004611
64.379,72.5277,0.004611
64.410,72.4864,0.004611
64.441,72.4433,0.004611
64.472,72.4007,0.004545
64.503,72.3554,0.004545
64.533,72.3122,0.004545
64.565,72.2651,0.004545
64.596,72.2193,0.004545
64.628,72.1717,0.004545
64.659,72.1246,0.004545
64.691,72.0735,0.004536
64.721,72.0259,0.004536
64.752,71.9763,0.004536
64.783,71.9260,0.004536
64.815,71.8732,0.004536
64.845,71.8218,0.004536
64.876,71.7693,0.004536
64.907,71.7167,0.004536
64.938,71.6627,0.004536
64.970,71.6059,0.004573
65.000,71.5507,0.004573
65.031,71.4954,0.004573
65.061,71.4391,0.004573
65.093,71.3801,0.004573
65.123,71.3238,0.004573
65.154,71.2628,0.004573
65.186,71.2031,0.004573
65.217,71.1429,0.004573
65.248,71.0807,0.004573
65.279,71.0230,0.004573
65.310,70.9651,0.004573
65.342,70.9064,0.004573
65.373,70.8484,0.004573
65.404,70.7916,0.004573
65.435,70.7366,0.004423
65.467,70.6817,0.004423
65.497,70.6280,0.004423
65.529,70.5747,0.004423
65.559,70.5231,0.004423
65.591,70.4704,0.004423
65.623,70.4159,0.004423
65.653,70.3680,0.004423
65.684,70.3194,0.004423
65.714,70.2712,0.004291
65.747,70.2210,0.004291
65.776,70.1767,0.004291
65.808,70.1287,0.004291
65.839,70.0817,0.004291
65.869,70.0385,0.004291
65.903,69.9910,0.004291
65.931,69.9515,0.004329
65.962,69.9067,0.004329
65.993,69.8659,0.004329
66.024,69.8230,0.004329
66.055,69.7835,0.004329
66.087,69.7406,0.004329
66.118,69.7025,0.004329
66.147,69.6658,0.004329
66.179,69.6280,0.004385
66.209,69.5903,0.004385
66.241,69.5537,0.004385
66.272,69.5182,0.004385
66.302,69.4831,0.004385
66.333,69.4494,0.004385
66.364,69.4159,0.004385
66.395,69.3831,0.004385
66.427,69.3507,0.004366
66.457,69.3202,0.004366
66.488,69.2890,0.004366
66.518,69.2606,0.004366
66.548,69.2315,0.004366
66.579,69.2032,0.004366
66.610,69.1754,0.004366
66.642,69.1483,0.004366
66.672,69.1221,0.004366
66.703,69.0968,0.004338
66.735,69.0715,0.004338
66.765,69.0477,0.004338
66.797,69.0238,0.004338
66.827,69.0008,0.004338
66.859,68.9786,0.004338
66.890,68.9578,0.004338
66.921,68.9374,0.004357
66.951,68.9181,0.004357
66.982,68.8989,0.004357
67.013,68.8813,0.004357
67.044,68.8631,0.004357
67.076,68.8463,0.004357
67.107,68.8295,0.004357
67.139,68.8140,0.004357
67.169,68.7994,0.004310
67.202,68.7849,0.004310
67.234,68.7715,0.004310
67.264,68.7595,0.004310
67.296,68.7474,0.004310
67.328,68.7361,0.004310
67.357,68.7261,0.004310
67.387,68.7172,0.004310
67.418,68.7084,0.004310
67.449,68.7006,0.004310
67.480,68.6931,0.004310
67.511,68.6863,0.004310
67.542,68.6805,0.004310
67.572,68.6754,0.004310
67.603,68.6710,0.004310
67.635,68.6672,0.004310
67.665,68.6642,0.004310
67.695,68.6620,0.004329
67.725,68.6605,0.004329
67.757,68.6595,0.004329
67.787,68.6594,0.004329
67.819,68.6594,0.004329
67.850,68.6594,0.004329
67.881,68.6594,0.004329
67.912,68.6594,0.004357
67.943,68.6599,0.004357
67.974,68.6611,0.004357
68.006,68.6632,0.004357
68.037,68.6659,0.004357
68.068,68.6693,0.004357
68.099,68.6734,0.004357
68.130,68.6782,0.004357
68.160,68.6839,0.004357
68.192,68.6903,0.004357
68.222,68.6972,0.004357
68.254,68.7050,0.004291
68.284,68.7133,0.004291
68.316,68.7229,0.004291
68.347,68.7327,0.004291
68.379,68.7440,0.004291
68.409,68.7549,0.004291
68.440,68.7670,0.004272
68.471,68.7799,0.004272
68.503,68.7942,0.004272
68.533,68.8080,0.004272
68.564,68.8233,0.004272
68.595,68.8390,0.004272
68.627,68.8561,0.004272
68.657,68.8722,0.004366
68.687,68.8901,0.004366
68.719,68.9095,0.004366
68.755,68.9319,0.004366
68.781,68.9490,0.004366
68.814,68.9709,0.004366
68.843,68.9915,0.004366
68.875,69.0143,0.004366
68.905,69.0369,0.004366
68.935,69.0596,0.004366
68.966,69.0849,0.004366
68.999,69.1112,0.004366
69.029,69.1370,0.004366
69.060,69.1634,0.004366
69.091,69.1901,0.004366
69.129,69.2253,0.004366
69.169,69.2621,0.004366
69.199,69.2916,0.004310
69.229,69.3217,0.004310
69.262,69.3558,0.004310
69.293,69.3874,0.004310
69.322,69.4183,0.004310
69.353,69.4509,0.004310
69.386,69.4872,0.004310
69.417,69.5227,0.004310
69.446,69.5563,0.004291
69.476,69.5919,0.004291
69.508,69.6296,0.004291
69.539,69.6678,0.004291
69.570,69.7060,0.004291
69.601,69.7461,0.004291
69.632,69.7860,0.004291
69.663,69.8272,0.004291
69.693,69.8677,0.004310
69.725,69.9120,0.004310
69.756,69.9533,0.004310
69.788,69.9985,0.004310
69.819,70.0436,0.004310
69.850,70.0894,0.004310
69.881,70.1346,0.004310
69.912,70.1819,0.004310
69.943,70.2290,0.004338
69.974,70.2764,0.004338
70.004,70.3245,0.004338
70.036,70.3754,0.004338
70.067,70.4252,0.004338
70.098,70.4772,0.004338
70.129,70.5292,0.004338
70.163,70.5874,0.004338
70.192,70.6372,0.004282
70.223,70.6917,0.004282
70.254,70.7464,0.004282
70.290,70.8102,0.004282
70.316,70.8560,0.004282
70.347,70.9130,0.004282
70.376,70.9681,0.004282
70.408,71.0282,0.004282
70.439,71.0858,0.004282
70.471,71.1479,0.004244
70.501,71.2066,0.004244
70.533,71.2685,0.004244
70.564,71.3263,0.004244
70.595,71.3849,0.004244
70.625,71.4402,0.004244
70.657,71.4985,0.004244
70.688,71.5541,0.004404
70.720,71.6108,0.004404
70.751,71.6638,0.004404
70.783,71.7203,0.004404
70.813,71.7710,0.004404
70.845,71.8268,0.004404
70.875,71.8747,0.004404
70.906,71.9244,0.004404
70.937,71.9741,0.004526
70.966,72.0207,0.004526
70.996,72.0692,0.004526
71.028,72.1173,0.004526
71.059,72.1650,0.004526
71.091,72.2124,0.004526
71.122,72.2585,0.004526
71.153,72.3024,0.004526
71.183,72.3462,0.004526
71.214,72.3884,0.004526
71.245,72.4315,0.004526
71.275,72.4719,0.004526
71.306,72.5117,0.004526
71.337,72.5527,0.004526
71.368,72.5924,0.004526
71.399,72.6325,0.004526
71.430,72.6698,0.004536
71.460,72.7064,0.004536
71.491,72.7430,0.004536
71.522,72.7798,0.004536
71.553,72.8147,0.004536
71.584,72.8499,0.004536
71.615,72.8836,0.004536
71.647,72.9182,0.004536
71.677,72.9496,0.004536
71.710,72.9827,0.004545
71.739,73.0125,0.004545
71.773,73.0465,0.004545
71.800,73.0716,0.004545
71.831,73.0995,0.004545
71.862,73.1278,0.004545
71.896,73.1589,0.004545
71.923,73.1813,0.004545
71.954,73.2079,0.004545
71.985,73.2329,0.004545
72.016,73.2575,0.004545
72.047,73.2806,0.004545
72.078,73.3042,0.004545
72.108,73.3259,0.004545
72.139,73.3473,0.004545
72.170,73.3682,0.004545
72.200,73.3885,0.004573
72.232,73.4084,0.004573
72.266,73.4287,0.004573
72.294,73.4449,0.004573
72.324,73.4618,0.004573
72.356,73.4788,0.004573
72.387,73.4948,0.004573
72.418,73.5098,0.004573
72.449,73.5243,0.004620
72.482,73.5387,0.004620
72.510,73.5502,0.004620
72.540,73.5623,0.004620
72.570,73.5734,0.004620
72.601,73.5842,0.004620
72.630,73.5938,0.004620
72.664,73.6038,0.004620
72.694,73.6124,0.004573
72.726,73.6204,0.004573
72.760,73.6282,0.004573
72.788,73.6340,0.004573
72.818,73.6395,0.004573
72.850,73.6446,0.004573
72.883,73.6492,0.004573
72.912,73.6526,0.004526
72.942,73.6553,0.004526
72.974,73.6574,0.004526
73.004,73.6588,0.004526
73.036,73.6594,0.004526
73.067,73.6594,0.004526
73.098,73.6594,0.004526
73.130,73.6594,0.004526
73.162,73.6594,0.004526
73.192,73.6594,0.004517
73.223,73.6594,0.004517
73.254,73.6594,0.004517
73.285,73.6594,0.004517
73.316,73.6594,0.004517
73.348,73.6594,0.004517
73.379,73.6594,0.004517
73.412,73.6594,0.004442
73.441,73.6594,0.004442
73.472,73.6594,0.004442
73.503,73.6594,0.004442
73.535,73.6594,0.004442
73.566,73.6594,0.004442
73.598,73.6594,0.004442
73.628,73.6594,0.004442
73.659,73.6594,0.004442
73.690,73.6594,0.004395
73.722,73.6594,0.004395
73.752,73.6594,0.004395
73.782,73.6594,0.004395
73.814,73.6594,0.004395
73.844,73.6594,0.004395
73.876,73.6594,0.004395
73.906,73.6594,0.004395
73.937,73.6594,0.004404
73.967,73.6594,0.004404
73.999,73.6594,0.004404
74.030,73.6594,0.004404
74.060,73.6594,0.004404
74.091,73.6594,0.004404
74.123,73.6594,0.004404
74.154,73.6594,0.004404
74.184,73.6594,0.004404
74.215,73.6594,0.004404
74.246,73.6594,0.004404
74.276,73.6594,0.004404
74.307,73.6594,0.004404
74.338,73.6594,0.004404
74.369,73.6594,0.004404
74.400,73.6594,0.004404
74.430,73.6594,0.004404
74.461,73.6594,0.004423
74.492,73.6594,0.004423
74.523,73.6594,0.004423
74.556,73.6594,0.004423
74.587,73.6594,0.004423
74.618,73.6594,0.004423
74.649,73.6594,0.004423
74.680,73.6594,0.004423
74.710,73.6594,0.004442
74.741,73.6594,0.004442
74.772,73.6594,0.004442
74.803,73.6594,0.004442
74.834,73.6594,0.004442
74.865,73.6594,0.004442
74.896,73.6594,0.004442
74.928,73.6594,0.004442
74.958,73.6594,0.004423
74.989,73.6594,0.004423
75.019,73.6594,0.004423
75.052,73.6594,0.004423
75.081,73.6594,0.004423
75.111,73.6594,0.004423
75.142,73.6594,0.004423
75.179,73.6594,0.004423
75.205,73.6594,0.004451
75.236,73.6594,0.004451
75.267,73.6594,0.004451
75.298,73.6594,0.004451
75.329,73.6594,0.004451
75.360,73.6594,0.004451
75.391,73.6594,0.004451
75.425,73.6594,0.004451
75.453,73.6594,0.004470
75.484,73.6594,0.004470
75.515,73.6594,0.004470
75.548,73.6594,0.004470
75.578,73.6594,0.004470
75.609,73.6594,0.004470
75.640,73.6594,0.004470
75.674,73.6594,0.004470
75.702,73.6594,0.004451
75.735,73.6594,0.004451
75.765,73.6594,0.004451
75.795,73.6594,0.004451
75.826,73.6594,0.004451
75.858,73.6594,0.004451
75.889,73.6594,0.004451
75.921,73.6594,0.004451
75.951,73.6594,0.004451
75.981,73.6594,0.004432
76.013,73.6594,0.004432
76.044,73.6594,0.004432
76.075,73.6594,0.004432
76.106,73.6594,0.004432
76.136,73.6594,0.004432
76.167,73.6594,0.004432
76.198,73.6594,0.004451
76.229,73.6594,0.004451
76.260,73.6594,0.004451
76.291,73.6594,0.004451
76.322,73.6594,0.004451
76.353,73.6594,0.004451
76.384,73.6594,0.004451
76.416,73.6594,0.004451
76.446,73.6594,0.004461
76.476,73.6594,0.004461
76.508,73.6594,0.004461
76.539,73.6594,0.004461
76.570,73.6594,0.004461
76.601,73.6594,0.004461
76.631,73.6594,0.004461
76.662,73.6594,0.004461
76.693,73.6594,0.004395
76.724,73.6594,0.004395
76.755,73.6594,0.004395
76.787,73.6594,0.004395
76.818,73.6594,0.004395
76.850,73.6594,0.004395
76.879,73.6594,0.004395
76.910,73.6594,0.004395
76.940,73.6594,0.004395
76.973,73.6594,0.004376
77.003,73.6594,0.004376
77.035,73.6594,0.004376
77.064,73.6594,0.004376
77.095,73.6594,0.004376
77.126,73.6594,0.004376
77.158,73.6594,0.004376
77.189,73.6594,0.004451
77.220,73.6594,0.004451
77.251,73.6594,0.004451
77.282,73.6594,0.004451
77.313,73.6594,0.004451
77.345,73.6590,0.004451
77.375,73.6579,0.004451
77.412,73.6557,0.004451
77.454,73.6518,0.004404
77.485,73.6483,0.004404
77.515,73.6440,0.004404
77.546,73.6389,0.004404
77.576,73.6332,0.004404
77.607,73.6265,0.004404
77.639,73.6193,0.004404
77.670,73.6111,0.004404
77.700,73.6027,0.004404
77.731,73.5930,0.004404
77.762,73.5832,0.004404
77.794,73.5718,0.004404
77.824,73.5605,0.004404
77.856,73.5479,0.004404
77.887,73.5347,0.004404
77.919,73.5207,0.004404
77.949,73.5061,0.004498
77.980,73.4907,0.004498
78.012,73.4746,0.004498
78.043,73.4578,0.004498
78.073,73.4409,0.004498
78.104,73.4226,0.004498
78.135,73.4040,0.004498
78.167,73.3836,0.004498
78.197,73.3635,0.004517
78.229,73.3420,0.004517
78.260,73.3204,0.004517
78.290,73.2980,0.004517
78.321,73.2749,0.004517
78.352,73.2504,0.004517
78.383,73.2264,0.004517
78.414,73.2007,0.004517
78.444,73.1751,0.004564
78.475,73.1482,0.004564
78.507,73.1205,0.004564
78.538,73.0917,0.004564
78.569,73.0613,0.004564
78.600,73.0323,0.004564
78.631,73.0019,0.004564
78.662,72.9713,0.004564
78.693,72.9392,0.004573
78.725,72.9047,0.004573
78.755,72.8722,0.004573
78.786,72.8380,0.004573
78.817,72.8032,0.004573
78.851,72.7638,0.004573
78.880,72.7308,0.004573
78.911,72.6926,0.004573
78.942,72.6548,0.004536
78.974,72.6146,0.004536
79.005,72.5753,0.004536
79.035,72.5367,0.004536
79.066,72.4963,0.004536
79.101,72.4494,0.004536
79.129,72.4122,0.004536
79.160,72.3692,0.004536
79.191,72.3248,0.004564
79.222,72.2811,0.004564
79.255,72.2311,0.004564
79.284,72.1896,0.004564
79.315,72.1415,0.004564
79.346,72.0956,0.004564
79.377,72.0458,0.004564
79.409,71.9978,0.004564
79.439,71.9466,0.004526
79.470,71.8991,0.004526
79.501,71.8470,0.004526
79.532,71.7952,0.004526
79.563,71.7442,0.004526
79.593,71.6916,0.004526
79.624,71.6383,0.004526
79.656,71.5827,0.004461
79.686,71.5277,0.004461
79.717,71.4716,0.004461
79.749,71.4144,0.004461
79.780,71.3559,0.004461
79.810,71.2995,0.004461
79.841,71.2410,0.004461
79.872,71.1818,0.004461
79.902,71.1227,0.004461
79.933,71.0626,0.004498
79.964,71.0027,0.004498
79.995,70.9436,0.004498
80.026,70.8861,0.004498
80.057,70.8300,0.004498
80.088,70.7734,0.004498
80.119,70.7179,0.004498
80.149,70.6630,0.004498
80.179,70.6104,0.004348
80.211,70.5563,0.004348
80.242,70.5032,0.004348
80.275,70.4479,0.004348
80.305,70.3981,0.004348
80.337,70.3460,0.004348
80.367,70.2974,0.004348
80.398,70.2492,0.004348
80.429,70.1988,0.004348
80.460,70.1516,0.004225
80.491,70.1057,0.004225
80.521,70.0605,0.004225
80.552,70.0152,0.004225
80.582,69.9704,0.004225
80.614,69.9259,0.004225
80.645,69.8819,0.004225
80.676,69.8386,0.004225
80.707,69.7968,0.004291
80.739,69.7556,0.004291
80.769,69.7147,0.004291
80.801,69.6749,0.004291
80.833,69.6340,0.004291
80.864,69.5960,0.004291
80.895,69.5588,0.004291
80.927,69.5210,0.004291
80.957,69.4864,0.004310
80.988,69.4508,0.004310
81.019,69.4167,0.004310
81.050,69.3818,0.004310
81.080,69.3493,0.004310
81.112,69.3165,0.004310
81.143,69.2854,0.004310
81.174,69.2536,0.004310
81.206,69.2232,0.004348
81.236,69.1932,0.004348
81.268,69.1643,0.004348
81.300,69.1350,0.004348
81.332,69.1076,0.004348
81.363,69.0811,0.004348
81.394,69.0554,0.004348
81.425,69.0302,0.004348
81.455,69.0060,0.004366
81.487,68.9823,0.004366
81.517,68.9595,0.004366
81.548,68.9369,0.004366
81.579,68.9162,0.004366
81.610,68.8953,0.004366
81.640,68.8759,0.004366
81.674,68.8547,0.004366
81.703,68.8375,0.004348
81.734,68.8191,0.004348
81.766,68.8020,0.004348
81.797,68.7855,0.004348
81.827,68.7704,0.004348
81.858,68.7556,0.004348
81.889,68.7412,0.004348
81.920,68.7278,0.004348
81.950,68.7153,0.004348
81.981,68.7033,0.004329
82.012,68.6919,0.004329
82.044,68.6811,0.004329
82.074,68.6714,0.004329
82.105,68.6622,0.004329
82.136,68.6539,0.004329
82.167,68.6461,0.004329
82.198,68.6392,0.004310
82.231,68.6327,0.004310
82.261,68.6274,0.004310
82.293,68.6225,0.004310
82.323,68.6186,0.004310
82.354,68.6153,0.004310
82.384,68.6127,0.004310
82.416,68.6109,0.004310
82.447,68.6098,0.004291
82.478,68.6094,0.004291
82.510,68.6094,0.004291
82.541,68.6094,0.004291
82.572,68.6094,0.004291
82.603,68.6096,0.004291
82.633,68.6105,0.004291
82.665,68.6122,0.004291
82.695,68.6146,0.004357
82.727,68.6177,0.004357
82.764,68.6225,0.004357
82.804,68.6286,0.004357
82.838,68.6349,0.004357
82.867,68.6410,0.004357
82.898,68.6481,0.004357
82.929,68.6560,0.004357
82.959,68.6641,0.004357
82.989,68.6733,0.004357
83.021,68.6834,0.004357
83.052,68.6943,0.004357
83.083,68.7060,0.004357
83.114,68.7180,0.004357
83.146,68.7317,0.004357
83.176,68.7445,0.004319
83.207,68.7590,0.004319
83.237,68.7737,0.004319
83.271,68.7910,0.004319
83.299,68.8057,0.004319
83.330,68.8233,0.004319
83.360,68.8406,0.004319
83.391,68.8592,0.004319
83.422,68.8785,0.004310
83.458,68.9021,0.004310
83.484,68.9202,0.004310
83.515,68.9410,0.004310
83.546,68.9636,0.004310
83.576,68.9863,0.004310
83.607,69.0095,0.004310
83.639,69.0354,0.004310
83.669,69.0595,0.004310
83.701,69.0858,0.004310
83.732,69.1127,0.004310
83.762,69.1393,0.004310
83.793,69.1679,0.004310
83.824,69.1973,0.004310
83.857,69.2283,0.004310
83.886,69.2562,0.004310
83.917,69.2876,0.004310
83.948,69.3192,0.004310
83.979,69.3525,0.004319
84.011,69.3859,0.004319
84.043,69.4206,0.004319
84.073,69.4545,0.004319
84.103,69.4901,0.004319
84.134,69.5253,0.004319
84.166,69.5638,0.004319
84.196,69.5998,0.004291
84.227,69.6384,0.004291
84.258,69.6777,0.004291
84.289,69.7168,0.004291
84.320,69.7575,0.004291
84.351,69.7990,0.004291
84.382,69.8407,0.004291
84.413,69.8832,0.004291
84.443,69.9255,0.004235
84.475,69.9712,0.004235
84.505,70.0150,0.004235
84.537,70.0617,0.004235
84.568,70.1071,0.004235
84.599,70.1552,0.004235
84.630,70.2017,0.004235
84.662,70.2522,0.004235
84.692,70.2993,0.004225
84.724,70.3511,0.004225
84.754,70.4009,0.004225
84.786,70.4542,0.004225
84.816,70.5048,0.004225
84.848,70.5593,0.004225
84.878,70.6110,0.004225
84.909,70.6658,0.004225
84.940,70.7205,0.004282
84.975,70.7850,0.004282
85.002,70.8334,0.004282
85.034,70.8914,0.004282
85.065,70.9497,0.004282
85.098,71.0110,0.004282
85.128,71.0706,0.004282
85.160,71.1319,0.004282
85.191,71.1909,0.004319
85.222,71.2521,0.004319
85.253,71.3088,0.004319
85.285,71.3687,0.004319
85.316,71.4250,0.004319
85.347,71.4812,0.004319
85.377,71.5344,0.004319
85.408,71.5899,0.004319
85.440,71.6436,0.004413
85.472,71.6989,0.004413
85.502,71.7487,0.004413
85.533,71.8013,0.004413
85.563,71.8504,0.004413
85.594,71.9020,0.004413
85.625,71.9501,0.004413
85.656,71.9998,0.004413
85.687,72.0487,0.004413
85.718,72.0948,0.004489
85.750,72.1420,0.004489
85.780,72.1873,0.004489
85.812,72.2331,0.004489
85.843,72.2778,0.004489
85.874,72.3214,0.004489
85.905,72.3649,0.004489
85.936,72.4066,0.004489
85.967,72.4482,0.004498
85.999,72.4897,0.004498
86.030,72.5298,0.004498
86.060,72.5677,0.004498
86.091,72.6079,0.004498
86.123,72.6456,0.004498
86.153,72.6820,0.004498
86.184,72.7177,0.004536
86.215,72.7544,0.004536
86.247,72.7895,0.004536
86.278,72.8243,0.004536
86.309,72.8579,0.004536
86.341,72.8904,0.004536
86.371,72.9228,0.004536
86.402,72.9544,0.004536
86.433,72.9843,0.004536
86.464,73.0137,0.004536
86.495,73.0427,0.004536
86.525,73.0704,0.004536
86.557,73.0983,0.004536
86.589,73.1260,0.004536
86.620,73.1526,0.004536
86.651,73.1780,0.004536
86.683,73.2031,0.004536
86.713,73.2265,0.004545
86.745,73.2506,0.004545
86.775,73.2723,0.004545
86.800,73.2905,0.004545
86.837,73.3155,0.004545
86.869,73.3361,0.004545
86.898,73.3548,0.004545
86.929,73.3735,0.004545
86.960,73.3914,0.004592
86.990,73.4087,0.004592
87.021,73.4257,0.004592
87.053,73.4416,0.004592
87.083,73.4565,0.004592
87.114,73.4707,0.004592
87.144,73.4845,0.004592
87.175,73.4977,0.004592
87.206,73.5101,0.004526
87.239,73.5226,0.004526
87.268,73.5326,0.004526
87.299,73.5428,0.004526
87.330,73.5522,0.004526
87.362,73.5613,0.004526
87.393,73.5691,0.004526
87.430,73.5780,0.004526
87.470,73.5860,0.004555
87.502,73.5917,0.004555
87.533,73.5963,0.004555
87.564,73.6003,0.004555
87.595,73.6036,0.004555
87.626,73.6062,0.004555
87.656,73.6079,0.004555
87.688,73.6090,0.004573
87.719,73.6094,0.004573
87.750,73.6094,0.004573
87.781,73.6094,0.004573
87.813,73.6094,0.004573
87.843,73.6094,0.004573
87.875,73.6094,0.004573
