Elapsed Time (s),Position (mm),Force (N)
-0.012,81.4094,-0.019592
0.020,81.4094,-0.019592
0.050,81.4094,-0.019592
0.083,81.4094,-0.019592
0.113,81.4094,-0.019592
0.144,81.4094,-0.019592
0.174,81.4094,-0.018538
0.205,81.4094,-0.018538
0.237,81.4094,-0.018538
0.268,81.4094,-0.018538
0.300,81.4094,-0.018538
0.332,81.4094,-0.018538
0.363,81.4094,-0.018538
0.393,81.4094,-0.018538
0.424,81.4094,-0.016685
0.455,81.4094,-0.016685
0.486,81.4094,-0.016685
0.517,81.4094,-0.016685
0.548,81.4094,-0.016685
0.578,81.4094,-0.016685
0.609,81.4094,-0.016685
0.641,81.4094,-0.015499
0.672,81.4094,-0.015499
0.702,81.4094,-0.015499
0.733,81.4094,-0.015499
0.764,81.4094,-0.015499
0.794,81.4094,-0.015499
0.825,81.4094,-0.015499
0.856,81.4094,-0.015499
0.887,81.4094,-0.015499
0.918,81.4094,-0.014624
0.950,81.4094,-0.014624
0.982,81.4094,-0.014624
1.012,81.4094,-0.014624
1.044,81.4094,-0.014624
1.074,81.4094,-0.014624
1.107,81.4094,-0.014624
1.138,81.4094,-0.013937
1.169,81.4094,-0.013937
1.199,81.4094,-0.013937
1.234,81.4094,-0.013937
1.260,81.4094,-0.013937
1.291,81.4094,-0.013937
1.322,81.4094,-0.013937
1.354,81.4094,-0.013937
1.384,81.4094,-0.013937
1.415,81.4094,-0.013429
1.446,81.4094,-0.013429
1.477,81.4094,-0.013429
1.508,81.4094,-0.013429
1.538,81.4094,-0.013429
1.569,81.4094,-0.013429
1.604,81.4094,-0.013429
1.632,81.4094,-0.012958
1.662,81.4094,-0.012958
1.693,81.4094,-0.012958
1.728,81.4094,-0.012958
1.755,81.4094,-0.012958
1.786,81.4094,-0.012958
1.818,81.4094,-0.012958
1.848,81.4094,-0.012958
1.879,81.4094,-0.012535
1.912,81.4094,-0.012535
1.940,81.4094,-0.012535
1.971,81.4094,-0.012535
2.001,81.4094,-0.012535
2.032,81.4094,-0.012535
2.063,81.4094,-0.012535
2.094,81.4094,-0.012535
2.126,81.4094,-0.012234
2.157,81.4094,-0.012234
2.188,81.4094,-0.012234
2.221,81.4094,-0.012234
2.250,81.4094,-0.012234
2.280,81.4094,-0.012234
2.311,81.4094,-0.012234
2.342,81.4094,-0.012234
2.376,81.4094,-0.012234
2.404,81.4094,-0.012234
2.435,81.4094,-0.012017
2.465,81.4094,-0.012017
2.498,81.4094,-0.012017
2.527,81.4094,-0.012017
2.558,81.4094,-0.012017
2.589,81.4094,-0.012017
2.621,81.4094,-0.012017
2.652,81.4094,-0.012017
2.683,81.4094,-0.011716
2.714,81.4094,-0.011716
2.745,81.4094,-0.011716
2.777,81.4094,-0.011716
2.808,81.4094,-0.011716
2.839,81.4094,-0.011716
2.870,81.4094,-0.011716
2.901,81.4094,-0.011368
2.933,81.4094,-0.011368
2.964,81.4094,-0.011368
2.995,81.4094,-0.011368
3.026,81.4094,-0.011368
3.058,81.4094,-0.011368
3.088,81.4094,-0.011368
3.120,81.4094,-0.011368
3.150,81.4094,-0.011368
3.181,81.4094,-0.011151
3.211,81.4094,-0.011151
3.245,81.4094,-0.011151
3.273,81.4094,-0.011151
3.308,81.4094,-0.011151
3.335,81.4094,-0.011151
3.366,81.4094,-0.011151
3.398,81.4094,-0.011001
3.429,81.4094,-0.011001
3.460,81.4094,-0.011001
3.491,81.4094,-0.011001
3.523,81.4094,-0.011001
3.554,81.4094,-0.011001
3.585,81.4094,-0.011001
3.616,81.4094,-0.011001
3.647,81.4094,-0.010841
3.679,81.4094,-0.010841
3.710,81.4094,-0.010841
3.742,81.4094,-0.010841
3.771,81.4094,-0.010841
3.802,81.4094,-0.010841
3.833,81.4094,-0.010841
3.866,81.4094,-0.010841
3.897,81.4094,-0.010690
3.929,81.4094,-0.010690
3.960,81.4094,-0.010690
3.992,81.4094,-0.010690
4.023,81.4094,-0.010690
4.054,81.4094,-0.010690
4.084,81.4094,-0.010690
4.115,81.4090,-0.010690
4.146,81.4080,-0.010483
4.178,81.4061,-0.010483
4.208,81.4037,-0.010483
4.239,81.4003,-0.010483
4.270,81.3965,-0.010483
4.300,81.3916,-0.010483
4.331,81.3864,-0.010483
4.361,81.3803,-0.010483
4.392,81.3736,-0.009759
4.423,81.3658,-0.009759
4.454,81.3578,-0.009759
4.484,81.3490,-0.009759
4.516,81.3392,-0.009759
4.546,81.3290,-0.009759
4.576,81.3177,-0.009759
4.608,81.3055,-0.009759
4.640,81.2927,-0.005383
4.671,81.2795,-0.005383
4.702,81.2649,-0.005383
4.733,81.2502,-0.005383
4.764,81.2346,-0.005383
4.797,81.2174,-0.005383
4.826,81.2011,-0.005383
4.859,81.1826,-0.005383
4.888,81.1650,0.002804
4.920,81.1452,0.002804
4.950,81.1255,0.002804
4.981,81.1056,0.002804
5.012,81.0840,0.002804
5.042,81.0626,0.002804
5.074,81.0393,0.002804
5.103,81.0163,0.002804
5.135,80.9923,0.010718
5.166,80.9667,0.010718
5.196,80.9417,0.010718
5.228,80.9148,0.010718
5.259,80.8876,0.010718
5.290,80.8592,0.010718
5.321,80.8309,0.010718
5.352,80.8013,0.010718
5.382,80.7729,0.010718
5.412,80.7425,0.016167
5.443,80.7107,0.016167
5.474,80.6786,0.016167
5.504,80.6461,0.016167
5.536,80.6121,0.016167
5.566,80.5778,0.016167
5.598,80.5434,0.016167
5.629,80.5067,0.016167
5.660,80.4707,0.020317
5.691,80.4325,0.020317
5.721,80.3960,0.020317
5.752,80.3569,0.020317
5.783,80.3175,0.020317
5.814,80.2775,0.020317
5.845,80.2366,0.020317
5.879,80.1906,0.020317
5.907,80.1523,0.020317
5.938,80.1080,0.026490
5.969,80.0658,0.026490
6.000,80.0197,0.026490
6.030,79.9769,0.026490
6.062,79.9300,0.026490
6.094,79.8818,0.026490
6.124,79.8365,0.026490
6.156,79.7885,0.034818
6.186,79.7435,0.034818
6.217,79.6968,0.034818
6.248,79.6510,0.034818
6.279,79.6035,0.034818
6.310,79.5574,0.034818
6.341,79.5107,0.034818
6.373,79.4639,0.034818
6.403,79.4183,0.034818
6.434,79.3721,0.036268
6.466,79.3238,0.036268
6.498,79.2766,0.036268
6.529,79.2291,0.036268
6.560,79.1819,0.036268
6.592,79.1341,0.036268
6.623,79.0889,0.036268
6.653,79.0437,0.022698
6.684,78.9952,0.022698
6.716,78.9480,0.022698
6.747,78.9017,0.022698
6.779,78.8541,0.022698
6.810,78.8072,0.022698
6.839,78.7629,0.022698
6.871,78.7158,0.022698
6.903,78.6679,0.011405
6.934,78.6219,0.011405
6.965,78.5746,0.011405
6.996,78.5283,0.011405
7.028,78.4817,0.011405
7.058,78.4353,0.011405
7.089,78.3893,0.011405
7.121,78.3408,0.011405
7.151,78.2964,0.011405
7.184,78.2459,0.010333
7.213,78.2037,0.010333
7.244,78.1565,0.010333
7.275,78.1098,0.010333
7.305,78.0647,0.010333
7.335,78.0195,0.010333
7.366,77.9733,0.010333
7.399,77.9239,0.010333
7.429,77.8787,0.009533
7.460,77.8312,0.009533
7.492,77.7864,0.009533
7.523,77.7402,0.009533
7.555,77.6939,0.009533
7.585,77.6512,0.009533
7.616,77.6082,0.009533
7.647,77.5672,0.009533
7.678,77.5246,0.008949
7.709,77.4840,0.008949
7.740,77.4437,0.008949
7.772,77.4039,0.008949
7.803,77.3636,0.008949
7.835,77.3258,0.008949
7.867,77.2879,0.008949
7.897,77.2523,0.008328
7.928,77.2171,0.008328
7.958,77.1823,0.008328
7.989,77.1485,0.008328
8.021,77.1139,0.008328
8.052,77.0809,0.008328
8.084,77.0478,0.008328
8.115,77.0161,0.008328
8.146,76.9854,0.007811
8.178,76.9556,0.007811
8.208,76.9278,0.007811
8.239,76.8983,0.007811
8.271,76.8708,0.007811
8.301,76.8439,0.007811
8.332,76.8186,0.007811
8.364,76.7915,0.007811
8.394,76.7678,0.007811
8.426,76.7430,0.007481
8.458,76.7195,0.007481
8.490,76.6958,0.007481
8.520,76.6746,0.007481
8.550,76.6544,0.007481
8.582,76.6338,0.007481
8.612,76.6139,0.007481
8.644,76.5948,0.007114
8.674,76.5768,0.007114
8.706,76.5594,0.007114
8.736,76.5432,0.007114
8.768,76.5268,0.007114
8.799,76.5115,0.007114
8.831,76.4968,0.007114
8.862,76.4828,0.007114
8.893,76.4696,0.006851
8.924,76.4573,0.006851
8.955,76.4459,0.006851
8.985,76.4353,0.006851
9.016,76.4250,0.006851
9.047,76.4156,0.006851
9.079,76.4067,0.006851
9.109,76.3991,0.006851
9.140,76.3917,0.006851
9.170,76.3854,0.006644
9.201,76.3798,0.006644
9.232,76.3746,0.006644
9.263,76.3704,0.006644
9.294,76.3667,0.006644
9.324,76.3638,0.006644
9.355,76.3617,0.006644
9.387,76.3601,0.006644
9.418,76.3595,0.006465
9.451,76.3594,0.006465
9.480,76.3594,0.006465
9.514,76.3594,0.006465
9.542,76.3594,0.006465
9.574,76.3594,0.006465
9.603,76.3594,0.006465
9.634,76.3594,0.006352
9.665,76.3600,0.006352
9.696,76.3615,0.006352
9.727,76.3636,0.006352
9.759,76.3664,0.006352
9.789,76.3700,0.006352
9.819,76.3741,0.006352
9.851,76.3792,0.006352
9.881,76.3849,0.006352
9.912,76.3914,0.006230
9.943,76.3982,0.006230
9.973,76.4063,0.006230
10.005,76.4148,0.006230
10.036,76.4244,0.006230
10.068,76.4345,0.006230
10.099,76.4454,0.006230
10.129,76.4569,0.006230
10.161,76.4696,0.006051
10.192,76.4823,0.006051
10.223,76.4964,0.006051
10.254,76.5104,0.006051
10.285,76.5261,0.006051
10.316,76.5421,0.006051
10.348,76.5592,0.006051
10.378,76.5763,0.006051
10.410,76.5941,0.005919
10.441,76.6132,0.005919
10.472,76.6328,0.005919
10.503,76.6536,0.005919
10.534,76.6746,0.005919
10.565,76.6968,0.005919
10.596,76.7184,0.005919
10.628,76.7421,0.005919
10.660,76.7670,0.005919
10.691,76.7915,0.005778
10.721,76.8166,0.005778
10.752,76.8429,0.005778
10.783,76.8700,0.005778
10.815,76.8979,0.005778
10.846,76.9260,0.005778
10.876,76.9549,0.005778
10.907,76.9854,0.005656
10.939,77.0158,0.005656
10.970,77.0473,0.005656
11.001,77.0792,0.005656
11.032,77.1119,0.005656
11.063,77.1454,0.005656
11.094,77.1805,0.005656
11.125,77.2150,0.005656
11.156,77.2507,0.005580
11.188,77.2879,0.005580
11.219,77.3258,0.005580
11.251,77.3645,0.005580
11.281,77.4014,0.005580
11.312,77.4412,0.005580
11.343,77.4807,0.005580
11.375,77.5235,0.005580
11.407,77.5650,0.005496
11.438,77.6070,0.005496
11.469,77.6502,0.005496
11.500,77.6937,0.005496
11.530,77.7379,0.005496
11.561,77.7828,0.005496
11.593,77.8303,0.005496
11.624,77.8764,0.005496
11.657,77.9273,0.005496
11.686,77.9694,0.005496
11.717,78.0148,0.005307
11.747,78.0611,0.005307
11.777,78.1054,0.005307
11.809,78.1541,0.005307
11.840,78.2002,0.005307
11.874,78.2516,0.005307
11.903,78.2945,0.005307
11.934,78.3418,0.005223
11.965,78.3879,0.005223
11.996,78.4352,0.005223
12.027,78.4809,0.005223
12.059,78.5285,0.005223
12.088,78.5731,0.005223
12.119,78.6194,0.005223
12.151,78.6670,0.005223
12.181,78.7121,0.005147
12.213,78.7596,0.005147
12.243,78.8039,0.005147
12.274,78.8520,0.005147
12.306,78.8996,0.005147
12.337,78.9463,0.005147
12.367,78.9904,0.005147
12.398,79.0379,0.004865
12.430,79.0847,0.004865
12.461,79.1313,0.004865
12.491,79.1762,0.004865
12.521,79.2222,0.004865
12.553,79.2701,0.004865
12.583,79.3150,0.004865
12.615,79.3623,0.004865
12.646,79.4090,0.004319
12.677,79.4555,0.004319
12.708,79.5020,0.004319
12.739,79.5495,0.004319
12.771,79.5975,0.004319
12.802,79.6429,0.004319
12.832,79.6888,0.004319
12.863,79.7348,0.004319
12.894,79.7813,0.003265
12.925,79.8286,0.003265
12.956,79.8756,0.003265
12.987,79.9205,0.003265
13.019,79.9667,0.003265
13.050,80.0116,0.003265
13.081,80.0561,0.003265
13.111,80.0987,0.003265
13.142,80.1400,0.001572
13.173,80.1821,0.001572
13.204,80.2222,0.001572
13.234,80.2629,0.001572
13.266,80.3021,0.001572
13.297,80.3418,0.001572
13.327,80.3786,0.001572
13.358,80.4167,0.001572
13.389,80.4524,-0.000348
13.423,80.4922,-0.000348
13.451,80.5235,-0.000348
13.482,80.5583,-0.000348
13.512,80.5908,-0.000348
13.543,80.6244,-0.000348
13.574,80.6560,-0.000348
13.604,80.6869,-0.000348
13.637,80.7200,-0.002296
13.666,80.7477,-0.002296
13.700,80.7807,-0.002296
13.728,80.8062,-0.002296
13.759,80.8343,-0.002296
13.790,80.8613,-0.002296
13.821,80.8886,-0.002296
13.852,80.9143,-0.002296
13.883,80.9392,-0.002296
13.915,80.9637,-0.004677
13.945,80.9871,-0.004677
13.976,81.0096,-0.004677
14.006,81.0316,-0.004677
14.037,81.0529,-0.004677
14.068,81.0742,-0.004677
14.099,81.0943,-0.004677
14.130,81.1133,-0.004677
14.162,81.1318,-0.007924
14.193,81.1500,-0.007924
14.224,81.1670,-0.007924
14.255,81.1834,-0.007924
14.286,81.1990,-0.007924
14.317,81.2143,-0.007924
14.348,81.2280,-0.007924
14.379,81.2419,-0.007924
14.409,81.2540,-0.012290
14.441,81.2662,-0.012290
14.472,81.2774,-0.012290
14.502,81.2878,-0.012290
14.533,81.2976,-0.012290
14.563,81.3067,-0.012290
14.595,81.3150,-0.012290
14.627,81.3229,-0.012290
14.656,81.3294,-0.016798
14.687,81.3357,-0.016798
14.718,81.3413,-0.016798
14.749,81.3461,-0.016798
14.780,81.3502,-0.016798
14.811,81.3534,-0.016798
14.842,81.3560,-0.016798
14.878,81.3581,-0.016798
14.919,81.3593,-0.016798
14.950,81.3594,-0.019517
14.980,81.3594,-0.019517
15.012,81.3594,-0.019517
15.042,81.3594,-0.019517
15.073,81.3594,-0.019517
15.103,81.3594,-0.019517
15.134,81.3594,-0.019517
15.165,81.3594,-0.019169
15.196,81.3594,-0.019169
15.228,81.3594,-0.019169
15.259,81.3594,-0.019169
15.290,81.3594,-0.019169
15.321,81.3594,-0.019169
15.352,81.3594,-0.019169
15.383,81.3594,-0.019169
15.414,81.3594,-0.017400
15.445,81.3594,-0.017400
15.476,81.3594,-0.017400
15.508,81.3594,-0.017400
15.538,81.3594,-0.017400
15.569,81.3594,-0.017400
15.601,81.3594,-0.017400
15.631,81.3594,-0.017400
15.662,81.3594,-0.016054
15.694,81.3594,-0.016054
15.724,81.3594,-0.016054
15.756,81.3594,-0.016054
15.788,81.3594,-0.016054
15.818,81.3594,-0.016054
15.848,81.3594,-0.016054
15.880,81.3594,-0.016054
15.911,81.3594,-0.015075
15.943,81.3594,-0.015075
15.973,81.3594,-0.015075
16.004,81.3594,-0.015075
16.036,81.3594,-0.015075
16.066,81.3594,-0.015075
16.097,81.3594,-0.015075
16.129,81.3594,-0.015075
16.160,81.3594,-0.014341
16.190,81.3594,-0.014341
16.221,81.3594,-0.014341
16.252,81.3594,-0.014341
16.284,81.3594,-0.014341
16.315,81.3594,-0.014341
16.345,81.3594,-0.014341
16.377,81.3594,-0.014341
16.409,81.3594,-0.013786
16.439,81.3594,-0.013786
16.471,81.3594,-0.013786
16.502,81.3594,-0.013786
16.533,81.3594,-0.013786
16.565,81.3594,-0.013786
16.595,81.3594,-0.013786
16.626,81.3594,-0.013786
16.657,81.3594,-0.013316
16.688,81.3594,-0.013316
16.719,81.3594,-0.013316
16.751,81.3594,-0.013316
16.780,81.3594,-0.013316
16.811,81.3594,-0.013316
16.842,81.3594,-0.013316
16.873,81.3594,-0.013316
16.904,81.3594,-0.012883
16.934,81.3594,-0.012883
16.965,81.3594,-0.012883
16.996,81.3594,-0.012883
17.028,81.3594,-0.012883
17.059,81.3594,-0.012883
17.091,81.3594,-0.012883
17.122,81.3594,-0.012883
17.153,81.3594,-0.012883
17.184,81.3594,-0.012553
17.215,81.3594,-0.012553
17.246,81.3594,-0.012553
17.276,81.3594,-0.012553
17.307,81.3594,-0.012553
17.338,81.3594,-0.012553
17.370,81.3594,-0.012553
17.400,81.3594,-0.012252
17.430,81.3594,-0.012252
17.461,81.3594,-0.012252
17.496,81.3594,-0.012252
17.524,81.3594,-0.012252
17.555,81.3594,-0.012252
17.586,81.3594,-0.012252
17.622,81.3594,-0.012252
17.663,81.3594,-0.012252
17.693,81.3594,-0.011951
17.723,81.3594,-0.011951
17.754,81.3594,-0.011951
17.785,81.3594,-0.011951
17.816,81.3594,-0.011951
17.849,81.3594,-0.011951
17.879,81.3594,-0.011951
17.910,81.3594,-0.011707
17.942,81.3594,-0.011707
17.973,81.3594,-0.011707
18.004,81.3594,-0.011707
18.035,81.3594,-0.011707
18.066,81.3594,-0.011707
18.097,81.3594,-0.011707
18.128,81.3594,-0.011462
18.159,81.3594,-0.011462
18.190,81.3594,-0.011462
18.221,81.3594,-0.011462
18.253,81.3594,-0.011462
18.283,81.3594,-0.011462
18.314,81.3594,-0.011462
18.344,81.3594,-0.011462
18.376,81.3594,-0.011255
18.408,81.3594,-0.011255
18.438,81.3594,-0.011255
18.469,81.3594,-0.011255
18.499,81.3594,-0.011255
18.531,81.3594,-0.011255
18.562,81.3594,-0.011255
18.592,81.3594,-0.011255
18.624,81.3594,-0.011255
18.656,81.3594,-0.011057
18.687,81.3594,-0.011057
18.717,81.3594,-0.011057
18.752,81.3594,-0.011057
18.779,81.3594,-0.011057
18.811,81.3594,-0.011057
18.841,81.3594,-0.011057
18.872,81.3594,-0.011057
18.903,81.3594,-0.010841
18.935,81.3594,-0.010841
18.966,81.3594,-0.010841
18.997,81.3594,-0.010841
19.028,81.3594,-0.010841
19.059,81.3594,-0.010841
19.089,81.3594,-0.010841
19.121,81.3594,-0.010841
19.152,81.3594,-0.010634
19.182,81.3589,-0.010634
19.214,81.3578,-0.010634
19.244,81.3559,-0.010634
19.276,81.3533,-0.010634
19.307,81.3498,-0.010634
19.338,81.3456,-0.010634
19.369,81.3408,-0.010634
19.400,81.3352,-0.010417
19.432,81.3289,-0.010417
19.464,81.3215,-0.010417
19.493,81.3144,-0.010417
19.524,81.3058,-0.010417
19.555,81.2967,-0.010417
19.586,81.2866,-0.010417
19.616,81.2762,-0.010417
19.647,81.2651,-0.007199
19.678,81.2532,-0.007199
19.709,81.2401,-0.007199
19.740,81.2268,-0.007199
19.772,81.2119,-0.007199
19.803,81.1970,-0.007199
19.834,81.1808,-0.007199
19.865,81.1649,-0.007199
19.897,81.1469,0.000386
19.928,81.1294,0.000386
19.958,81.1106,0.000386
19.989,81.0917,0.000386
20.021,81.0710,0.000386
20.051,81.0509,0.000386
20.082,81.0287,0.000386
20.113,81.0068,0.000386
20.144,80.9835,0.000386
20.175,80.9603,0.008799
20.206,80.9360,0.008799
20.236,80.9113,0.008799
20.267,80.8854,0.008799
20.298,80.8586,0.008799
20.329,80.8315,0.008799
20.360,80.8039,0.008799
20.391,80.7744,0.008799
20.421,80.7462,0.008799
20.453,80.7149,0.015066
20.484,80.6833,0.015066
20.514,80.6527,0.015066
20.545,80.6216,0.015066
20.578,80.5850,0.015066
20.607,80.5533,0.015066
20.638,80.5181,0.015066
20.670,80.4834,0.019310
20.700,80.4473,0.019310
20.732,80.4099,0.019310
20.765,80.3704,0.019310
20.793,80.3344,0.019310
20.825,80.2948,0.019310
20.857,80.2547,0.019310
20.887,80.2149,0.019310
20.917,80.1736,0.024938
20.948,80.1330,0.024938
20.980,80.0888,0.024938
21.011,80.0453,0.024938
21.043,80.0000,0.024938
21.074,79.9559,0.024938
21.106,79.9083,0.024938
21.137,79.8619,0.033303
21.168,79.8149,0.033303
21.199,79.7684,0.033303
21.230,79.7215,0.033303
21.260,79.6771,0.033303
21.292,79.6301,0.033303
21.323,79.5826,0.033303
21.354,79.5372,0.033303
21.386,79.4895,0.033303
21.417,79.4428,0.039957
21.448,79.3947,0.039957
21.479,79.3498,0.039957
21.509,79.3043,0.039957
21.540,79.2578,0.039957
21.571,79.2112,0.039957
21.602,79.1650,0.039957
21.632,79.1191,0.039957
21.663,79.0734,0.027365
21.697,79.0219,0.027365
21.725,78.9787,0.027365
21.757,78.9324,0.027365
21.788,78.8865,0.027365
21.819,78.8391,0.027365
21.850,78.7912,0.027365
21.881,78.7464,0.027365
21.912,78.6999,0.011885
21.947,78.6464,0.011885
21.974,78.6073,0.011885
22.005,78.5597,0.011885
22.036,78.5133,0.011885
22.067,78.4679,0.011885
22.097,78.4220,0.011885
22.129,78.3743,0.011885
22.160,78.3282,0.010493
22.191,78.2819,0.010493
22.222,78.2352,0.010493
22.255,78.1852,0.010493
22.284,78.1423,0.010493
22.315,78.0950,0.010493
22.346,78.0492,0.010493
22.378,78.0007,0.010493
22.408,77.9553,0.009721
22.440,77.9079,0.009721
22.471,77.8608,0.009721
22.502,77.8150,0.009721
22.532,77.7689,0.009721
22.569,77.7157,0.009721
22.595,77.6775,0.009721
22.627,77.6326,0.009721
22.656,77.5904,0.009721
22.687,77.5474,0.009053
22.719,77.5055,0.009053
22.749,77.4643,0.009053
22.779,77.4252,0.009053
22.811,77.3837,0.009053
22.841,77.3462,0.009053
22.874,77.3054,0.009053
22.903,77.2701,0.008526
22.933,77.2337,0.008526
22.965,77.1976,0.008526
22.995,77.1625,0.008526
23.026,77.1268,0.008526
23.057,77.0928,0.008526
23.089,77.0592,0.008526
23.119,77.0272,0.008526
23.150,76.9954,0.007942
23.181,76.9632,0.007942
23.212,76.9340,0.007942
23.243,76.9043,0.007942
23.275,76.8747,0.007942
23.304,76.8470,0.007942
23.335,76.8200,0.007942
23.367,76.7922,0.007942
23.398,76.7662,0.007481
23.434,76.7366,0.007481
23.460,76.7161,0.007481
23.491,76.6918,0.007481
23.523,76.6683,0.007481
23.553,76.6457,0.007481
23.584,76.6244,0.007481
23.616,76.6030,0.007481
23.647,76.5820,0.007199
23.678,76.5628,0.007199
23.709,76.5438,0.007199
23.740,76.5254,0.007199
23.771,76.5081,0.007199
23.803,76.4916,0.007199
23.836,76.4745,0.007199
23.865,76.4603,0.007199
23.898,76.4446,0.007199
23.927,76.4322,0.006935
23.959,76.4187,0.006935
23.990,76.4066,0.006935
24.021,76.3946,0.006935
24.052,76.3841,0.006935
24.083,76.3740,0.006935
24.114,76.3646,0.006935
24.145,76.3559,0.006719
24.176,76.3483,0.006719
24.207,76.3410,0.006719
24.238,76.3347,0.006719
24.270,76.3289,0.006719
24.298,76.3241,0.006719
24.331,76.3197,0.006719
24.363,76.3161,0.006719
24.394,76.3134,0.006465
24.424,76.3114,0.006465
24.456,76.3100,0.006465
24.486,76.3094,0.006465
24.518,76.3094,0.006465
24.549,76.3094,0.006465
24.581,76.3094,0.006465
24.612,76.3094,0.006465
24.643,76.3094,0.006465
24.673,76.3095,0.006343
24.704,76.3103,0.006343
24.735,76.3119,0.006343
24.767,76.3141,0.006343
24.798,76.3171,0.006343
24.828,76.3207,0.006343
24.860,76.3251,0.006343
24.891,76.3303,0.006343
24.922,76.3362,0.006220
24.953,76.3430,0.006220
24.984,76.3502,0.006220
25.015,76.3583,0.006220
25.045,76.3668,0.006220
25.077,76.3766,0.006220
25.108,76.3868,0.006220
25.139,76.3979,0.006013
25.170,76.4094,0.006013
25.201,76.4220,0.006013
25.232,76.4354,0.006013
25.263,76.4493,0.006013
25.295,76.4643,0.006013
25.326,76.4797,0.006013
25.357,76.4958,0.006013
25.387,76.5122,0.005853
25.419,76.5305,0.005853
25.451,76.5488,0.005853
25.482,76.5683,0.005853
25.513,76.5874,0.005853
25.544,76.6082,0.005853
25.575,76.6291,0.005853
25.606,76.6516,0.005853
25.636,76.6735,0.005684
25.668,76.6972,0.005684
25.699,76.7214,0.005684
25.730,76.7468,0.005684
25.762,76.7731,0.005684
25.792,76.7984,0.005684
25.823,76.8250,0.005684
25.853,76.8522,0.005684
25.885,76.8811,0.005684
25.916,76.9104,0.005562
25.946,76.9392,0.005562
25.976,76.9692,0.005562
26.007,77.0011,0.005562
26.039,77.0338,0.005562
26.070,77.0662,0.005562
26.101,77.1005,0.005562
26.132,77.1348,0.005533
26.164,77.1702,0.005533
26.194,77.2055,0.005533
26.225,77.2422,0.005533
26.256,77.2790,0.005533
26.287,77.3173,0.005533
26.319,77.3561,0.005533
26.349,77.3951,0.005533
26.380,77.4364,0.005355
26.411,77.4760,0.005355
26.442,77.5170,0.005355
26.473,77.5597,0.005355
26.504,77.6022,0.005355
26.535,77.6459,0.005355
26.566,77.6904,0.005355
26.596,77.7355,0.005355
26.626,77.7797,0.005251
26.658,77.8273,0.005251
26.688,77.8730,0.005251
26.719,77.9178,0.005251
26.750,77.9652,0.005251
26.780,78.0106,0.005251
26.814,78.0615,0.005251
26.843,78.1045,0.005251
26.874,78.1504,0.005251
26.904,78.1959,0.005185
26.934,78.2427,0.005185
26.966,78.2884,0.005185
26.997,78.3349,0.005185
27.027,78.3800,0.005185
27.058,78.4285,0.005185
27.088,78.4729,0.005185
27.119,78.5194,0.005185
27.150,78.5657,0.005185
27.181,78.6120,0.005119
27.212,78.6574,0.005119
27.245,78.7074,0.005119
27.273,78.7503,0.005119
27.305,78.7975,0.005119
27.335,78.8438,0.005119
27.367,78.8906,0.005119
27.398,78.9373,0.004931
27.428,78.9823,0.004931
27.460,79.0305,0.004931
27.491,79.0775,0.004931
27.523,79.1247,0.004931
27.553,79.1704,0.004931
27.584,79.2150,0.004931
27.615,79.2623,0.004931
27.646,79.3083,0.004470
27.678,79.3568,0.004470
27.709,79.4028,0.004470
27.739,79.4483,0.004470
27.771,79.4958,0.004470
27.802,79.5435,0.004470
27.833,79.5894,0.004470
27.864,79.6361,0.004470
27.894,79.6812,0.003567
27.925,79.7285,0.003567
27.955,79.7720,0.003567
27.985,79.8176,0.003567
28.017,79.8654,0.003567
28.047,79.9102,0.003567
28.078,79.9548,0.003567
28.108,79.9981,0.003567
28.139,80.0398,0.002051
28.170,80.0835,0.002051
28.202,80.1255,0.002051
28.232,80.1666,0.002051
28.264,80.2066,0.002051
28.295,80.2468,0.002051
28.326,80.2862,0.002051
28.358,80.3255,0.002051
28.388,80.3624,0.000141
28.419,80.3989,0.000141
28.450,80.4339,0.000141
28.481,80.4700,0.000141
28.512,80.5047,0.000141
28.544,80.5391,0.000141
28.576,80.5729,0.000141
28.606,80.6042,0.000141
28.637,80.6367,-0.001779
28.668,80.6676,-0.001779
28.698,80.6976,-0.001779
28.730,80.7271,-0.001779
28.761,80.7560,-0.001779
28.792,80.7834,-0.001779
28.822,80.8106,-0.001779
28.853,80.8374,-0.001779
28.885,80.8641,-0.004112
28.916,80.8892,-0.004112
28.948,80.9140,-0.004112
28.979,80.9381,-0.004112
29.010,80.9601,-0.004112
29.041,80.9830,-0.004112
29.072,81.0036,-0.004112
29.104,81.0254,-0.004112
29.134,81.0447,-0.007406
29.166,81.0642,-0.007406
29.196,81.0821,-0.007406
29.227,81.1000,-0.007406
29.257,81.1170,-0.007406
29.289,81.1334,-0.007406
29.319,81.1489,-0.007406
29.351,81.1643,-0.007406
29.388,81.1812,-0.011763
29.413,81.1918,-0.011763
29.445,81.2048,-0.011763
29.475,81.2165,-0.011763
29.506,81.2277,-0.011763
29.537,81.2385,-0.011763
29.569,81.2485,-0.011763
29.600,81.2574,-0.011763
29.631,81.2656,-0.016525
29.661,81.2733,-0.016525
29.692,81.2801,-0.016525
29.723,81.2863,-0.016525
29.754,81.2917,-0.016525
29.785,81.2964,-0.016525
29.816,81.3005,-0.016525
29.846,81.3036,-0.016525
29.877,81.3060,-0.016525
29.908,81.3079,-0.019799
29.939,81.3090,-0.019799
29.971,81.3094,-0.019799
30.000,81.3094,-0.019799
30.032,81.3094,-0.019799
30.065,81.3094,-0.019799
30.094,81.3094,-0.019799
30.125,81.3094,-0.019799
30.156,81.3094,-0.019941
30.188,81.3094,-0.019941
30.218,81.3094,-0.019941
30.249,81.3094,-0.019941
30.279,81.3094,-0.019941
30.311,81.3094,-0.019941
30.342,81.3094,-0.019941
30.374,81.3094,-0.019941
30.404,81.3094,-0.018153
30.436,81.3094,-0.018153
30.466,81.3094,-0.018153
30.498,81.3094,-0.018153
30.529,81.3094,-0.018153
30.559,81.3094,-0.018153
30.591,81.3094,-0.018153
30.621,81.3094,-0.018153
30.652,81.3094,-0.016675
30.683,81.3094,-0.016675
30.714,81.3094,-0.016675
30.746,81.3094,-0.016675
30.778,81.3094,-0.016675
30.809,81.3094,-0.016675
30.839,81.3094,-0.016675
30.871,81.3094,-0.016675
30.901,81.3094,-0.015621
30.931,81.3094,-0.015621
30.965,81.3094,-0.015621
30.993,81.3094,-0.015621
31.025,81.3094,-0.015621
31.054,81.3094,-0.015621
31.084,81.3094,-0.015621
31.115,81.3094,-0.014897
31.146,81.3094,-0.014897
31.177,81.3094,-0.014897
31.208,81.3094,-0.014897
31.239,81.3094,-0.014897
31.271,81.3094,-0.014897
31.302,81.3094,-0.014897
31.333,81.3094,-0.014897
31.364,81.3094,-0.014897
31.394,81.3094,-0.014247
31.424,81.3094,-0.014247
31.455,81.3094,-0.014247
31.486,81.3094,-0.014247
31.518,81.3094,-0.014247
31.548,81.3094,-0.014247
31.578,81.3094,-0.014247
31.609,81.3094,-0.014247
31.640,81.3094,-0.014247
31.671,81.3094,-0.013739
31.703,81.3094,-0.013739
31.734,81.3094,-0.013739
31.765,81.3094,-0.013739
31.794,81.3094,-0.013739
31.828,81.3094,-0.013739
31.857,81.3094,-0.013739
31.885,81.3094,-0.013382
31.918,81.3094,-0.013382
31.949,81.3094,-0.013382
31.981,81.3094,-0.013382
32.012,81.3094,-0.013382
32.043,81.3094,-0.013382
32.075,81.3094,-0.013382
32.105,81.3094,-0.013382
32.137,81.3094,-0.012977
32.168,81.3094,-0.012977
32.198,81.3094,-0.012977
32.230,81.3094,-0.012977
32.261,81.3094,-0.012977
32.293,81.3094,-0.012977
32.322,81.3094,-0.012977
32.354,81.3094,-0.012977
32.388,81.3094,-0.012977
32.417,81.3094,-0.012977
32.448,81.3094,-0.012676
32.479,81.3094,-0.012676
32.512,81.3094,-0.012676
32.541,81.3094,-0.012676
32.571,81.3094,-0.012676
32.603,81.3094,-0.012676
32.633,81.3094,-0.012676
32.665,81.3094,-0.012403
32.695,81.3094,-0.012403
32.726,81.3094,-0.012403
32.757,81.3094,-0.012403
32.789,81.3094,-0.012403
32.819,81.3094,-0.012403
32.849,81.3094,-0.012403
32.881,81.3094,-0.012403
32.911,81.3094,-0.012177
32.943,81.3094,-0.012177
32.973,81.3094,-0.012177
33.004,81.3094,-0.012177
33.035,81.3094,-0.012177
33.067,81.3094,-0.012177
33.098,81.3094,-0.012177
33.128,81.3094,-0.012177
33.160,81.3094,-0.011895
33.191,81.3094,-0.011895
33.221,81.3094,-0.011895
33.252,81.3094,-0.011895
33.283,81.3094,-0.011895
33.314,81.3094,-0.011895
33.345,81.3094,-0.011895
33.376,81.3094,-0.011895
33.408,81.3094,-0.011641
33.439,81.3094,-0.011641
33.470,81.3094,-0.011641
33.501,81.3094,-0.011641
33.532,81.3094,-0.011641
33.564,81.3094,-0.011641
33.594,81.3094,-0.011641
33.625,81.3094,-0.011641
33.657,81.3094,-0.011471
33.689,81.3094,-0.011471
33.719,81.3094,-0.011471
33.750,81.3094,-0.011471
33.782,81.3094,-0.011471
33.812,81.3094,-0.011471
33.843,81.3094,-0.011471
33.874,81.3094,-0.011471
33.905,81.3094,-0.011274
33.935,81.3094,-0.011274
33.966,81.3094,-0.011274
33.998,81.3094,-0.011274
34.029,81.3094,-0.011274
34.060,81.3094,-0.011274
34.091,81.3094,-0.011274
34.122,81.3094,-0.011274
34.153,81.3094,-0.011104
34.184,81.3094,-0.011104
34.214,81.3094,-0.011104
34.244,81.3094,-0.011104
34.276,81.3094,-0.011104
34.307,81.3094,-0.011104
34.338,81.3094,-0.011104
34.369,81.3094,-0.011104
34.400,81.3094,-0.010991
34.432,81.3094,-0.010991
34.462,81.3094,-0.010991
34.493,81.3094,-0.010991
34.524,81.3094,-0.010991
34.555,81.3094,-0.010991
34.586,81.3094,-0.010991
34.617,81.3094,-0.010991
34.648,81.3094,-0.010991
34.680,81.3094,-0.010831
34.711,81.3094,-0.010831
34.742,81.3094,-0.010831
34.774,81.3094,-0.010831
34.805,81.3094,-0.010831
34.836,81.3094,-0.010831
34.866,81.3094,-0.010831
34.898,81.3094,-0.010831
34.929,81.3094,-0.010662
34.959,81.3094,-0.010662
34.990,81.3094,-0.010662
35.021,81.3086,-0.010662
35.053,81.3073,-0.010662
35.083,81.3053,-0.010662
35.114,81.3024,-0.010662
35.146,81.2989,-0.010662
35.178,81.2944,-0.010549
35.207,81.2894,-0.010549
35.238,81.2838,-0.010549
35.269,81.2774,-0.010549
35.300,81.2703,-0.010549
35.331,81.2623,-0.010549
35.362,81.2537,-0.010549
35.393,81.2443,-0.010549
35.425,81.2339,-0.008300
35.455,81.2234,-0.008300
35.486,81.2118,-0.008300
35.518,81.1991,-0.008300
35.549,81.1865,-0.008300
35.580,81.1721,-0.008300
35.611,81.1581,-0.008300
35.643,81.1422,-0.001976
35.675,81.1256,-0.001976
35.706,81.1087,-0.001976
35.737,81.0916,-0.001976
35.770,81.0726,-0.001976
35.801,81.0532,-0.001976
35.830,81.0348,-0.001976
35.860,81.0151,-0.001976
35.890,80.9949,-0.001976
35.921,80.9734,0.006390
35.952,80.9501,0.006390
35.983,80.9270,0.006390
36.015,80.9026,0.006390
36.046,80.8782,0.006390
36.079,80.8513,0.006390
36.109,80.8258,0.006390
36.141,80.7978,0.013419
36.172,80.7704,0.013419
36.203,80.7410,0.013419
36.234,80.7117,0.013419
36.266,80.6811,0.013419
36.296,80.6523,0.013419
36.329,80.6186,0.013419
36.360,80.5870,0.013419
36.391,80.5536,0.013419
36.422,80.5202,0.017946
36.454,80.4858,0.017946
36.485,80.4503,0.017946
36.516,80.4147,0.017946
36.548,80.3755,0.017946
36.577,80.3421,0.017946
36.608,80.3033,0.017946
36.640,80.2650,0.022670
36.671,80.2247,0.022670
36.702,80.1857,0.022670
36.735,80.1418,0.022670
36.763,80.1040,0.022670
36.796,80.0589,0.022670
36.827,80.0160,0.022670
36.858,79.9729,0.022670
36.889,79.9276,0.030254
36.919,79.8824,0.030254
36.951,79.8376,0.030254
36.981,79.7901,0.030254
37.012,79.7448,0.030254
37.047,79.6899,0.030254
37.074,79.6529,0.030254
37.105,79.6061,0.030254
37.136,79.5598,0.038310
37.166,79.5138,0.038310
37.199,79.4639,0.038310
37.228,79.4209,0.038310
37.259,79.3729,0.038310
37.290,79.3270,0.038310
37.321,79.2812,0.038310
37.351,79.2366,0.038310
37.382,79.1890,0.038310
37.414,79.1420,0.029153
37.445,79.0941,0.029153
37.475,79.0504,0.029153
37.506,79.0034,0.029153
37.538,78.9572,0.029153
37.569,78.9102,0.029153
37.600,78.8634,0.029153
37.630,78.8179,0.013824
37.661,78.7706,0.013824
37.692,78.7246,0.013824
37.724,78.6769,0.013824
37.755,78.6307,0.013824
37.786,78.5837,0.013824
37.817,78.5382,0.013824
37.847,78.4911,0.013824
37.879,78.4452,0.013824
37.910,78.3979,0.010653
37.940,78.3535,0.010653
37.970,78.3065,0.010653
38.001,78.2619,0.010653
38.033,78.2128,0.010653
38.065,78.1656,0.010653
38.096,78.1195,0.010653
38.129,78.0692,0.009834
38.157,78.0280,0.009834
38.187,77.9815,0.009834
38.218,77.9350,0.009834
38.250,77.8870,0.009834
38.280,77.8436,0.009834
38.311,77.7959,0.009834
38.342,77.7505,0.009834
38.374,77.7014,0.009834
38.406,77.6552,0.009834
38.438,77.6099,0.009222
38.470,77.5646,0.009222
38.500,77.5213,0.009222
38.531,77.4803,0.009222
38.563,77.4364,0.009222
38.593,77.3966,0.009222
38.624,77.3568,0.009222
38.655,77.3175,0.008601
38.686,77.2784,0.008601
38.717,77.2407,0.008601
38.748,77.2030,0.008601
38.778,77.1659,0.008601
38.809,77.1313,0.008601
38.839,77.0967,0.008601
38.870,77.0620,0.008601
38.901,77.0288,0.007999
38.932,76.9957,0.007999
38.963,76.9626,0.007999
38.994,76.9316,0.007999
39.025,76.9004,0.007999
39.056,76.8699,0.007999
39.088,76.8403,0.007999
39.119,76.8111,0.007999
39.150,76.7830,0.007547
39.181,76.7556,0.007547
39.213,76.7288,0.007547
39.244,76.7025,0.007547
39.274,76.6785,0.007547
39.309,76.6506,0.007547
39.336,76.6306,0.007547
39.368,76.6072,0.007547
39.399,76.5851,0.007218
39.430,76.5636,0.007218
39.461,76.5428,0.007218
39.491,76.5238,0.007218
39.522,76.5042,0.007218
39.554,76.4853,0.007218
39.585,76.4675,0.007218
39.616,76.4505,0.007218
39.646,76.4345,0.006964
39.677,76.4191,0.006964
39.708,76.4043,0.006964
39.739,76.3900,0.006964
39.770,76.3765,0.006964
39.802,76.3636,0.006964
39.834,76.3513,0.006964
39.865,76.3400,0.006964
39.896,76.3296,0.006710
39.926,76.3199,0.006710
39.956,76.3112,0.006710
39.987,76.3031,0.006710
40.019,76.2951,0.006710
40.050,76.2883,0.006710
40.081,76.2822,0.006710
40.113,76.2765,0.006710
40.143,76.2722,0.006474
40.174,76.2682,0.006474
40.205,76.2650,0.006474
40.236,76.2624,0.006474
40.267,76.2606,0.006474
40.299,76.2595,0.006474
40.329,76.2593,0.006474
40.360,76.2593,0.006474
40.391,76.2593,0.006286
40.421,76.2593,0.006286
40.452,76.2593,0.006286
40.483,76.2597,0.006286
40.514,76.2608,0.006286
40.544,76.2626,0.006286
40.575,76.2651,0.006286
40.606,76.2686,0.006286
40.637,76.2724,0.006286
40.668,76.2774,0.006164
40.699,76.2828,0.006164
40.731,76.2892,0.006164
40.760,76.2956,0.006164
40.791,76.3034,0.006164
40.822,76.3119,0.006164
40.855,76.3214,0.006164
40.884,76.3308,0.006023
40.915,76.3410,0.006023
40.946,76.3523,0.006023
40.978,76.3647,0.006023
41.008,76.3772,0.006023
41.039,76.3905,0.006023
41.070,76.4045,0.006023
41.100,76.4193,0.006023
41.131,76.4349,0.005806
41.163,76.4516,0.005806
41.193,76.4683,0.005806
41.225,76.4862,0.005806
41.255,76.5045,0.005806
41.287,76.5243,0.005806
41.318,76.5442,0.005806
41.348,76.5645,0.005806
41.379,76.5856,0.005674
41.409,76.6075,0.005674
41.441,76.6307,0.005674
41.472,76.6547,0.005674
41.504,76.6791,0.005674
41.534,76.7038,0.005674
41.564,76.7285,0.005674
41.595,76.7557,0.005674
41.626,76.7824,0.005571
41.657,76.8104,0.005571
41.687,76.8396,0.005571
41.718,76.8685,0.005571
41.749,76.8984,0.005571
41.780,76.9295,0.005571
41.812,76.9619,0.005571
41.843,76.9936,0.005571
41.877,77.0303,0.005571
41.904,77.0589,0.005571
41.937,77.0963,0.005439
41.965,77.1284,0.005439
41.997,77.1642,0.005439
42.028,77.2014,0.005439
42.058,77.2387,0.005439
42.089,77.2768,0.005439
42.120,77.3150,0.005439
42.152,77.3560,0.005326
42.182,77.3955,0.005326
42.213,77.4369,0.005326
42.244,77.4772,0.005326
42.275,77.5211,0.005326
42.305,77.5619,0.005326
42.336,77.6063,0.005326
42.368,77.6511,0.005326
42.399,77.6972,0.005289
42.429,77.7425,0.005289
42.461,77.7891,0.005289
42.492,77.8366,0.005289
42.523,77.8829,0.005289
42.555,77.9310,0.005289
42.586,77.9768,0.005289
42.617,78.0228,0.005289
42.647,78.0690,0.005223
42.678,78.1160,0.005223
42.709,78.1625,0.005223
42.741,78.2091,0.005223
42.771,78.2556,0.005223
42.802,78.3010,0.005223
42.833,78.3485,0.005223
42.864,78.3941,0.005223
42.895,78.4415,0.005223
42.929,78.4912,0.005129
42.957,78.5337,0.005129
42.988,78.5805,0.005129
43.019,78.6269,0.005129
43.050,78.6739,0.005129
43.081,78.7194,0.005129
43.112,78.7674,0.005129
43.143,78.8130,0.004997
43.174,78.8588,0.004997
43.205,78.9052,0.004997
43.236,78.9525,0.004997
43.266,78.9969,0.004997
43.298,79.0444,0.004997
43.329,79.0912,0.004997
43.359,79.1368,0.004997
43.390,79.1834,0.004997
43.422,79.2308,0.004592
43.453,79.2771,0.004592
43.484,79.3239,0.004592
43.516,79.3717,0.004592
43.547,79.4192,0.004592
43.579,79.4665,0.004592
43.611,79.5143,0.004592
43.642,79.5608,0.003736
43.673,79.6080,0.003736
43.704,79.6547,0.003736
43.736,79.7020,0.003736
43.767,79.7491,0.003736
43.798,79.7947,0.003736
43.829,79.8411,0.003736
43.865,79.8935,0.003736
43.891,79.9301,0.003736
43.922,79.9745,0.002362
43.952,80.0153,0.002362
43.983,80.0571,0.002362
44.013,80.0969,0.002362
44.044,80.1389,0.002362
44.075,80.1788,0.002362
44.107,80.2198,0.002362
44.138,80.2569,0.000706
44.171,80.2982,0.000706
44.200,80.3322,0.000706
44.231,80.3690,0.000706
44.262,80.4039,0.000706
44.293,80.4399,0.000706
44.324,80.4737,0.000706
44.354,80.5066,0.000706
44.385,80.5397,-0.001270
44.417,80.5721,-0.001270
44.447,80.6026,-0.001270
44.479,80.6341,-0.001270
44.510,80.6641,-0.001270
44.542,80.6939,-0.001270
44.572,80.7216,-0.001270
44.604,80.7489,-0.001270
44.637,80.7784,-0.003538
44.666,80.8025,-0.003538
44.698,80.8281,-0.003538
44.729,80.8534,-0.003538
44.760,80.8772,-0.003538
44.791,80.9001,-0.003538
44.822,80.9228,-0.003538
44.853,80.9453,-0.003538
44.883,80.9649,-0.006540
44.915,80.9861,-0.006540
44.946,81.0059,-0.006540
44.976,81.0238,-0.006540
45.008,81.0422,-0.006540
45.041,81.0605,-0.006540
45.071,81.0770,-0.006540
45.101,81.0928,-0.006540
45.136,81.1097,-0.010831
45.164,81.1229,-0.010831
45.195,81.1363,-0.010831
45.226,81.1497,-0.010831
45.257,81.1616,-0.010831
45.288,81.1733,-0.010831
45.319,81.1839,-0.010831
45.348,81.1937,-0.010831
45.379,81.2031,-0.010831
45.410,81.2117,-0.015687
45.442,81.2197,-0.015687
45.473,81.2272,-0.015687
45.503,81.2335,-0.015687
45.534,81.2392,-0.015687
45.564,81.2440,-0.015687
45.595,81.2484,-0.015687
45.627,81.2521,-0.015687
45.658,81.2549,-0.019357
45.689,81.2571,-0.019357
45.719,81.2584,-0.019357
45.751,81.2592,-0.019357
45.781,81.2593,-0.019357
45.812,81.2593,-0.019357
45.843,81.2593,-0.019357
45.875,81.2593,-0.019357
45.905,81.2593,-0.020025
45.936,81.2593,-0.020025
45.967,81.2593,-0.020025
45.998,81.2593,-0.020025
46.029,81.2593,-0.020025
46.059,81.2593,-0.020025
46.090,81.2593,-0.020025
46.121,81.2593,-0.020025
46.151,81.2593,-0.020025
46.183,81.2593,-0.018567
46.213,81.2593,-0.018567
46.244,81.2593,-0.018567
46.276,81.2593,-0.018567
46.308,81.2593,-0.018567
46.337,81.2593,-0.018567
46.368,81.2593,-0.018567
46.399,81.2593,-0.016967
46.429,81.2593,-0.016967
46.460,81.2593,-0.016967
46.491,81.2593,-0.016967
46.521,81.2593,-0.016967
46.553,81.2593,-0.016967
46.583,81.2593,-0.016967
46.615,81.2593,-0.016967
46.646,81.2593,-0.016967
46.676,81.2593,-0.015809
46.707,81.2593,-0.015809
46.741,81.2593,-0.015809
46.768,81.2593,-0.015809
46.806,81.2593,-0.015809
46.847,81.2593,-0.015809
46.877,81.2593,-0.015809
46.908,81.2593,-0.015028
46.939,81.2593,-0.015028
46.971,81.2593,-0.015028
47.002,81.2593,-0.015028
47.034,81.2593,-0.015028
47.066,81.2593,-0.015028
47.096,81.2593,-0.015028
47.128,81.2593,-0.015028
47.158,81.2593,-0.014398
47.190,81.2593,-0.014398
47.221,81.2593,-0.014398
47.254,81.2593,-0.014398
47.283,81.2593,-0.014398
47.314,81.2593,-0.014398
47.346,81.2593,-0.014398
47.376,81.2593,-0.013899
47.409,81.2593,-0.013899
47.438,81.2593,-0.013899
47.469,81.2593,-0.013899
47.501,81.2593,-0.013899
47.531,81.2593,-0.013899
47.562,81.2593,-0.013899
47.596,81.2593,-0.013899
47.623,81.2593,-0.013899
47.654,81.2593,-0.013485
47.686,81.2593,-0.013485
47.719,81.2593,-0.013485
47.747,81.2593,-0.013485
47.778,81.2593,-0.013485
47.810,81.2593,-0.013485
47.840,81.2593,-0.013485
47.871,81.2593,-0.013118
47.902,81.2593,-0.013118
47.935,81.2593,-0.013118
47.965,81.2593,-0.013118
47.995,81.2593,-0.013118
48.026,81.2593,-0.013118
48.057,81.2593,-0.013118
48.088,81.2593,-0.013118
48.119,81.2593,-0.013118
48.150,81.2593,-0.012732
48.180,81.2593,-0.012732
48.211,81.2593,-0.012732
48.242,81.2593,-0.012732
48.273,81.2593,-0.012732
48.305,81.2593,-0.012732
48.335,81.2593,-0.012732
48.366,81.2593,-0.012732
48.397,81.2593,-0.012441
48.428,81.2593,-0.012441
48.459,81.2593,-0.012441
48.490,81.2593,-0.012441
48.520,81.2593,-0.012441
48.551,81.2593,-0.012441
48.582,81.2593,-0.012441
48.613,81.2593,-0.012441
48.644,81.2593,-0.012158
48.675,81.2593,-0.012158
48.706,81.2593,-0.012158
48.737,81.2593,-0.012158
48.768,81.2593,-0.012158
48.799,81.2593,-0.012158
48.829,81.2593,-0.012158
48.862,81.2593,-0.012158
48.891,81.2593,-0.011961
48.922,81.2593,-0.011961
48.953,81.2593,-0.011961
48.984,81.2593,-0.011961
49.015,81.2593,-0.011961
49.046,81.2593,-0.011961
49.080,81.2593,-0.011961
49.109,81.2593,-0.011961
49.140,81.2593,-0.011782
49.171,81.2593,-0.011782
49.202,81.2593,-0.011782
49.234,81.2593,-0.011782
49.265,81.2593,-0.011782
49.296,81.2593,-0.011782
49.327,81.2593,-0.011782
49.358,81.2593,-0.011782
49.390,81.2593,-0.011537
49.420,81.2593,-0.011537
49.451,81.2593,-0.011537
49.483,81.2593,-0.011537
49.514,81.2593,-0.011537
49.545,81.2593,-0.011537
49.577,81.2593,-0.011537
49.609,81.2593,-0.011537
49.639,81.2593,-0.011330
49.669,81.2593,-0.011330
49.700,81.2593,-0.011330
49.731,81.2593,-0.011330
49.762,81.2593,-0.011330
49.793,81.2593,-0.011330
49.825,81.2593,-0.011330
49.855,81.2593,-0.011330
49.886,81.2593,-0.011330
49.918,81.2593,-0.011123
49.949,81.2593,-0.011123
49.981,81.2593,-0.011123
50.011,81.2588,-0.011123
50.045,81.2576,-0.011123
50.073,81.2557,-0.011123
50.104,81.2531,-0.011123
50.136,81.2495,-0.010954
50.166,81.2456,-0.010954
50.197,81.2408,-0.010954
50.229,81.2351,-0.010954
50.263,81.2282,-0.010954
50.291,81.2216,-0.010954
50.322,81.2140,-0.010954
50.354,81.2053,-0.010954
50.388,81.1953,-0.008836
50.415,81.1861,-0.008836
50.446,81.1757,-0.008836
50.478,81.1638,-0.008836
50.509,81.1520,-0.008836
50.540,81.1389,-0.008836
50.574,81.1240,-0.008836
50.601,81.1115,-0.008836
50.633,81.0963,-0.002616
50.663,81.0806,-0.002616
50.693,81.0642,-0.002616
50.723,81.0477,-0.002616
50.755,81.0300,-0.002616
50.786,81.0107,-0.002616
50.820,80.9894,-0.002616
50.847,80.9724,-0.002616
50.878,80.9520,-0.002616
50.909,80.9299,-0.002616
50.940,80.9079,0.005994
50.971,80.8851,0.005994
51.004,80.8593,0.005994
51.033,80.8366,0.005994
51.064,80.8113,0.005994
51.095,80.7856,0.005994
51.126,80.7587,0.005994
51.158,80.7312,0.013137
51.188,80.7030,0.013137
51.219,80.6749,0.013137
51.250,80.6452,0.013137
51.281,80.6152,0.013137
51.312,80.5842,0.013137
51.343,80.5519,0.013137
51.374,80.5199,0.013137
51.405,80.4862,0.017654
51.436,80.4534,0.017654
51.467,80.4175,0.017654
51.499,80.3824,0.017654
51.530,80.3454,0.017654
51.561,80.3090,0.017654
51.592,80.2709,0.017654
51.623,80.2327,0.017654
51.654,80.1933,0.017654
51.685,80.1542,0.022246
51.717,80.1121,0.022246
51.748,80.0709,0.022246
51.774,80.0367,0.022246
51.811,79.9852,0.022246
51.843,79.9408,0.022246
51.874,79.8950,0.022246
51.905,79.8522,0.029502
51.936,79.8064,0.029502
51.967,79.7590,0.029502
51.997,79.7130,0.029502
52.028,79.6682,0.029502
52.060,79.6206,0.029502
52.091,79.5737,0.029502
52.125,79.5222,0.029502
52.154,79.4788,0.029502
52.184,79.4335,0.037068
52.215,79.3868,0.037068
52.246,79.3413,0.037068
52.277,79.2935,0.037068
52.309,79.2466,0.037068
52.340,79.1993,0.037068
52.371,79.1539,0.037068
52.402,79.1059,0.027450
52.433,79.0602,0.027450
52.464,79.0132,0.027450
52.494,78.9688,0.027450
52.526,78.9216,0.027450
52.556,78.8759,0.027450
52.588,78.8290,0.027450
52.623,78.7746,0.027450
52.649,78.7359,0.012817
52.680,78.6896,0.012817
52.712,78.6421,0.012817
52.742,78.5964,0.012817
52.773,78.5501,0.012817
52.804,78.5036,0.012817
52.835,78.4575,0.012817
52.866,78.4107,0.012817
52.897,78.3652,0.010474
52.929,78.3156,0.010474
52.960,78.2697,0.010474
52.990,78.2248,0.010474
53.022,78.1776,0.010474
53.052,78.1318,0.010474
53.083,78.0859,0.010474
53.113,78.0408,0.010474
53.144,77.9935,0.009664
53.180,77.9386,0.009664
53.221,77.8770,0.009664
53.253,77.8310,0.009664
53.283,77.7850,0.009664
53.314,77.7389,0.009664
53.346,77.6908,0.009664
53.376,77.6455,0.009664
53.408,77.5999,0.009664
53.439,77.5542,0.009025
53.471,77.5103,0.009025
53.501,77.4675,0.009025
53.533,77.4250,0.009025
53.563,77.3837,0.009025
53.594,77.3432,0.009025
53.625,77.3028,0.009025
53.656,77.2626,0.008441
53.687,77.2241,0.008441
53.719,77.1856,0.008441
53.750,77.1475,0.008441
53.780,77.1119,0.008441
53.811,77.0757,0.008441
53.842,77.0414,0.008441
53.873,77.0071,0.008441
53.904,76.9722,0.007867
53.935,76.9407,0.007867
53.966,76.9083,0.007867
53.997,76.8759,0.007867
54.028,76.8454,0.007867
54.055,76.8194,0.007867
54.091,76.7856,0.007867
54.121,76.7576,0.007867
54.153,76.7291,0.007406
54.184,76.7020,0.007406
54.214,76.6766,0.007406
54.244,76.6509,0.007406
54.275,76.6258,0.007406
54.306,76.6020,0.007406
54.338,76.5781,0.007406
54.368,76.5551,0.007406
54.400,76.5325,0.007142
54.431,76.5115,0.007142
54.462,76.4906,0.007142
54.494,76.4700,0.007142
54.524,76.4515,0.007142
54.556,76.4332,0.007142
54.586,76.4159,0.007142
54.617,76.3986,0.007142
54.649,76.3823,0.006860
54.680,76.3667,0.006860
54.711,76.3519,0.006860
54.742,76.3378,0.006860
54.772,76.3248,0.006860
54.804,76.3119,0.006860
54.835,76.2998,0.006860
54.870,76.2872,0.006860
54.897,76.2784,0.006568
54.929,76.2685,0.006568
54.959,76.2597,0.006568
54.990,76.2516,0.006568
55.025,76.2434,0.006568
55.053,76.2372,0.006568
55.084,76.2311,0.006568
55.115,76.2258,0.006333
55.146,76.2213,0.006333
55.177,76.2175,0.006333
55.208,76.2144,0.006333
55.240,76.2120,0.006333
55.270,76.2104,0.006333
55.301,76.2095,0.006333
55.332,76.2093,0.006333
55.363,76.2093,0.006333
55.394,76.2093,0.006258
55.425,76.2093,0.006258
55.456,76.2094,0.006258
55.487,76.2102,0.006258
55.517,76.2117,0.006258
55.548,76.2139,0.006258
55.579,76.2169,0.006258
55.610,76.2205,0.006258
55.641,76.2248,0.006258
55.672,76.2300,0.006145
55.703,76.2357,0.006145
55.734,76.2424,0.006145
55.765,76.2497,0.006145
55.797,76.2580,0.006145
55.826,76.2661,0.006145
55.856,76.2757,0.006145
55.891,76.2871,0.006145
55.917,76.2960,0.005929
55.948,76.3078,0.005929
55.979,76.3198,0.005929
56.010,76.3332,0.005929
56.041,76.3468,0.005929
56.072,76.3616,0.005929
56.102,76.3762,0.005929
56.134,76.3926,0.005929
56.165,76.4091,0.005929
56.196,76.4267,0.005722
56.227,76.4447,0.005722
56.258,76.4635,0.005722
56.289,76.4829,0.005722
56.319,76.5030,0.005722
56.350,76.5237,0.005722
56.381,76.5454,0.005722
56.412,76.5683,0.005571
56.444,76.5920,0.005571
56.475,76.6160,0.005571
56.506,76.6407,0.005571
56.536,76.6657,0.005571
56.568,76.6926,0.005571
56.599,76.7188,0.005571
56.630,76.7466,0.005571
56.661,76.7751,0.005524
56.692,76.8040,0.005524
56.723,76.8339,0.005524
56.754,76.8655,0.005524
56.786,76.8961,0.005524
56.817,76.9285,0.005524
56.848,76.9610,0.005524
56.878,76.9940,0.005524
56.909,77.0281,0.005392
56.942,77.0648,0.005392
56.972,77.0993,0.005392
57.004,77.1365,0.005392
57.035,77.1745,0.005392
57.065,77.2110,0.005392
57.096,77.2494,0.005392
57.128,77.2897,0.005392
57.159,77.3290,0.005204
57.189,77.3697,0.005204
57.221,77.4120,0.005204
57.252,77.4540,0.005204
57.282,77.4959,0.005204
57.314,77.5404,0.005204
57.345,77.5845,0.005204
57.375,77.6286,0.005204
57.406,77.6736,0.005147
57.437,77.7214,0.005147
57.469,77.7679,0.005147
57.500,77.8160,0.005147
57.530,77.8608,0.005147
57.561,77.9076,0.005147
57.592,77.9536,0.005147
57.623,78.0012,0.005147
57.654,78.0467,0.005072
57.685,78.0937,0.005072
57.716,78.1395,0.005072
57.747,78.1859,0.005072
57.779,78.2341,0.005072
57.809,78.2796,0.005072
57.840,78.3266,0.005072
57.871,78.3721,0.005072
57.902,78.4193,0.004988
57.933,78.4654,0.004988
57.964,78.5120,0.004988
57.996,78.5593,0.004988
58.026,78.6056,0.004988
58.058,78.6528,0.004988
58.089,78.6996,0.004988
58.120,78.7471,0.004988
58.152,78.7949,0.004903
58.183,78.8416,0.004903
58.214,78.8866,0.004903
58.245,78.9324,0.004903
58.275,78.9782,0.004903
58.307,79.0261,0.004903
58.337,79.0714,0.004903
58.368,79.1177,0.004564
58.403,79.1697,0.004564
58.430,79.2108,0.004564
58.461,79.2572,0.004564
58.492,79.3034,0.004564
58.526,79.3548,0.004564
58.554,79.3958,0.004564
58.584,79.4409,0.004564
58.616,79.4896,0.004564
58.646,79.5345,0.003830
58.677,79.5805,0.003830
58.707,79.6278,0.003830
58.739,79.6740,0.003830
58.771,79.7224,0.003830
58.800,79.7658,0.003830
58.832,79.8123,0.003830
58.863,79.8577,0.003830
58.894,79.9006,0.002484
58.926,79.9463,0.002484
58.957,79.9879,0.002484
58.989,80.0311,0.002484
59.022,80.0759,0.002484
59.051,80.1132,0.002484
59.083,80.1541,0.002484
59.112,80.1907,0.002484
59.143,80.2283,0.000706
59.175,80.2669,0.000706
59.209,80.3070,0.000706
59.236,80.3384,0.000706
59.270,80.3767,0.000706
59.298,80.4077,0.000706
59.329,80.4420,0.000706
59.360,80.4742,0.000706
59.391,80.5071,-0.001176
59.422,80.5385,-0.001176
59.453,80.5695,-0.001176
59.484,80.5996,-0.001176
59.515,80.6295,-0.001176
59.546,80.6581,-0.001176
59.577,80.6858,-0.001176
59.608,80.7125,-0.001176
59.640,80.7401,-0.003416
59.670,80.7651,-0.003416
59.703,80.7916,-0.003416
59.732,80.8152,-0.003416
59.765,80.8405,-0.003416
59.794,80.8607,-0.003416
59.825,80.8834,-0.003416
59.856,80.9048,-0.003416
59.889,80.9262,-0.003416
59.918,80.9450,-0.003416
59.950,80.9649,-0.006559
59.980,80.9832,-0.006559
60.011,81.0014,-0.006559
60.043,81.0183,-0.006559
60.074,81.0351,-0.006559
60.106,81.0509,-0.006559
60.137,81.0658,-0.010963
60.167,81.0795,-0.010963
60.198,81.0930,-0.010963
60.229,81.1053,-0.010963
60.260,81.1174,-0.010963
60.292,81.1286,-0.010963
60.324,81.1401,-0.010963
60.353,81.1488,-0.010963
60.384,81.1577,-0.015904
60.415,81.1660,-0.015904
60.449,81.1743,-0.015904
60.477,81.1804,-0.015904
60.507,81.1864,-0.015904
60.538,81.1918,-0.015904
60.570,81.1965,-0.015904
60.602,81.2006,-0.015904
60.632,81.2037,-0.019508
60.663,81.2062,-0.019508
60.694,81.2079,-0.019508
60.725,81.2091,-0.019508
60.756,81.2093,-0.019508
60.788,81.2093,-0.019508
60.819,81.2093,-0.019508
60.851,81.2093,-0.019508
60.881,81.2093,-0.020054
60.913,81.2093,-0.020054
60.943,81.2093,-0.020054
60.975,81.2093,-0.020054
61.006,81.2093,-0.020054
61.036,81.2093,-0.020054
61.068,81.2093,-0.020054
61.098,81.2093,-0.020054
61.129,81.2093,-0.020054
61.160,81.2093,-0.020054
61.192,81.2093,-0.018501
61.222,81.2093,-0.018501
61.253,81.2093,-0.018501
61.283,81.2093,-0.018501
61.314,81.2093,-0.018501
61.346,81.2093,-0.018501
61.376,81.2093,-0.018501
61.408,81.2093,-0.016845
61.439,81.2093,-0.016845
61.470,81.2093,-0.016845
61.501,81.2093,-0.016845
61.532,81.2093,-0.016845
61.563,81.2093,-0.016845
61.594,81.2093,-0.016845
61.625,81.2093,-0.016845
61.656,81.2093,-0.016845
61.688,81.2093,-0.015791
61.719,81.2093,-0.015791
61.750,81.2093,-0.015791
61.780,81.2093,-0.015791
61.812,81.2093,-0.015791
61.842,81.2093,-0.015791
61.873,81.2093,-0.015791
61.903,81.2093,-0.014991
61.935,81.2093,-0.014991
61.966,81.2093,-0.014991
61.997,81.2093,-0.014991
62.028,81.2093,-0.014991
62.060,81.2093,-0.014991
62.091,81.2093,-0.014991
62.121,81.2093,-0.014991
62.153,81.2093,-0.014991
62.185,81.2093,-0.014323
62.215,81.2093,-0.014323
62.246,81.2093,-0.014323
62.277,81.2093,-0.014323
62.308,81.2093,-0.014323
62.340,81.2093,-0.014323
62.371,81.2093,-0.014323
62.403,81.2093,-0.013946
62.433,81.2093,-0.013946
62.463,81.2093,-0.013946
62.494,81.2093,-0.013946
62.525,81.2093,-0.013946
62.556,81.2093,-0.013946
62.587,81.2093,-0.013946
62.618,81.2093,-0.013946
62.648,81.2093,-0.013946
62.680,81.2093,-0.013372
62.711,81.2093,-0.013372
62.742,81.2093,-0.013372
62.773,81.2093,-0.013372
62.805,81.2093,-0.013372
62.835,81.2093,-0.013372
62.866,81.2093,-0.013372
62.897,81.2093,-0.013024
62.928,81.2093,-0.013024
62.959,81.2093,-0.013024
62.990,81.2093,-0.013024
63.021,81.2093,-0.013024
63.052,81.2093,-0.013024
63.082,81.2093,-0.013024
63.114,81.2093,-0.013024
63.144,81.2093,-0.013024
63.175,81.2093,-0.012751
63.206,81.2093,-0.012751
63.237,81.2093,-0.012751
63.268,81.2093,-0.012751
63.299,81.2093,-0.012751
63.330,81.2093,-0.012751
63.362,81.2093,-0.012751
63.392,81.2093,-0.012412
63.423,81.2093,-0.012412
63.454,81.2093,-0.012412
63.485,81.2093,-0.012412
63.515,81.2093,-0.012412
63.546,81.2093,-0.012412
63.576,81.2093,-0.012412
63.613,81.2093,-0.012412
63.639,81.2093,-0.012177
63.670,81.2093,-0.012177
63.701,81.2093,-0.012177
63.731,81.2093,-0.012177
63.762,81.2093,-0.012177
63.793,81.2093,-0.012177
63.825,81.2093,-0.012177
63.854,81.2093,-0.012177
63.885,81.2093,-0.012177
63.916,81.2093,-0.011885
63.951,81.2093,-0.011885
63.978,81.2093,-0.011885
64.009,81.2093,-0.011885
64.041,81.2093,-0.011885
64.073,81.2093,-0.011885
64.105,81.2093,-0.011885
64.134,81.2093,-0.011885
64.165,81.2093,-0.011688
64.197,81.2093,-0.011688
64.227,81.2093,-0.011688
64.258,81.2093,-0.011688
64.290,81.2093,-0.011688
64.322,81.2093,-0.011688
64.351,81.2093,-0.011688
64.384,81.2093,-0.011481
64.417,81.2093,-0.011481
64.445,81.2093,-0.011481
64.476,81.2093,-0.011481
64.506,81.2093,-0.011481
64.537,81.2093,-0.011481
64.567,81.2093,-0.011481
64.598,81.2093,-0.011481
64.629,81.2093,-0.011481
64.662,81.2093,-0.011283
64.691,81.2093,-0.011283
64.722,81.2093,-0.011283
64.753,81.2093,-0.011283
64.784,81.2093,-0.011283
64.818,81.2093,-0.011283
64.847,81.2093,-0.011283
64.877,81.2093,-0.011283
64.909,81.2093,-0.011283
64.939,81.2093,-0.011123
64.970,81.2093,-0.011123
65.002,81.2093,-0.011123
65.033,81.2093,-0.011123
65.064,81.2093,-0.011123
65.094,81.2093,-0.011123
65.126,81.2093,-0.011123
65.157,81.2093,-0.010916
65.188,81.2093,-0.010916
65.219,81.2093,-0.010916
65.249,81.2093,-0.010916
65.280,81.2093,-0.010916
65.312,81.2093,-0.010916
65.344,81.2093,-0.010916
65.374,81.2093,-0.010784
65.406,81.2093,-0.010784
65.436,81.2093,-0.010784
65.469,81.2093,-0.010784
65.500,81.2093,-0.010784
65.532,81.2093,-0.010784
65.563,81.2093,-0.010784
65.594,81.2093,-0.010784
65.625,81.2093,-0.010784
65.656,81.2086,-0.010596
65.688,81.2072,-0.010596
65.719,81.2051,-0.010596
65.750,81.2022,-0.010596
65.781,81.1986,-0.010596
65.811,81.1944,-0.010596
65.844,81.1891,-0.010596
65.872,81.1839,-0.010596
65.903,81.1773,-0.010596
65.935,81.1699,-0.010013
65.965,81.1622,-0.010013
65.996,81.1537,-0.010013
66.027,81.1441,-0.010013
66.058,81.1345,-0.010013
66.088,81.1240,-0.010013
66.119,81.1123,-0.006126
66.150,81.0999,-0.006126
66.181,81.0866,-0.006126
66.213,81.0726,-0.006126
66.245,81.0581,-0.006126
66.276,81.0430,-0.006126
66.307,81.0272,-0.006126
66.338,81.0104,-0.006126
66.368,80.9931,-0.006126
66.400,80.9752,0.001694
66.430,80.9569,0.001694
66.460,80.9373,0.001694
66.491,80.9172,0.001694
66.523,80.8960,0.001694
66.553,80.8748,0.001694
66.585,80.8514,0.001694
66.616,80.8289,0.001694
66.647,80.8044,0.009777
66.678,80.7802,0.009777
66.711,80.7524,0.009777
66.741,80.7278,0.009777
66.771,80.7017,0.009777
66.802,80.6744,0.009777
66.833,80.6459,0.009777
66.864,80.6164,0.009777
66.895,80.5868,0.009777
66.926,80.5564,0.015640
66.958,80.5244,0.015640
66.989,80.4928,0.015640
67.019,80.4603,0.015640
67.051,80.4271,0.015640
67.082,80.3930,0.015640
67.113,80.3584,0.015640
67.144,80.3222,0.015640
67.175,80.2860,0.019752
67.206,80.2490,0.019752
67.238,80.2102,0.019752
67.269,80.1709,0.019752
67.299,80.1337,0.019752
67.331,80.0917,0.019752
67.363,80.0507,0.019752
67.394,80.0083,0.025436
67.425,79.9667,0.025436
67.458,79.9211,0.025436
67.486,79.8800,0.025436
67.516,79.8393,0.025436
67.548,79.7918,0.025436
67.579,79.7455,0.025436
67.610,79.6993,0.025436
67.642,79.6521,0.025436
67.673,79.6051,0.033416
67.704,79.5578,0.033416
67.739,79.5066,0.033416
67.766,79.4658,0.033416
67.798,79.4175,0.033416
67.828,79.3726,0.033416
67.859,79.3264,0.033416
67.889,79.2802,0.033416
67.921,79.2339,0.037660
67.952,79.1866,0.037660
67.984,79.1400,0.037660
68.014,79.0933,0.037660
68.047,79.0437,0.037660
68.075,79.0014,0.037660
68.106,78.9552,0.037660
68.138,78.9081,0.024655
68.169,78.8617,0.024655
68.200,78.8142,0.024655
68.232,78.7664,0.024655
68.262,78.7218,0.024655
68.294,78.6740,0.024655
68.325,78.6275,0.024655
68.356,78.5810,0.024655
68.388,78.5337,0.024655
68.418,78.4880,0.011085
68.449,78.4410,0.011085
68.481,78.3937,0.011085
68.516,78.3401,0.011085
68.543,78.3011,0.011085
68.573,78.2551,0.011085
68.605,78.2076,0.011085
68.636,78.1597,0.011085
68.667,78.1152,0.010003
68.699,78.0668,0.010003
68.727,78.0235,0.010003
68.759,77.9773,0.010003
68.790,77.9298,0.010003
68.821,77.8844,0.010003
68.851,77.8369,0.010003
68.882,77.7918,0.010003
68.913,77.7446,0.009288
68.944,77.6994,0.009288
68.976,77.6514,0.009288
69.006,77.6058,0.009288
69.037,77.5599,0.009288
69.068,77.5148,0.009288
69.098,77.4730,0.009288
69.130,77.4288,0.008620
69.161,77.3863,0.008620
69.192,77.3435,0.008620
69.223,77.3024,0.008620
69.253,77.2644,0.008620
69.284,77.2247,0.008620
69.315,77.1849,0.008620
69.346,77.1468,0.008620
69.377,77.1092,0.008620
69.408,77.0724,0.008084
69.439,77.0367,0.008084
69.470,77.0007,0.008084
69.502,76.9652,0.008084
69.532,76.9317,0.008084
69.565,76.8970,0.008084
69.595,76.8659,0.008084
69.621,76.8395,0.008084
69.657,76.8032,0.007622
69.687,76.7735,0.007622
69.718,76.7443,0.007622
69.749,76.7156,0.007622
69.779,76.6878,0.007622
69.811,76.6599,0.007622
69.841,76.6340,0.007622
69.873,76.6075,0.007218
69.904,76.5819,0.007218
69.935,76.5576,0.007218
69.966,76.5339,0.007218
69.996,76.5118,0.007218
70.027,76.4895,0.007218
70.058,76.4679,0.007218
70.090,76.4468,0.007218
70.120,76.4270,0.007218
70.152,76.4069,0.006898
70.183,76.3886,0.006898
70.213,76.3708,0.006898
70.244,76.3543,0.006898
70.275,76.3374,0.006898
70.306,76.3217,0.006898
70.338,76.3062,0.006898
70.368,76.2920,0.006653
70.400,76.2786,0.006653
70.431,76.2654,0.006653
70.463,76.2533,0.006653
70.493,76.2420,0.006653
70.524,76.2317,0.006653
70.554,76.2218,0.006653
70.585,76.2129,0.006653
70.617,76.2042,0.006653
70.648,76.1965,0.006437
70.676,76.1900,0.006437
70.709,76.1834,0.006437
70.741,76.1774,0.006437
70.772,76.1730,0.006437
70.803,76.1689,0.006437
70.834,76.1654,0.006437
70.865,76.1628,0.006437
70.896,76.1609,0.006248
70.927,76.1598,0.006248
70.958,76.1593,0.006248
70.989,76.1593,0.006248
71.020,76.1593,0.006248
71.051,76.1593,0.006248
71.083,76.1593,0.006248
71.113,76.1598,0.006248
71.144,76.1609,0.006126
71.175,76.1628,0.006126
71.206,76.1654,0.006126
71.232,76.1681,0.006126
71.268,76.1728,0.006126
71.299,76.1777,0.006126
71.331,76.1834,0.006126
71.362,76.1896,0.006126
71.392,76.1964,0.005881
71.428,76.2058,0.005881
71.454,76.2127,0.005881
71.484,76.2215,0.005881
71.515,76.2310,0.005881
71.551,76.2435,0.005881
71.576,76.2530,0.005881
71.608,76.2651,0.005881
71.639,76.2778,0.005722
71.670,76.2917,0.005722
71.699,76.3047,0.005722
71.729,76.3193,0.005722
71.760,76.3348,0.005722
71.798,76.3549,0.005722
71.838,76.3774,0.005722
71.870,76.3960,0.005627
71.901,76.4156,0.005627
71.932,76.4347,0.005627
71.964,76.4560,0.005627
71.995,76.4767,0.005627
72.026,76.4988,0.005627
72.057,76.5213,0.005627
72.089,76.5457,0.005627
72.119,76.5687,0.005627
72.150,76.5929,0.005543
72.180,76.6183,0.005543
72.212,76.6454,0.005543
72.243,76.6722,0.005543
72.275,76.7007,0.005543
72.306,76.7287,0.005543
72.337,76.7575,0.005543
72.367,76.7881,0.005543
72.403,76.8236,0.005514
72.430,76.8501,0.005514
72.461,76.8824,0.005514
72.492,76.9143,0.005514
72.523,76.9484,0.005514
72.553,76.9815,0.005514
72.584,77.0174,0.005514
72.615,77.0517,0.005514
72.646,77.0891,0.005514
72.676,77.1248,0.005411
72.710,77.1669,0.005411
72.739,77.2015,0.005411
72.770,77.2412,0.005411
72.800,77.2794,0.005411
72.831,77.3207,0.005411
72.861,77.3616,0.005411
72.893,77.4043,0.005232
72.924,77.4476,0.005232
72.954,77.4903,0.005232
72.985,77.5335,0.005232
73.016,77.5795,0.005232
73.047,77.6252,0.005232
73.079,77.6735,0.005232
73.110,77.7184,0.005232
73.141,77.7664,0.005232
73.172,77.8119,0.005035
73.204,77.8613,0.005035
73.235,77.9064,0.005035
73.265,77.9527,0.005035
73.296,77.9983,0.005035
73.327,78.0456,0.005035
73.357,78.0905,0.005035
73.389,78.1377,0.005035
73.419,78.1847,0.005035
73.451,78.2305,0.004940
73.481,78.2771,0.004940
73.512,78.3223,0.004940
73.544,78.3717,0.004940
73.576,78.4175,0.004940
73.607,78.4650,0.004940
73.639,78.5137,0.004940
73.669,78.5586,0.004912
73.699,78.6031,0.004912
73.730,78.6502,0.004912
73.761,78.6961,0.004912
73.792,78.7424,0.004912
73.823,78.7885,0.004912
73.854,78.8351,0.004912
73.885,78.8828,0.004912
73.916,78.9276,0.004799
73.946,78.9733,0.004799
73.978,79.0207,0.004799
74.009,79.0690,0.004799
74.040,79.1143,0.004799
74.070,79.1601,0.004799
74.101,79.2058,0.004799
74.132,79.2530,0.004799
74.163,79.2997,0.004404
74.196,79.3477,0.004404
74.226,79.3934,0.004404
74.258,79.4418,0.004404
74.289,79.4884,0.004404
74.319,79.5333,0.004404
74.350,79.5800,0.004404
74.381,79.6264,0.003501
74.412,79.6728,0.003501
74.443,79.7198,0.003501
74.474,79.7637,0.003501
74.505,79.8092,0.003501
74.536,79.8534,0.003501
74.567,79.8968,0.003501
74.601,79.9423,0.003501
74.631,79.9831,0.001995
74.661,80.0233,0.001995
74.692,80.0627,0.001995
74.721,80.1003,0.001995
74.752,80.1399,0.001995
74.782,80.1758,0.001995
74.814,80.2138,0.001995
74.844,80.2512,0.001995
74.876,80.2868,0.000132
74.907,80.3233,0.000132
74.939,80.3574,0.000132
74.971,80.3936,0.000132
75.001,80.4254,0.000132
75.032,80.4571,0.000132
75.063,80.4887,0.000132
75.094,80.5200,0.000132
75.125,80.5501,-0.001826
75.156,80.5790,-0.001826
75.186,80.6073,-0.001826
75.219,80.6363,-0.001826
75.248,80.6629,-0.001826
75.280,80.6898,-0.001826
75.311,80.7159,-0.001826
75.342,80.7404,-0.001826
75.373,80.7644,-0.004301
75.403,80.7876,-0.004301
75.434,80.8107,-0.004301
75.466,80.8335,-0.004301
75.497,80.8548,-0.004301
75.528,80.8758,-0.004301
75.560,80.8960,-0.004301
75.590,80.9151,-0.004301
75.622,80.9337,-0.004301
75.652,80.9513,-0.007999
75.683,80.9678,-0.007999
75.714,80.9843,-0.007999
75.745,81.0000,-0.007999
75.776,81.0148,-0.007999
75.807,81.0289,-0.007999
75.837,81.0421,-0.007999
75.868,81.0546,-0.007999
75.899,81.0666,-0.012808
75.929,81.0777,-0.012808
75.960,81.0881,-0.012808
75.991,81.0982,-0.012808
76.022,81.1070,-0.012808
76.053,81.1155,-0.012808
76.085,81.1232,-0.012808
76.116,81.1302,-0.012808
76.147,81.1361,-0.012808
76.178,81.1417,-0.017362
76.209,81.1463,-0.017362
76.240,81.1504,-0.017362
76.272,81.1536,-0.017362
76.303,81.1562,-0.017362
76.334,81.1580,-0.017362
76.365,81.1591,-0.017362
76.396,81.1593,-0.017362
76.427,81.1593,-0.017362
76.457,81.1593,-0.019781
76.489,81.1593,-0.019781
76.520,81.1593,-0.019781
76.550,81.1593,-0.019781
76.581,81.1593,-0.019781
76.613,81.1593,-0.019781
76.644,81.1593,-0.019244
76.675,81.1593,-0.019244
76.706,81.1593,-0.019244
76.738,81.1593,-0.019244
76.770,81.1593,-0.019244
76.800,81.1593,-0.019244
76.830,81.1593,-0.019244
76.861,81.1593,-0.019244
76.893,81.1593,-0.019244
76.924,81.1593,-0.017287
76.954,81.1593,-0.017287
76.985,81.1593,-0.017287
77.016,81.1593,-0.017287
77.047,81.1593,-0.017287
77.084,81.1593,-0.017287
77.125,81.1593,-0.017287
77.155,81.1593,-0.015904
77.186,81.1593,-0.015904
77.217,81.1593,-0.015904
77.247,81.1593,-0.015904
77.278,81.1593,-0.015904
77.310,81.1593,-0.015904
77.341,81.1593,-0.015904
77.372,81.1593,-0.015904
77.403,81.1593,-0.015038
77.434,81.1593,-0.015038
77.466,81.1593,-0.015038
77.498,81.1593,-0.015038
77.527,81.1593,-0.015038
77.558,81.1593,-0.015038
77.589,81.1593,-0.015038
77.619,81.1593,-0.015038
77.651,81.1593,-0.014332
77.688,81.1593,-0.014332
77.727,81.1593,-0.014332
77.758,81.1593,-0.014332
77.789,81.1593,-0.014332
77.820,81.1593,-0.014332
77.851,81.1593,-0.014332
77.883,81.1593,-0.013824
77.914,81.1593,-0.013824
77.945,81.1593,-0.013824
77.976,81.1593,-0.013824
78.006,81.1593,-0.013824
78.037,81.1593,-0.013824
78.070,81.1593,-0.013824
78.100,81.1593,-0.013824
78.132,81.1593,-0.013824
78.164,81.1593,-0.013382
78.196,81.1593,-0.013382
78.226,81.1593,-0.013382
78.257,81.1593,-0.013382
78.288,81.1593,-0.013382
78.319,81.1593,-0.013382
78.351,81.1593,-0.013382
78.382,81.1593,-0.013382
78.413,81.1593,-0.012892
78.445,81.1593,-0.012892
78.476,81.1593,-0.012892
78.509,81.1593,-0.012892
78.538,81.1593,-0.012892
78.570,81.1593,-0.012892
78.602,81.1593,-0.012892
78.631,81.1593,-0.012892
78.662,81.1593,-0.012563
78.693,81.1593,-0.012563
78.724,81.1593,-0.012563
78.754,81.1593,-0.012563
78.785,81.1593,-0.012563
78.817,81.1593,-0.012563
78.847,81.1593,-0.012563
78.878,81.1593,-0.012563
78.910,81.1593,-0.012318
78.941,81.1593,-0.012318
78.972,81.1593,-0.012318
79.003,81.1593,-0.012318
79.035,81.1593,-0.012318
79.066,81.1593,-0.012318
79.097,81.1593,-0.012318
79.129,81.1593,-0.011989
79.160,81.1593,-0.011989
79.192,81.1593,-0.011989
79.223,81.1593,-0.011989
79.255,81.1593,-0.011989
79.284,81.1593,-0.011989
79.316,81.1593,-0.011989
79.346,81.1593,-0.011989
79.378,81.1593,-0.011989
79.409,81.1593,-0.011716
79.440,81.1593,-0.011716
79.471,81.1593,-0.011716
79.503,81.1593,-0.011716
79.534,81.1593,-0.011716
79.565,81.1593,-0.011716
79.596,81.1593,-0.011716
79.628,81.1593,-0.011716
79.658,81.1593,-0.011518
79.688,81.1593,-0.011518
79.720,81.1593,-0.011518
79.751,81.1593,-0.011518
79.782,81.1593,-0.011518
79.812,81.1593,-0.011518
79.843,81.1593,-0.011518
79.878,81.1593,-0.011518
79.906,81.1593,-0.011518
79.938,81.1593,-0.011396
79.969,81.1593,-0.011396
79.994,81.1593,-0.011396
80.031,81.1593,-0.011396
80.062,81.1593,-0.011396
80.093,81.1593,-0.011396
80.124,81.1593,-0.011396
80.155,81.1593,-0.011198
80.187,81.1593,-0.011198
80.217,81.1593,-0.011198
80.250,81.1593,-0.011198
80.279,81.1593,-0.011198
80.309,81.1593,-0.011198
80.340,81.1593,-0.011198
80.371,81.1593,-0.011198
80.402,81.1593,-0.010963
80.434,81.1593,-0.010963
80.463,81.1593,-0.010963
80.494,81.1593,-0.010963
80.524,81.1593,-0.010963
80.556,81.1593,-0.010963
80.587,81.1593,-0.010963
80.617,81.1591,-0.010963
80.649,81.1582,-0.010756
80.680,81.1566,-0.010756
80.712,81.1541,-0.010756
80.741,81.1511,-0.010756
80.773,81.1472,-0.010756
80.804,81.1427,-0.010756
80.835,81.1372,-0.010756
80.865,81.1315,-0.010756
80.896,81.1247,-0.010191
80.927,81.1174,-0.010191
80.959,81.1091,-0.010191
80.990,81.1000,-0.010191
81.021,81.0906,-0.010191
81.052,81.0801,-0.010191
81.083,81.0692,-0.010191
81.114,81.0570,-0.010191
81.144,81.0450,-0.005994
81.176,81.0313,-0.005994
81.206,81.0174,-0.005994
81.238,81.0027,-0.005994
81.269,80.9873,-0.005994
81.300,80.9712,-0.005994
81.331,80.9539,-0.005994
81.361,80.9365,-0.005994
81.392,80.9182,0.002183
81.423,80.8990,0.002183
81.454,80.8795,0.002183
81.484,80.8596,0.002183
81.516,80.8380,0.002183
81.546,80.8165,0.002183
81.578,80.7932,0.002183
81.608,80.7708,0.002183
81.640,80.7457,0.002183
81.671,80.7210,0.010182
81.702,80.6947,0.010182
81.732,80.6692,0.010182
81.764,80.6414,0.010182
81.795,80.6142,0.010182
81.826,80.5851,0.010182
81.856,80.5568,0.010182
81.887,80.5266,0.010182
81.919,80.4957,0.015809
81.951,80.4628,0.015809
81.981,80.4306,0.015809
82.012,80.3984,0.015809
82.043,80.3652,0.015809
82.074,80.3312,0.015809
82.105,80.2961,0.015809
82.136,80.2603,0.015809
82.166,80.2238,0.015809
82.197,80.1867,0.020270
82.228,80.1490,0.020270
82.260,80.1096,0.020270
82.289,80.0720,0.020270
82.322,80.0298,0.020270
82.351,79.9914,0.020270
82.383,79.9491,0.020270
82.413,79.9082,0.026603
82.448,79.8562,0.026603
82.474,79.8220,0.026603
82.506,79.7755,0.026603
82.537,79.7317,0.026603
82.573,79.6775,0.026603
82.599,79.6393,0.026603
82.629,79.5930,0.026603
82.660,79.5471,0.026603
82.691,79.5004,0.034913
82.725,79.4497,0.034913
82.753,79.4075,0.034913
82.784,79.3609,0.034913
82.815,79.3135,0.034913
82.847,79.2665,0.034913
82.878,79.2203,0.038827
82.908,79.1754,0.038827
82.939,79.1282,0.038827
82.970,79.0813,0.038827
83.001,79.0353,0.038827
83.032,78.9898,0.038827
83.063,78.9425,0.038827
83.096,78.8923,0.038827
83.125,78.8494,0.038827
83.155,78.8049,0.024900
83.186,78.7579,0.024900
83.216,78.7133,0.024900
83.248,78.6650,0.024900
83.278,78.6197,0.024900
83.311,78.5703,0.024900
83.341,78.5257,0.024900
83.372,78.4796,0.024900
83.403,78.4329,0.011010
83.434,78.3867,0.011010
83.465,78.3390,0.011010
83.496,78.2925,0.011010
83.528,78.2450,0.011010
83.558,78.1996,0.011010
83.590,78.1511,0.011010
83.621,78.1048,0.011010
83.653,78.0570,0.009984
83.684,78.0102,0.009984
83.716,77.9622,0.009984
83.746,77.9177,0.009984
83.778,77.8700,0.009984
83.809,77.8236,0.009984
83.840,77.7761,0.009984
83.871,77.7303,0.009147
83.902,77.6844,0.009147
83.932,77.6393,0.009147
83.963,77.5915,0.009147
83.994,77.5458,0.009147
84.025,77.5015,0.009147
84.055,77.4577,0.009147
84.087,77.4127,0.009147
84.118,77.3687,0.009147
84.148,77.3280,0.008563
84.179,77.2866,0.008563
84.209,77.2461,0.008563
84.241,77.2056,0.008563
84.272,77.1663,0.008563
84.303,77.1272,0.008563
84.334,77.0886,0.008563
84.365,77.0507,0.008563
84.396,77.0141,0.007989
84.427,76.9789,0.007989
84.459,76.9423,0.007989
84.490,76.9080,0.007989
84.520,76.8752,0.007989
84.551,76.8411,0.007989
84.582,76.8102,0.007989
84.613,76.7779,0.007989
84.644,76.7468,0.007989
84.676,76.7161,0.007528
84.707,76.6865,0.007528
84.739,76.6574,0.007528
84.770,76.6304,0.007528
84.801,76.6021,0.007528
84.832,76.5757,0.007528
84.863,76.5505,0.007528
84.894,76.5247,0.007528
84.925,76.5016,0.007218
84.957,76.4772,0.007218
84.988,76.4544,0.007218
85.019,76.4320,0.007218
85.050,76.4110,0.007218
85.081,76.3901,0.007218
85.112,76.3703,0.007218
85.144,76.3504,0.007218
85.174,76.3330,0.006841
85.205,76.3150,0.006841
85.237,76.2979,0.006841
85.268,76.2816,0.006841
85.299,76.2661,0.006841
85.331,76.2511,0.006841
85.362,76.2372,0.006841
85.394,76.2232,0.006531
85.425,76.2108,0.006531
85.456,76.1991,0.006531
85.486,76.1881,0.006531
85.517,76.1777,0.006531
85.549,76.1680,0.006531
85.580,76.1589,0.006531
85.611,76.1510,0.006531
85.642,76.1434,0.006531
85.673,76.1369,0.006380
85.707,76.1303,0.006380
85.735,76.1257,0.006380
85.767,76.1210,0.006380
85.798,76.1173,0.006380
85.829,76.1142,0.006380
85.859,76.1119,0.006380
85.890,76.1103,0.006380
85.921,76.1095,0.006239
85.953,76.1093,0.006239
85.983,76.1093,0.006239
86.014,76.1093,0.006239
86.045,76.1093,0.006239
86.075,76.1095,0.006239
86.106,76.1102,0.006239
86.137,76.1118,0.006239
86.168,76.1139,0.006107
86.200,76.1170,0.006107
86.231,76.1207,0.006107
86.261,76.1251,0.006107
86.292,76.1302,0.006107
86.323,76.1359,0.006107
86.353,76.1427,0.006107
86.385,76.1499,0.005834
86.416,76.1580,0.005834
86.446,76.1665,0.005834
86.477,76.1759,0.005834
86.509,76.1867,0.005834
86.539,76.1973,0.005834
86.571,76.2093,0.005834
86.602,76.2217,0.005834
86.633,76.2349,0.005834
86.664,76.2485,0.005703
86.695,76.2631,0.005703
86.726,76.2788,0.005703
86.757,76.2945,0.005703
86.787,76.3111,0.005703
86.818,76.3284,0.005703
86.850,76.3470,0.005703
86.880,76.3654,0.005656
86.911,76.3854,0.005656
86.942,76.4055,0.005656
86.973,76.4270,0.005656
87.004,76.4483,0.005656
87.036,76.4717,0.005656
87.067,76.4948,0.005656
87.098,76.5192,0.005656
87.128,76.5432,0.005599
87.159,76.5691,0.005599
87.190,76.5949,0.005599
87.221,76.6227,0.005599
87.253,76.6505,0.005599
87.283,76.6780,0.005599
87.315,76.7081,0.005599
87.346,76.7380,0.005599
87.378,76.7695,0.005477
87.409,76.8006,0.005477
87.440,76.8334,0.005477
87.472,76.8665,0.005477
87.503,76.8996,0.005477
87.534,76.9351,0.005477
87.565,76.9688,0.005477
87.596,77.0057,0.005477
87.626,77.0411,0.005477
87.658,77.0796,0.005289
87.689,77.1185,0.005289
87.719,77.1547,0.005289
87.752,77.1967,0.005289
87.780,77.2336,0.005289
87.814,77.2781,0.005289
87.843,77.3151,0.005289
87.874,77.3584,0.005289
87.905,77.4005,0.005213
87.936,77.4461,0.005213
87.967,77.4902,0.005213
87.998,77.5352,0.005213
88.029,77.5814,0.005213
88.060,77.6278,0.005213
88.092,77.6743,0.005213
88.122,77.7209,0.005213
88.153,77.7670,0.005006
88.185,77.8152,0.005006
88.214,77.8584,0.005006
88.246,77.9068,0.005006
88.277,77.9532,0.005006
88.309,78.0004,0.005006
88.339,78.0472,0.005006
88.370,78.0933,0.005006
88.401,78.1381,0.004922
88.432,78.1847,0.004922
88.462,78.2308,0.004922
88.495,78.2802,0.004922
88.524,78.3234,0.004922
88.556,78.3703,0.004922
88.587,78.4183,0.004922
88.618,78.4644,0.004922
88.649,78.5107,0.004922
88.680,78.5579,0.004912
88.714,78.6077,0.004912
88.742,78.6503,0.004912
88.774,78.6977,0.004912
88.805,78.7442,0.004912
88.836,78.7917,0.004912
88.870,78.8431,0.004912
88.900,78.8877,0.004912
88.934,78.9391,0.004715
88.962,78.9801,0.004715
88.995,79.0315,0.004715
89.025,79.0746,0.004715
89.054,79.1190,0.004715
89.086,79.1668,0.004715
89.115,79.2104,0.004715
89.149,79.2605,0.004715
89.179,79.3064,0.004319
89.210,79.3523,0.004319
89.242,79.4001,0.004319
89.276,79.4518,0.004319
89.304,79.4937,0.004319
89.336,79.5426,0.004319
89.366,79.5868,0.004319
89.397,79.6331,0.004319
89.424,79.6736,0.004319
89.459,79.7247,0.003472
89.489,79.7678,0.003472
89.520,79.8111,0.003472
89.552,79.8546,0.003472
89.585,79.9007,0.003472
89.614,79.9384,0.003472
89.644,79.9790,0.001976
89.675,80.0193,0.001976
89.705,80.0576,0.001976
89.738,80.0997,0.001976
89.767,80.1341,0.001976
89.798,80.1711,0.001976
89.828,80.2068,0.001976
89.859,80.2419,0.001976
89.890,80.2783,0.000151
89.921,80.3124,0.000151
89.952,80.3464,0.000151
89.983,80.3788,0.000151
90.018,80.4149,0.000151
90.045,80.4428,0.000151
90.078,80.4761,0.000151
90.107,80.5027,0.000151
90.138,80.5331,-0.001854
90.169,80.5618,-0.001854
90.200,80.5896,-0.001854
90.227,80.6137,-0.001854
90.262,80.6430,-0.001854
90.294,80.6692,-0.001854
90.323,80.6926,-0.001854
90.354,80.7173,-0.001854
90.385,80.7400,-0.004423
90.417,80.7638,-0.004423
90.446,80.7850,-0.004423
90.478,80.8070,-0.004423
90.510,80.8278,-0.004423
90.542,80.8480,-0.004423
90.572,80.8670,-0.004423
90.602,80.8847,-0.004423
90.633,80.9025,-0.008243
90.664,80.9192,-0.008243
90.695,80.9361,-0.008243
90.726,80.9515,-0.008243
90.757,80.9662,-0.008243
90.789,80.9805,-0.008243
90.819,80.9935,-0.008243
90.850,81.0060,-0.008243
90.881,81.0181,-0.013240
90.912,81.0291,-0.013240
90.942,81.0393,-0.013240
90.973,81.0489,-0.013240
91.004,81.0579,-0.013240
91.034,81.0663,-0.013240
91.065,81.0736,-0.013240
91.096,81.0804,-0.013240
91.128,81.0866,-0.017804
91.158,81.0920,-0.017804
91.192,81.0972,-0.017804
91.221,81.1007,-0.017804
91.252,81.1040,-0.017804
91.283,81.1064,-0.017804
91.315,81.1081,-0.017804
91.345,81.1091,-0.017804
91.376,81.1093,-0.017804
91.408,81.1093,-0.017804
91.438,81.1093,-0.020025
91.470,81.1093,-0.020025
91.501,81.1093,-0.020025
91.531,81.1093,-0.020025
91.565,81.1093,-0.020025
91.593,81.1093,-0.020025
91.624,81.1093,-0.020025
91.656,81.1093,-0.019310
91.687,81.1093,-0.019310
91.717,81.1093,-0.019310
91.748,81.1093,-0.019310
91.778,81.1093,-0.019310
91.809,81.1093,-0.019310
91.841,81.1093,-0.019310
91.872,81.1093,-0.019310
91.902,81.1093,-0.019310
91.933,81.1093,-0.017494
91.964,81.1093,-0.017494
91.997,81.1093,-0.017494
92.024,81.1093,-0.017494
92.055,81.1093,-0.017494
92.086,81.1093,-0.017494
92.118,81.1093,-0.017494
92.149,81.1093,-0.016242
92.183,81.1093,-0.016242
92.212,81.1093,-0.016242
92.244,81.1093,-0.016242
92.275,81.1093,-0.016242
