Elapsed Time (s),Position (mm),Force (N)
-0.008,53.7000,-0.025377
0.025,53.7000,-0.025377
0.055,53.7000,-0.025377
0.086,53.7000,-0.025377
0.117,53.7000,-0.027794
0.148,53.7000,-0.026586
0.179,53.7000,-0.026586
0.211,53.7000,-0.026586
0.244,53.7000,-0.030211
0.274,53.7000,-0.030211
0.304,53.7000,-0.026586
0.334,53.7000,-0.022961
0.366,53.7000,-0.022961
0.400,53.7000,-0.024169
0.427,53.7000,-0.022961
0.458,53.7000,-0.022961
0.490,53.7000,-0.024169
0.510,53.7000,-0.020544
0.537,53.7000,-0.024169
0.568,53.7000,-0.026586
0.599,53.7000,-0.030211
0.632,53.7000,-0.026586
0.661,53.7000,-0.024169
0.693,53.7000,-0.021752
0.723,53.7000,-0.020544
0.754,53.7000,-0.018127
0.786,53.7000,-0.018127
0.817,53.7000,-0.019335
0.848,53.7000,-0.020544
0.879,53.7000,-0.018127
0.910,53.7000,-0.020544
0.942,53.7000,-0.021752
0.972,53.7000,-0.022961
1.004,53.7000,-0.024169
1.035,53.7000,-0.024169
1.066,53.7000,-0.021752
1.088,53.7000,-0.021752
1.114,53.7000,-0.020544
1.134,53.7000,-0.019335
1.160,53.7000,-0.022961
1.191,53.7000,-0.025377
1.222,53.7000,-0.015710
1.252,53.7000,-0.022961
1.284,53.7000,-0.020544
1.315,53.7000,-0.025377
1.345,53.7000,-0.021752
1.378,53.7000,-0.022961
1.410,53.7000,-0.020544
1.441,53.7000,-0.015710
1.471,53.7000,-0.015710
1.502,53.7000,-0.024169
1.524,53.7000,-0.022961
1.548,53.7000,-0.022961
1.580,53.7000,-0.019335
1.611,53.7000,-0.015710
1.642,53.7000,-0.025377
1.675,53.7000,-0.021752
1.706,53.7000,-0.019335
1.738,53.7000,-0.018127
1.768,53.7000,-0.020544
1.798,53.7000,-0.021752
1.829,53.7000,-0.021752
1.860,53.7000,-0.016918
1.892,53.7000,-0.016918
1.923,53.7000,-0.018127
1.953,53.7000,-0.016918
1.984,53.7000,-0.021752
2.015,53.7000,-0.019335
2.035,53.7000,-0.016918
2.061,53.7000,-0.021752
2.083,53.7000,-0.022961
2.109,53.7000,-0.022961
2.139,53.7000,-0.022961
2.170,53.7000,-0.020544
2.202,53.7000,-0.020544
2.232,53.7000,-0.016918
2.262,53.7000,-0.018127
2.294,53.7000,-0.020544
2.325,53.7000,-0.021752
2.356,53.7000,-0.020544
2.386,53.7000,-0.018127
2.418,53.7000,-0.020544
2.448,53.7000,-0.020544
2.480,53.7000,-0.016918
2.511,53.7000,-0.018127
2.540,53.7000,-0.018127
2.573,53.7000,-0.015710
2.594,53.7000,-0.015710
2.618,53.7000,-0.016918
2.640,53.7000,-0.016918
2.664,53.7000,-0.019335
2.695,53.7000,-0.019335
2.726,53.7000,-0.020544
2.757,53.7000,-0.021752
2.788,53.7000,-0.016918
2.819,53.7000,-0.018127
2.851,53.7000,-0.018127
2.881,53.7000,-0.018127
2.914,53.7000,-0.016918
2.944,53.7000,-0.020544
2.975,53.7000,-0.020544
3.006,53.7000,-0.016918
3.036,53.7000,-0.016918
3.067,53.7000,-0.016918
3.088,53.7000,-0.016918
3.114,53.7000,-0.018127
3.135,53.7000,-0.019335
3.161,53.7000,-0.020544
3.191,53.7000,-0.021752
3.222,53.7000,-0.020544
3.253,53.7000,-0.020544
3.284,53.7000,-0.021752
3.317,53.7000,-0.015710
3.348,53.7000,-0.016918
3.378,53.7000,-0.016918
3.410,53.7000,-0.020544
3.441,53.7000,-0.014501
3.472,53.7000,-0.018127
3.505,53.7000,-0.016918
3.535,53.7000,-0.012084
3.565,53.7000,-0.015710
3.596,53.7000,-0.018127
3.628,53.7000,-0.021752
3.658,53.7000,-0.019335
3.689,53.7000,-0.018127
3.720,53.7000,-0.020544
3.741,53.7000,-0.018127
3.767,53.7000,-0.018127
3.798,53.7000,-0.015710
3.829,53.7000,-0.018127
3.859,53.7000,-0.018127
3.890,53.7000,-0.020544
3.921,53.7000,-0.018127
3.953,53.7000,-0.015710
3.984,53.7000,-0.018127
4.016,53.7000,-0.018127
4.047,53.7000,-0.018127
4.078,53.7000,-0.018127
4.108,53.7000,-0.016918
4.138,53.7000,-0.015710
4.170,53.7000,-0.019335
4.202,53.7000,-0.014501
4.233,53.7000,-0.019335
4.264,53.7000,-0.018127
4.285,53.7000,-0.019335
4.310,53.7000,-0.016918
4.340,53.7000,-0.016918
4.371,53.7000,-0.020544
4.402,53.7000,-0.020544
4.433,53.7000,-0.019335
4.464,53.7000,-0.015710
4.495,53.7000,-0.021752
4.526,53.7000,-0.020544
4.558,53.7000,-0.015710
4.589,53.7000,-0.019335
4.620,53.7000,-0.018127
4.652,53.7000,-0.019335
4.683,53.7000,-0.016918
4.714,53.7000,-0.014501
4.745,53.7000,-0.018127
4.776,53.7000,-0.016918
4.796,53.7000,-0.019335
4.822,53.7000,-0.019335
4.853,53.7000,-0.015710
4.883,53.7000,-0.019335
4.915,53.7000,-0.015710
4.946,53.7000,-0.014501
4.977,53.7000,-0.022961
5.008,53.7000,-0.022961
5.038,53.7000,-0.016918
5.069,53.7000,-0.016918
5.100,53.7000,-0.016918
5.131,53.7000,-0.014501
5.162,53.7000,-0.015710
5.193,53.7000,-0.019335
5.226,53.7000,-0.019335
5.255,53.7000,-0.013293
5.276,53.7000,-0.012084
5.301,53.7000,-0.016918
5.332,53.7000,-0.016918
5.363,53.7000,-0.015710
5.394,53.7000,-0.018127
5.425,53.7000,-0.021752
5.457,53.7000,-0.018127
5.488,53.7000,-0.015710
5.519,53.7000,-0.019335
5.550,53.7000,-0.019335
5.581,53.7000,-0.016918
5.613,53.7000,-0.014501
5.643,53.7000,-0.016918
5.674,53.7000,-0.019335
5.704,53.7000,-0.019335
5.736,53.7000,-0.015710
5.757,53.7000,-0.016918
5.782,53.7000,-0.018127
5.812,53.7000,-0.018127
5.843,53.7000,-0.018127
5.874,53.7000,-0.015710
5.905,53.7000,-0.015710
5.936,53.7000,-0.015710
5.966,53.7000,-0.015710
5.997,53.7000,-0.016918
6.028,53.7000,-0.016918
6.059,53.7000,-0.016918
6.090,53.7000,-0.016918
6.122,53.7000,-0.018127
6.153,53.7000,-0.015710
6.183,53.7000,-0.016918
6.204,53.7000,-0.018127
6.229,53.7000,-0.018127
6.261,53.7000,-0.016918
6.291,53.7000,-0.010876
6.323,53.7000,-0.018127
6.354,53.7000,-0.018127
6.385,53.7000,-0.015710
6.416,53.7000,-0.015710
6.448,53.7000,-0.014501
6.479,53.7000,-0.021752
6.510,53.7000,-0.021752
6.541,53.7000,-0.013293
6.573,53.7000,-0.015710
6.604,53.7000,-0.019335
6.635,53.7000,-0.016918
6.666,53.7000,-0.014501
6.698,53.7000,-0.019335
6.730,53.7000,-0.014501
6.761,53.7000,-0.016918
6.792,53.7000,-0.019335
6.813,53.7000,-0.019335
6.837,53.7000,-0.015710
6.869,53.7000,-0.016918
6.899,53.7000,-0.015710
6.930,53.7000,-0.016918
6.950,53.7000,-0.016918
6.976,53.7000,-0.015710
7.006,53.7000,-0.013293
7.038,53.7000,-0.018127
7.069,53.7000,-0.016918
7.099,53.7000,-0.012084
7.131,53.7000,-0.016918
7.162,53.7000,-0.019335
7.194,53.7000,-0.016918
7.225,53.7000,-0.015710
7.255,53.7000,-0.019335
7.286,53.7000,-0.016918
7.318,53.7000,-0.015710
7.348,53.7000,-0.013293
7.379,53.7000,-0.018127
7.411,53.7000,-0.015710
7.441,53.7000,-0.015710
7.463,53.7000,-0.018127
7.488,53.7000,-0.018127
7.519,53.7000,-0.019335
7.551,53.7000,-0.019335
7.582,53.7000,-0.018127
7.613,53.7000,-0.019335
7.644,53.7000,-0.019335
7.675,53.7000,-0.012084
7.708,53.7000,-0.015710
7.738,53.7000,-0.014501
7.770,53.7000,-0.019335
7.801,53.7000,-0.016918
7.832,53.7000,-0.016918
7.863,53.7000,-0.016918
7.894,53.7000,-0.016918
7.925,53.7000,-0.015710
7.956,53.7000,-0.016918
7.987,53.7000,-0.016918
8.018,53.7000,-0.013293
8.038,53.7000,-0.013293
8.064,53.7000,-0.018127
8.095,53.7000,-0.018127
8.127,53.7000,-0.015710
8.156,53.7000,-0.016918
8.188,53.7000,-0.016918
8.219,53.7000,-0.013293
8.250,53.7000,-0.010876
8.282,53.7000,-0.014501
8.313,53.7000,-0.018127
8.343,53.7000,-0.016918
8.376,53.7000,-0.015710
8.405,53.7000,-0.020544
8.437,53.7000,-0.019335
8.469,53.7000,-0.015710
8.500,53.7000,-0.020544
8.531,53.7000,-0.022961
8.563,53.7000,-0.015710
8.594,53.7000,-0.015710
8.617,53.7000,-0.014501
8.642,53.7000,-0.018127
8.672,53.7000,-0.015710
8.703,53.7000,-0.014501
8.734,53.7000,-0.015710
8.765,53.7000,-0.014501
8.797,53.7000,-0.013293
8.828,53.7000,-0.009668
8.859,53.7000,-0.018127
8.889,53.7000,-0.016918
8.920,53.7000,-0.014501
8.952,53.7000,-0.013293
8.983,53.7000,-0.015710
9.016,53.7000,-0.015710
9.046,53.7000,-0.012084
9.076,53.7000,-0.018127
9.108,53.7000,-0.019335
9.139,53.7000,-0.012084
9.170,53.7000,-0.012084
9.201,53.7000,-0.015710
9.232,53.7000,-0.014501
9.263,53.7000,-0.013293
9.294,53.7000,-0.013293
9.326,53.7000,-0.018127
9.356,53.7000,-0.020544
9.387,53.7000,-0.016918
9.418,53.7000,-0.013293
9.453,53.7000,-0.015710
9.479,53.7000,-0.018127
9.511,53.7000,-0.018127
9.543,53.7000,-0.021752
9.574,53.7000,-0.019335
9.604,53.7000,-0.014501
9.635,53.7000,-0.016918
9.666,53.7000,-0.016918
9.697,53.7000,-0.014501
9.718,53.7000,-0.014501
9.744,53.7000,-0.020544
9.775,53.7000,-0.015710
9.806,53.7000,-0.016918
9.837,53.7000,-0.015710
9.871,53.7000,-0.012084
9.898,53.7000,-0.012084
9.930,53.7000,-0.018127
9.957,53.7000,-0.015710
9.993,53.7000,-0.015710
10.023,53.7000,-0.014501
10.055,53.7000,-0.013293
10.086,53.7000,-0.012084
10.116,53.7000,-0.012084
10.148,53.7000,-0.013293
10.170,53.7000,-0.013293
10.195,53.7000,-0.015710
10.226,53.7000,-0.016918
10.257,53.7000,-0.016918
10.288,53.7000,-0.015710
10.318,53.7000,-0.014501
10.350,53.7000,-0.016918
10.381,53.7000,-0.016918
10.412,53.7000,-0.013293
10.442,53.7000,-0.016918
10.474,53.7000,-0.016918
10.504,53.7000,-0.018127
10.537,53.7000,-0.014501
10.567,53.7000,-0.016918
10.601,53.7000,-0.012084
10.628,53.7000,-0.012084
10.659,53.7000,-0.015710
10.691,53.7000,-0.020544
10.722,53.7000,-0.018127
10.753,53.7000,-0.014501
10.784,53.7000,-0.013293
10.814,53.7000,-0.019335
10.846,53.7000,-0.015710
10.878,53.7000,-0.012084
10.910,53.7000,-0.010876
10.941,53.7000,-0.015710
10.973,53.7000,-0.015710
11.004,53.7000,-0.015710
11.036,53.7000,-0.019335
11.068,53.7000,-0.020544
11.098,53.6306,0.000000
11.129,53.5394,-0.002417
11.160,53.4437,0.002417
11.191,53.3500,0.018127
11.214,53.2832,0.018127
11.238,53.2111,0.030211
11.258,53.1530,0.030211
11.284,53.0707,0.045921
11.305,53.0098,0.055589
11.331,52.9313,0.061631
11.362,52.8386,0.064048
11.392,52.7492,0.078549
11.424,52.6525,0.087008
11.455,52.5614,0.106343
11.486,52.4666,0.117219
11.517,52.3751,0.132929
11.548,52.2785,0.141388
11.579,52.1884,0.170391
11.611,52.0916,0.170391
11.643,51.9977,0.194560
11.675,51.9023,0.211478
11.705,51.8099,0.228397
11.736,51.7175,0.240481
11.767,51.6226,0.241690
11.798,51.5306,0.245315
11.829,51.4361,0.239273
11.850,51.3770,0.236856
11.876,51.2993,0.224771
11.906,51.2065,0.212687
11.937,51.1151,0.157098
11.968,51.0191,0.076132
11.999,50.9291,0.004834
12.030,50.8352,0.006042
12.061,50.7422,0.003625
12.093,50.6462,0.002417
12.125,50.5508,0.003625
12.156,50.4545,0.004834
12.187,50.3633,0.004834
12.219,50.2652,0.004834
12.250,50.1755,0.004834
12.281,50.0798,0.003625
12.312,49.9874,-0.001208
12.339,49.9091,0.002417
12.376,49.7984,0.002417
12.405,49.7096,0.000000
12.436,49.6184,0.003625
12.467,49.5254,0.004834
12.499,49.4297,0.003625
12.530,49.3358,0.003625
12.560,49.2467,0.002417
12.592,49.1471,0.002417
12.622,49.0583,0.000000
12.643,48.9968,0.000000
12.668,48.9186,0.000000
12.691,48.8516,0.007251
12.715,48.7799,0.009668
12.746,48.6881,0.003625
12.778,48.5915,0.002417
12.807,48.5033,0.003625
12.838,48.4109,0.003625
12.871,48.3137,0.002417
12.900,48.2249,0.002417
12.931,48.1308,0.002417
12.962,48.0405,-0.001208
12.997,47.9282,0.006042
13.024,47.8547,0.006042
13.044,47.7927,0.000000
13.070,47.7128,0.002417
13.093,47.6501,0.002417
13.117,47.6501,0.004834
13.148,47.6501,-0.015710
13.179,47.6501,-0.004834
13.210,47.6501,0.002417
13.244,47.6501,-0.001208
13.272,47.6501,0.000000
13.303,47.6501,0.003625
13.335,47.6501,0.007251
13.366,47.6501,-0.002417
13.397,47.6501,-0.002417
13.428,47.6501,0.000000
13.459,47.6501,0.002417
13.490,47.6501,0.001208
13.522,47.6501,-0.003625
13.553,47.6501,0.001208
13.583,47.6501,0.003625
13.615,47.6501,0.003625
13.636,47.6501,0.001208
13.661,47.6501,0.000000
13.691,47.6853,0.001208
13.723,47.7783,-0.010876
13.754,47.8701,0.001208
13.784,47.9631,0.003625
13.815,48.0561,0.002417
13.848,48.1527,0.002417
13.876,48.2388,0.004834
13.907,48.3354,-0.002417
13.930,48.4014,0.000000
13.953,48.4692,-0.001208
13.984,48.5644,0.000000
14.015,48.6555,0.002417
14.047,48.7506,0.002417
14.077,48.8427,0.002417
14.109,48.9380,0.003625
14.140,49.0289,0.002417
14.170,49.1249,0.002417
14.201,49.2126,-0.001208
14.232,49.3071,-0.002417
14.264,49.4013,-0.001208
14.294,49.4925,0.001208
14.325,49.5873,-0.002417
14.345,49.6467,0.002417
14.372,49.7250,0.002417
14.403,49.8207,0.002417
14.436,49.9209,0.000000
14.469,50.0175,-0.001208
14.497,50.1009,0.001208
14.528,50.1956,-0.002417
14.549,50.2584,-0.002417
14.574,50.3307,0.002417
14.606,50.4303,0.001208
14.636,50.5193,0.002417
14.667,50.6121,0.003625
14.698,50.7054,0.001208
14.729,50.7969,-0.002417
14.761,50.8914,0.000000
14.791,50.9832,0.000000
14.822,51.0771,0.000000
14.853,51.1701,-0.001208
14.884,51.2604,0.003625
14.915,51.3546,-0.004834
14.946,51.4485,-0.001208
14.966,51.5067,0.001208
14.992,51.5843,-0.007251
15.013,51.6479,-0.008459
15.040,51.7323,-0.004834
15.062,51.7953,-0.004834
15.084,51.8613,-0.003625
15.114,51.9513,-0.002417
15.144,52.0422,-0.004834
15.176,52.1376,0.000000
15.207,52.2306,-0.003625
15.238,52.3230,-0.007251
15.270,52.4211,-0.007251
15.300,52.5102,-0.004834
15.332,52.6062,-0.009668
15.365,52.7051,-0.006042
15.396,52.7975,-0.007251
15.426,52.8905,-0.007251
15.458,52.9839,-0.012084
15.489,53.0789,-0.019335
15.520,53.1692,-0.018127
15.551,53.2614,-0.019335
15.582,53.3574,-0.024169
15.612,53.4468,-0.024169
15.643,53.5398,-0.030211
15.663,53.6001,-0.036253
15.690,53.6501,-0.036253
15.721,53.6501,-0.032628
15.751,53.6501,-0.031420
15.783,53.6501,-0.037462
15.813,53.6501,-0.033837
15.844,53.6501,-0.033837
15.875,53.6501,-0.036253
15.906,53.6501,-0.031420
15.936,53.6501,-0.029003
15.968,53.6501,-0.032628
15.999,53.6501,-0.026586
16.030,53.6501,-0.031420
16.053,53.6501,-0.030211
16.077,53.6501,-0.030211
16.108,53.6501,-0.032628
16.139,53.6501,-0.027794
16.171,53.6501,-0.026586
16.200,53.6501,-0.025377
16.231,53.6501,-0.025377
16.263,53.6501,-0.026586
16.294,53.6501,-0.026586
16.324,53.6501,-0.027794
16.355,53.6501,-0.024169
16.386,53.6501,-0.022961
16.417,53.6501,-0.025377
16.437,53.6501,-0.025377
16.464,53.6501,-0.025377
16.495,53.6501,-0.025377
16.527,53.6501,-0.025377
16.558,53.6501,-0.021752
16.589,53.6501,-0.021752
16.620,53.6501,-0.021752
16.651,53.6501,-0.025377
16.682,53.6501,-0.026586
16.713,53.6501,-0.024169
16.745,53.6501,-0.022961
16.776,53.6501,-0.024169
16.807,53.6501,-0.024169
16.838,53.6501,-0.022961
16.869,53.6501,-0.024169
16.900,53.6501,-0.026586
16.932,53.6501,-0.022961
16.963,53.6501,-0.021752
16.994,53.6501,-0.024169
17.026,53.6501,-0.025377
17.057,53.6501,-0.020544
17.089,53.6501,-0.020544
17.121,53.6501,-0.025377
17.141,53.6501,-0.020544
17.168,53.6501,-0.020544
17.190,53.6501,-0.019335
17.213,53.6501,-0.024169
17.244,53.6501,-0.026586
17.275,53.6501,-0.026586
17.305,53.6501,-0.021752
17.336,53.6501,-0.021752
17.368,53.6501,-0.025377
17.400,53.6501,-0.020544
17.431,53.6501,-0.020544
17.462,53.6501,-0.022961
17.493,53.6501,-0.025377
17.525,53.6501,-0.022961
17.555,53.6501,-0.020544
17.577,53.6501,-0.020544
17.601,53.6501,-0.022961
17.632,53.6501,-0.022961
17.653,53.6501,-0.020544
17.678,53.6501,-0.020544
17.710,53.6501,-0.022961
17.741,53.6501,-0.021752
17.771,53.6501,-0.019335
17.802,53.6501,-0.022961
17.833,53.6501,-0.022961
17.865,53.6501,-0.020544
17.896,53.6501,-0.021752
17.928,53.6501,-0.018127
17.958,53.6501,-0.021752
17.990,53.6501,-0.021752
18.021,53.6501,-0.016918
18.052,53.6501,-0.019335
18.082,53.6501,-0.027794
18.114,53.6501,-0.019335
18.145,53.6501,-0.019335
18.176,53.6501,-0.019335
18.196,53.6501,-0.020544
18.222,53.6501,-0.019335
18.244,53.6501,-0.018127
18.268,53.6501,-0.018127
18.300,53.6501,-0.018127
18.331,53.6501,-0.016918
18.362,53.6501,-0.019335
18.393,53.6501,-0.021752
18.425,53.6501,-0.021752
18.456,53.6501,-0.018127
18.487,53.6501,-0.019335
18.518,53.6501,-0.021752
18.548,53.6501,-0.019335
18.579,53.6501,-0.025377
18.611,53.6501,-0.024169
18.641,53.6501,-0.020544
18.672,53.6501,-0.020544
18.692,53.6501,-0.018127
18.718,53.6501,-0.018127
18.749,53.6501,-0.016918
18.779,53.6501,-0.015710
18.810,53.6501,-0.019335
18.841,53.6501,-0.014501
18.873,53.6501,-0.018127
18.905,53.6501,-0.015710
18.935,53.6501,-0.015710
18.966,53.6501,-0.019335
18.997,53.6501,-0.018127
19.020,53.6501,-0.018127
19.043,53.6501,-0.014501
19.074,53.6501,-0.019335
19.105,53.6501,-0.020544
19.137,53.6501,-0.016918
19.167,53.6501,-0.020544
19.188,53.6501,-0.018127
19.213,53.6501,-0.019335
19.244,53.6501,-0.019335
19.275,53.6501,-0.016918
19.306,53.6501,-0.016918
19.337,53.6501,-0.022961
19.368,53.6501,-0.021752
19.398,53.6501,-0.018127
19.430,53.6501,-0.018127
19.460,53.6501,-0.018127
19.492,53.6501,-0.016918
19.522,53.6501,-0.018127
19.554,53.6501,-0.021752
19.585,53.6501,-0.021752
19.616,53.6501,-0.018127
19.648,53.6501,-0.020544
19.669,53.6501,-0.020544
19.694,53.6501,-0.018127
19.725,53.6501,-0.018127
19.756,53.6501,-0.015710
19.787,53.6501,-0.019335
19.817,53.6501,-0.019335
19.847,53.6501,-0.018127
19.880,53.6501,-0.018127
19.911,53.6501,-0.018127
19.943,53.6501,-0.015710
19.975,53.6501,-0.015710
20.006,53.6501,-0.018127
20.038,53.6501,-0.018127
20.069,53.6501,-0.018127
20.099,53.6501,-0.021752
20.131,53.6501,-0.021752
20.162,53.6501,-0.021752
20.193,53.6501,-0.018127
20.233,53.6501,-0.020544
20.256,53.6501,-0.018127
20.286,53.6501,-0.019335
20.308,53.6501,-0.019335
20.333,53.6501,-0.020544
20.364,53.6501,-0.024169
20.395,53.6501,-0.019335
20.427,53.6501,-0.018127
20.458,53.6501,-0.019335
20.489,53.6501,-0.019335
20.520,53.6501,-0.016918
20.551,53.6501,-0.014501
20.581,53.6501,-0.018127
20.613,53.6501,-0.021752
20.645,53.6501,-0.020544
20.674,53.6501,-0.022961
20.706,53.6501,-0.020544
20.736,53.6501,-0.019335
20.768,53.6501,-0.019335
20.799,53.6501,-0.016918
20.820,53.6501,-0.016918
20.845,53.6501,-0.018127
20.876,53.6501,-0.016918
20.907,53.6501,-0.016918
20.938,53.6501,-0.016918
20.970,53.6501,-0.015710
21.000,53.6501,-0.014501
21.031,53.6501,-0.014501
21.063,53.6501,-0.018127
21.096,53.6501,-0.021752
21.127,53.6501,-0.021752
21.159,53.6501,-0.018127
21.190,53.6501,-0.019335
21.221,53.6501,-0.019335
21.252,53.6501,-0.022961
21.283,53.6501,-0.015710
21.315,53.6501,-0.016918
21.345,53.6501,-0.018127
21.377,53.6501,-0.015710
21.409,53.6501,-0.016918
21.441,53.6501,-0.014501
21.471,53.6501,-0.015710
21.502,53.6501,-0.021752
21.523,53.6501,-0.016918
21.549,53.6501,-0.016918
21.580,53.6501,-0.014501
21.611,53.6501,-0.015710
21.641,53.6501,-0.015710
21.671,53.6501,-0.015710
21.702,53.6501,-0.016918
21.733,53.6501,-0.016918
21.765,53.6501,-0.019335
21.797,53.6501,-0.014501
21.827,53.6501,-0.015710
21.858,53.6501,-0.015710
21.888,53.6501,-0.015710
21.919,53.6501,-0.013293
21.950,53.6501,-0.013293
21.971,53.6501,-0.014501
21.997,53.6501,-0.019335
22.028,53.6501,-0.019335
22.050,53.6501,-0.016918
22.077,53.6501,-0.018127
22.105,53.6501,-0.018127
22.136,53.6501,-0.015710
22.167,53.6501,-0.012084
22.199,53.6501,-0.019335
22.231,53.6501,-0.021752
22.263,53.6501,-0.016918
22.294,53.6501,-0.015710
22.326,53.6501,-0.016918
22.356,53.6501,-0.013293
22.388,53.6501,-0.016918
22.418,53.6501,-0.016918
22.448,53.6501,-0.016918
22.468,53.6501,-0.014501
22.495,53.6501,-0.014501
22.527,53.6501,-0.014501
22.558,53.6501,-0.018127
22.578,53.6501,-0.018127
22.599,53.6501,-0.020544
22.636,53.6501,-0.014501
22.666,53.6501,-0.015710
22.697,53.6501,-0.018127
22.729,53.6501,-0.018127
22.760,53.6501,-0.018127
22.794,53.6501,-0.018127
22.824,53.6501,-0.016918
22.856,53.6501,-0.015710
22.887,53.6501,-0.019335
22.918,53.6501,-0.016918
22.949,53.6501,-0.016918
22.979,53.6501,-0.018127
23.010,53.6501,-0.019335
23.031,53.6501,-0.019335
23.057,53.6501,-0.015710
23.089,53.6501,-0.015710
23.119,53.6501,-0.020544
23.141,53.6501,-0.020544
23.166,53.6501,-0.016918
23.197,53.6501,-0.014501
23.228,53.6501,-0.013293
23.259,53.6501,-0.016918
23.289,53.6501,-0.019335
23.322,53.6501,-0.015710
23.352,53.6501,-0.016918
23.384,53.6501,-0.012084
23.415,53.6501,-0.015710
23.447,53.6501,-0.014501
23.478,53.6501,-0.016918
23.509,53.6501,-0.016918
23.540,53.6501,-0.019335
23.571,53.6501,-0.021752
23.603,53.6501,-0.022961
23.634,53.6501,-0.020544
23.665,53.6501,-0.020544
23.696,53.6501,-0.020544
23.727,53.6501,-0.015710
23.758,53.6501,-0.015710
23.789,53.6501,-0.016918
23.819,53.6501,-0.016918
23.850,53.6501,-0.015710
23.881,53.6501,-0.018127
23.912,53.6501,-0.021752
23.944,53.6501,-0.019335
23.976,53.6501,-0.016918
24.007,53.6501,-0.016918
24.037,53.6501,-0.019335
24.068,53.6501,-0.021752
24.099,53.6501,-0.016918
24.130,53.6501,-0.016918
24.162,53.6501,-0.018127
24.193,53.6501,-0.015710
24.215,53.6501,-0.019335
24.238,53.6501,-0.019335
24.269,53.6501,-0.018127
24.300,53.6501,-0.014501
24.331,53.6501,-0.016918
24.363,53.6501,-0.015710
24.395,53.6501,-0.014501
24.426,53.6501,-0.016918
24.460,53.6501,-0.020544
24.487,53.6501,-0.022961
24.517,53.6501,-0.014501
24.548,53.6501,-0.015710
24.580,53.6501,-0.019335
24.611,53.6501,-0.018127
24.643,53.6501,-0.013293
24.674,53.6501,-0.014501
24.695,53.6501,-0.015710
24.721,53.6501,-0.018127
24.752,53.6501,-0.013293
24.773,53.6501,-0.013293
24.798,53.6501,-0.016918
24.829,53.6501,-0.016918
24.858,53.6501,-0.015710
24.889,53.6501,-0.015710
24.920,53.6501,-0.018127
24.952,53.6501,-0.018127
24.984,53.6501,-0.016918
25.015,53.6501,-0.018127
25.045,53.6501,-0.021752
25.077,53.6501,-0.018127
25.109,53.6501,-0.015710
25.140,53.6501,-0.016918
25.171,53.6501,-0.016918
25.192,53.6501,-0.015710
25.217,53.6501,-0.014501
25.248,53.6501,-0.014501
25.279,53.6501,-0.020544
25.310,53.6501,-0.018127
25.340,53.6501,-0.015710
25.372,53.6501,-0.015710
25.403,53.6501,-0.019335
25.434,53.6501,-0.016918
25.465,53.6501,-0.013293
25.496,53.6501,-0.013293
25.530,53.6501,-0.016918
25.558,53.6501,-0.015710
25.589,53.6501,-0.015710
25.619,53.6501,-0.019335
25.653,53.6501,-0.019335
25.682,53.6501,-0.013293
25.712,53.6501,-0.015710
25.733,53.6501,-0.020544
25.759,53.6501,-0.020544
25.791,53.6501,-0.019335
25.822,53.6501,-0.015710
25.843,53.6501,-0.013293
25.868,53.6501,-0.013293
25.900,53.6501,-0.013293
25.930,53.6501,-0.016918
25.961,53.6501,-0.014501
25.992,53.6501,-0.012084
26.026,53.6501,-0.010876
26.053,53.6501,-0.016918
26.086,53.6501,-0.016918
26.116,53.6501,-0.016918
26.148,53.6501,-0.016918
26.179,53.6501,-0.019335
26.209,53.6501,-0.016918
26.240,53.6501,-0.018127
26.280,53.6501,-0.015710
26.303,53.6501,-0.019335
26.334,53.6501,-0.022961
26.354,53.6501,-0.018127
26.380,53.6501,-0.019335
26.403,53.6501,-0.019335
26.427,53.6501,-0.019335
26.458,53.6501,-0.015710
26.489,53.6501,-0.015710
26.521,53.6501,-0.016918
26.553,53.6501,-0.019335
26.583,53.6501,-0.015710
26.614,53.6501,-0.008459
26.645,53.6501,-0.013293
26.676,53.6501,-0.016918
26.707,53.6501,-0.013293
26.737,53.6501,-0.015710
26.769,53.6501,-0.016918
26.800,53.6501,-0.016918
26.832,53.6501,-0.020544
26.863,53.6501,-0.018127
26.894,53.6501,-0.019335
26.914,53.6501,-0.020544
26.944,53.6501,-0.020544
26.972,53.6501,-0.013293
27.003,53.6313,-0.015710
27.025,53.5675,-0.002417
27.050,53.4921,-0.002417
27.080,53.3977,-0.004834
27.111,53.3082,0.014501
27.143,53.2089,0.014501
27.173,53.1204,0.033837
27.204,53.0265,0.039879
27.236,52.9315,0.050755
27.268,52.8357,0.058005
27.299,52.7425,0.080966
27.330,52.6476,0.080966
27.360,52.5613,0.106343
27.392,52.4640,0.112386
27.422,52.3734,0.134138
27.442,52.3146,0.134138
27.468,52.2351,0.149848
27.500,52.1418,0.175225
27.520,52.0800,0.175225
27.547,51.9976,0.186101
27.568,51.9369,0.193352
27.593,51.8610,0.203019
27.624,51.7686,0.211478
27.655,51.6765,0.219937
27.685,51.5841,0.227188
27.716,51.4929,0.227188
27.747,51.3999,0.224771
27.778,51.3069,0.195769
27.809,51.2115,0.195769
27.841,51.1189,0.070090
27.871,51.0286,0.014501
27.902,50.9356,0.004834
27.933,50.8419,0.006042
27.964,50.7478,0.003625
27.984,50.6889,0.003625
28.010,50.6097,0.003625
28.041,50.5174,0.001208
28.063,50.4529,0.003625
28.087,50.3787,0.003625
28.117,50.2882,0.008459
28.148,50.1939,0.002417
28.180,50.1006,0.001208
28.212,50.0040,0.007251
28.244,49.9101,0.006042
28.274,49.8156,0.002417
28.306,49.7203,0.004834
28.336,49.6336,0.007251
28.368,49.5348,0.004834
28.398,49.4467,0.000000
28.429,49.3507,0.000000
28.461,49.2591,0.002417
28.492,49.1649,0.001208
28.523,49.0716,0.002417
28.556,48.9726,0.002417
28.584,48.8856,0.002417
28.606,48.8215,-0.002417
28.630,48.7498,-0.002417
28.663,48.6532,0.007251
28.693,48.5608,0.002417
28.725,48.4656,0.000000
28.755,48.3753,0.002417
28.786,48.2806,0.006042
28.818,48.1876,0.003625
28.848,48.0960,0.003625
28.879,48.0024,0.003625
28.914,47.8926,0.001208
28.941,47.8180,0.000000
28.972,47.7225,0.003625
29.004,47.6277,0.002417
29.036,47.6001,0.001208
29.067,47.6001,-0.007251
29.098,47.6001,0.001208
29.118,47.6001,0.001208
29.141,47.6001,-0.001208
29.175,47.6001,0.003625
29.206,47.6001,-0.001208
29.237,47.6001,-0.001208
29.268,47.6001,0.002417
29.298,47.6001,-0.002417
29.329,47.6001,0.002417
29.360,47.6001,0.002417
29.382,47.6001,0.002417
29.408,47.6001,0.002417
29.438,47.6001,0.000000
29.468,47.6001,0.001208
29.500,47.6001,0.000000
29.531,47.6455,0.000000
29.562,47.7379,-0.012084
29.594,47.8357,0.002417
29.627,47.9353,0.003625
29.656,48.0218,0.002417
29.687,48.1148,0.003625
29.718,48.2074,0.000000
29.749,48.3017,0.003625
29.782,48.4003,0.000000
29.811,48.4870,0.000000
29.842,48.5791,0.002417
29.873,48.6734,0.001208
29.904,48.7639,0.001208
29.925,48.8308,0.001208
29.950,48.9049,0.001208
29.981,48.9973,0.001208
30.013,49.0939,0.001208
30.044,49.1845,0.001208
30.075,49.2811,0.002417
30.106,49.3711,0.002417
30.138,49.4686,0.002417
30.168,49.5574,-0.001208
30.199,49.6525,0.001208
30.221,49.7164,0.001208
30.245,49.7893,-0.002417
30.276,49.8814,-0.004834
30.307,49.9735,0.001208
30.338,50.0665,0.003625
30.368,50.1586,0.001208
30.399,50.2528,0.004834
30.431,50.3443,0.004834
30.462,50.4388,-0.002417
30.493,50.5330,-0.002417
30.525,50.6281,0.001208
30.555,50.7214,-0.002417
30.586,50.8112,-0.001208
30.616,50.9015,0.001208
30.636,50.9620,0.001208
30.664,51.0445,0.002417
30.684,51.1060,-0.001208
30.710,51.1834,-0.001208
30.741,51.2772,-0.001208
30.763,51.3415,0.001208
30.789,51.4192,0.001208
30.827,51.5347,-0.003625
30.851,51.6049,-0.003625
30.882,51.7009,-0.002417
30.913,51.7921,-0.001208
30.945,51.8895,-0.002417
30.974,51.9754,-0.003625
31.006,52.0724,-0.002417
31.036,52.1631,-0.004834
31.068,52.2629,-0.004834
31.099,52.3489,-0.001208
31.130,52.4431,-0.004834
31.162,52.5388,-0.003625
31.193,52.6321,-0.001208
31.225,52.7281,-0.008459
31.256,52.8205,-0.009668
31.286,52.9111,-0.010876
31.306,52.9717,-0.009668
31.332,53.0505,-0.009668
31.363,53.1414,-0.015710
31.394,53.2363,-0.018127
31.425,53.3305,-0.020544
31.456,53.4217,-0.019335
31.487,53.5141,-0.032628
31.518,53.6001,-0.032628
31.553,53.6001,-0.038670
31.581,53.6001,-0.035045
31.612,53.6001,-0.039879
31.644,53.6001,-0.033837
31.675,53.6001,-0.036253
31.695,53.6001,-0.036253
31.722,53.6001,-0.036253
31.752,53.6001,-0.033837
31.783,53.6001,-0.032628
31.815,53.6001,-0.033837
31.835,53.6001,-0.031420
31.859,53.6001,-0.030211
31.893,53.6001,-0.027794
31.924,53.6001,-0.022961
31.954,53.6001,-0.022961
31.985,53.6001,-0.027794
32.016,53.6001,-0.027794
32.046,53.6001,-0.024169
32.067,53.6001,-0.027794
32.093,53.6001,-0.030211
32.115,53.6001,-0.030211
32.139,53.6001,-0.027794
32.172,53.6001,-0.026586
32.201,53.6001,-0.024169
32.232,53.6001,-0.025377
32.263,53.6001,-0.026586
32.294,53.6001,-0.029003
32.325,53.6001,-0.031420
32.356,53.6001,-0.024169
32.386,53.6001,-0.026586
32.417,53.6001,-0.026586
32.447,53.6001,-0.026586
32.481,53.6001,-0.024169
32.510,53.6001,-0.025377
32.531,53.6001,-0.025377
32.557,53.6001,-0.026586
32.588,53.6001,-0.027794
32.619,53.6001,-0.024169
32.650,53.6001,-0.025377
32.681,53.6001,-0.026586
32.712,53.6001,-0.022961
32.742,53.6001,-0.024169
32.773,53.6001,-0.022961
32.805,53.6001,-0.026586
32.836,53.6001,-0.024169
32.869,53.6001,-0.022961
32.900,53.6001,-0.022961
32.931,53.6001,-0.020544
32.962,53.6001,-0.020544
32.986,53.6001,-0.020544
33.008,53.6001,-0.020544
33.039,53.6001,-0.025377
33.070,53.6001,-0.021752
33.102,53.6001,-0.019335
33.132,53.6001,-0.021752
33.165,53.6001,-0.021752
33.195,53.6001,-0.020544
33.225,53.6001,-0.024169
33.257,53.6001,-0.022961
33.288,53.6001,-0.019335
33.319,53.6001,-0.020544
33.350,53.6001,-0.020544
33.381,53.6001,-0.020544
33.411,53.6001,-0.022961
33.432,53.6001,-0.020544
33.458,53.6001,-0.019335
33.489,53.6001,-0.021752
33.520,53.6001,-0.020544
33.541,53.6001,-0.018127
33.567,53.6001,-0.018127
33.598,53.6001,-0.016918
33.629,53.6001,-0.026586
33.660,53.6001,-0.018127
33.691,53.6001,-0.018127
33.722,53.6001,-0.024169
33.753,53.6001,-0.018127
33.785,53.6001,-0.016918
33.815,53.6001,-0.016918
33.846,53.6001,-0.018127
33.878,53.6001,-0.021752
33.909,53.6001,-0.022961
33.940,53.6001,-0.019335
33.972,53.6001,-0.020544
34.003,53.6001,-0.020544
34.034,53.6001,-0.021752
34.065,53.6001,-0.020544
34.096,53.6001,-0.025377
34.117,53.6001,-0.025377
34.143,53.6001,-0.021752
34.173,53.6001,-0.022961
34.204,53.6001,-0.024169
34.235,53.6001,-0.014501
34.266,53.6001,-0.018127
34.297,53.6001,-0.021752
34.328,53.6001,-0.020544
34.359,53.6001,-0.022961
34.391,53.6001,-0.022961
34.421,53.6001,-0.021752
34.452,53.6001,-0.016918
34.483,53.6001,-0.019335
34.514,53.6001,-0.019335
34.545,53.6001,-0.024169
34.565,53.6001,-0.021752
34.591,53.6001,-0.022961
34.622,53.6001,-0.025377
34.644,53.6001,-0.020544
34.667,53.6001,-0.020544
34.699,53.6001,-0.018127
34.729,53.6001,-0.021752
34.761,53.6001,-0.018127
34.792,53.6001,-0.019335
34.823,53.6001,-0.016918
34.855,53.6001,-0.019335
34.887,53.6001,-0.018127
34.918,53.6001,-0.018127
34.949,53.6001,-0.018127
34.980,53.6001,-0.021752
35.012,53.6001,-0.021752
35.042,53.6001,-0.012084
35.074,53.6001,-0.014501
35.104,53.6001,-0.019335
35.125,53.6001,-0.020544
35.150,53.6001,-0.015710
35.172,53.6001,-0.015710
35.196,53.6001,-0.018127
35.227,53.6001,-0.024169
35.258,53.6001,-0.021752
35.289,53.6001,-0.020544
35.320,53.6001,-0.016918
35.351,53.6001,-0.016918
35.382,53.6001,-0.015710
35.412,53.6001,-0.019335
35.443,53.6001,-0.019335
35.473,53.6001,-0.021752
35.504,53.6001,-0.018127
35.535,53.6001,-0.020544
35.566,53.6001,-0.016918
35.597,53.6001,-0.019335
35.628,53.6001,-0.019335
35.660,53.6001,-0.015710
35.691,53.6001,-0.021752
35.712,53.6001,-0.018127
35.737,53.6001,-0.016918
35.768,53.6001,-0.020544
35.799,53.6001,-0.015710
35.830,53.6001,-0.016918
35.861,53.6001,-0.018127
35.891,53.6001,-0.018127
35.922,53.6001,-0.019335
35.954,53.6001,-0.019335
35.985,53.6001,-0.019335
36.017,53.6001,-0.018127
36.047,53.6001,-0.021752
36.079,53.6001,-0.021752
36.110,53.6001,-0.019335
36.140,53.6001,-0.024169
36.171,53.6001,-0.022961
36.192,53.6001,-0.020544
36.217,53.6001,-0.016918
36.248,53.6001,-0.022961
36.270,53.6001,-0.015710
36.294,53.6001,-0.016918
36.326,53.6001,-0.016918
36.357,53.6001,-0.019335
36.389,53.6001,-0.015710
36.420,53.6001,-0.018127
36.453,53.6001,-0.018127
36.482,53.6001,-0.021752
36.513,53.6001,-0.016918
36.544,53.6001,-0.021752
36.575,53.6001,-0.021752
36.606,53.6001,-0.020544
36.636,53.6001,-0.016918
36.668,53.6001,-0.016918
36.700,53.6001,-0.015710
36.730,53.6001,-0.016918
36.761,53.6001,-0.019335
36.781,53.6001,-0.018127
36.811,53.6001,-0.018127
36.839,53.6001,-0.021752
36.860,53.6001,-0.021752
36.885,53.6001,-0.021752
36.916,53.6001,-0.010876
36.947,53.6001,-0.015710
36.979,53.6001,-0.018127
37.010,53.6001,-0.014501
37.041,53.6001,-0.016918
37.072,53.6001,-0.016918
37.104,53.6001,-0.014501
37.135,53.6001,-0.014501
37.165,53.6001,-0.019335
37.198,53.6001,-0.015710
37.228,53.6001,-0.014501
37.259,53.6001,-0.021752
37.290,53.6001,-0.019335
37.321,53.6001,-0.018127
37.352,53.6001,-0.015710
37.382,53.6001,-0.012084
37.404,53.6001,-0.018127
37.428,53.6001,-0.018127
37.459,53.6001,-0.018127
37.490,53.6001,-0.019335
37.523,53.6001,-0.018127
37.552,53.6001,-0.016918
37.584,53.6001,-0.015710
37.615,53.6001,-0.020544
37.646,53.6001,-0.019335
37.677,53.6001,-0.018127
37.708,53.6001,-0.016918
37.738,53.6001,-0.015710
37.769,53.6001,-0.014501
37.800,53.6001,-0.019335
37.831,53.6001,-0.018127
37.862,53.6001,-0.012084
37.883,53.6001,-0.013293
37.908,53.6001,-0.013293
37.940,53.6001,-0.013293
37.972,53.6001,-0.015710
38.001,53.6001,-0.020544
38.033,53.6001,-0.019335
38.065,53.6001,-0.021752
38.094,53.6001,-0.020544
38.128,53.6001,-0.019335
38.157,53.6001,-0.016918
38.188,53.6001,-0.018127
38.219,53.6001,-0.020544
38.250,53.6001,-0.018127
38.281,53.6001,-0.019335
38.313,53.6001,-0.019335
38.345,53.6001,-0.019335
38.377,53.6001,-0.015710
38.407,53.6001,-0.015710
38.427,53.6001,-0.015710
38.453,53.6001,-0.019335
38.475,53.6001,-0.018127
38.500,53.6001,-0.016918
38.531,53.6001,-0.015710
38.564,53.6001,-0.020544
38.595,53.6001,-0.016918
38.626,53.6001,-0.013293
38.656,53.6001,-0.020544
38.693,53.6001,-0.020544
38.718,53.6001,-0.016918
38.749,53.6001,-0.018127
38.780,53.6001,-0.021752
38.811,53.6001,-0.020544
38.842,53.6001,-0.018127
38.873,53.6001,-0.019335
38.904,53.6001,-0.020544
38.936,53.6001,-0.012084
38.968,53.6001,-0.016918
38.998,53.6001,-0.021752
39.018,53.6001,-0.014501
39.044,53.6001,-0.014501
39.075,53.6001,-0.014501
39.107,53.6001,-0.018127
39.138,53.6001,-0.018127
39.169,53.6001,-0.019335
39.200,53.6001,-0.014501
39.231,53.6001,-0.015710
39.264,53.6001,-0.016918
39.295,53.6001,-0.014501
39.326,53.6001,-0.013293
39.358,53.6001,-0.014501
39.388,53.6001,-0.015710
39.419,53.6001,-0.018127
39.450,53.6001,-0.018127
39.481,53.6001,-0.016918
39.512,53.6001,-0.014501
39.543,53.6001,-0.016918
39.573,53.6001,-0.019335
39.594,53.6001,-0.019335
39.619,53.6001,-0.012084
39.649,53.6001,-0.013293
39.681,53.6001,-0.013293
39.711,53.6001,-0.015710
39.743,53.6001,-0.014501
39.773,53.6001,-0.013293
39.805,53.6001,-0.015710
39.835,53.6001,-0.018127
39.866,53.6001,-0.012084
39.897,53.6001,-0.018127
39.929,53.6001,-0.018127
39.960,53.6001,-0.014501
39.991,53.6001,-0.013293
40.022,53.6001,-0.014501
40.043,53.6001,-0.019335
40.070,53.6001,-0.013293
40.090,53.6001,-0.013293
40.114,53.6001,-0.015710
40.145,53.6001,-0.015710
40.175,53.6001,-0.014501
40.207,53.6001,-0.015710
40.237,53.6001,-0.015710
40.267,53.6001,-0.022961
40.298,53.6001,-0.014501
40.329,53.6001,-0.016918
40.360,53.6001,-0.016918
40.391,53.6001,-0.016918
40.411,53.6001,-0.015710
40.438,53.6001,-0.012084
40.458,53.6001,-0.012084
40.484,53.6001,-0.020544
40.507,53.6001,-0.015710
40.530,53.6001,-0.015710
40.562,53.6001,-0.018127
40.585,53.6001,-0.018127
40.608,53.6001,-0.018127
40.640,53.6001,-0.018127
40.669,53.6001,-0.015710
40.700,53.6001,-0.016918
40.732,53.6001,-0.016918
40.763,53.6001,-0.016918
40.793,53.6001,-0.015710
40.825,53.6001,-0.021752
40.856,53.6001,-0.019335
40.887,53.6001,-0.019335
40.919,53.6001,-0.012084
40.950,53.6001,-0.012084
40.980,53.6001,-0.015710
41.011,53.6001,-0.014501
41.032,53.6001,-0.014501
41.057,53.6001,-0.019335
41.089,53.6001,-0.016918
41.119,53.6001,-0.015710
41.142,53.6001,-0.015710
41.166,53.6001,-0.020544
41.195,53.6001,-0.021752
41.226,53.6001,-0.025377
41.256,53.6001,-0.018127
41.288,53.6001,-0.019335
41.319,53.6001,-0.018127
41.349,53.6001,-0.016918
41.382,53.6001,-0.014501
41.413,53.6001,-0.016918
41.445,53.6001,-0.014501
41.476,53.6001,-0.018127
41.506,53.6001,-0.013293
41.537,53.6001,-0.016918
41.557,53.6001,-0.016918
41.583,53.6001,-0.014501
41.614,53.6001,-0.018127
41.645,53.6001,-0.016918
41.676,53.6001,-0.014501
41.698,53.6001,-0.014501
41.724,53.6001,-0.015710
41.755,53.6001,-0.020544
41.785,53.6001,-0.008459
41.816,53.6001,-0.019335
41.847,53.6001,-0.018127
41.878,53.6001,-0.016918
41.910,53.6001,-0.016918
41.941,53.6001,-0.016918
41.972,53.6001,-0.015710
42.004,53.6001,-0.018127
42.033,53.6001,-0.015710
42.063,53.6001,-0.014501
42.095,53.6001,-0.016918
42.126,53.6001,-0.018127
42.146,53.6001,-0.015710
42.172,53.6001,-0.016918
42.203,53.6001,-0.016918
42.234,53.6001,-0.018127
42.256,53.6001,-0.014501
42.280,53.6001,-0.012084
42.311,53.6001,-0.014501
42.342,53.6001,-0.015710
42.373,53.6001,-0.010876
42.404,53.6001,-0.016918
42.435,53.6001,-0.015710
42.466,53.6001,-0.016918
42.498,53.6001,-0.012084
42.530,53.6001,-0.012084
42.561,53.6001,-0.020544
42.592,53.6001,-0.016918
42.624,53.6001,-0.012084
42.655,53.6001,-0.012084
42.686,53.6001,-0.019335
42.717,53.6001,-0.014501
42.749,53.6001,-0.014501
42.779,53.6001,-0.019335
42.799,53.6001,-0.019335
42.827,53.6001,-0.015710
42.848,53.6001,-0.013293
42.873,53.6001,-0.018127
42.903,53.6001,-0.015710
42.935,53.5789,-0.016918
42.966,53.4839,0.006042
42.996,53.3962,-0.001208
43.027,53.3035,0.000000
43.057,53.2118,0.016918
43.088,53.1175,0.016918
43.120,53.0227,0.042296
43.149,52.9357,0.049546
43.181,52.8415,0.064048
43.212,52.7498,0.073715
43.232,52.6868,0.077341
43.259,52.6084,0.095467
43.279,52.5454,0.095467
43.305,52.4675,0.101510
43.335,52.3777,0.117219
43.357,52.3117,0.128095
43.381,52.2394,0.131721
43.414,52.1411,0.153473
43.444,52.0514,0.165557
43.475,51.9584,0.183684
43.507,51.8624,0.200602
43.538,51.7711,0.200602
43.568,51.6797,0.219937
43.600,51.5833,0.225980
43.630,51.4903,0.229605
43.662,51.3992,0.229605
43.693,51.3053,0.222354
43.724,51.2135,0.206645
43.755,51.1175,0.189726
43.787,51.0211,0.087008
43.818,50.9308,0.006042
43.849,50.8361,0.000000
43.870,50.7740,0.002417
43.896,50.6959,0.006042
43.927,50.6027,0.008459
43.957,50.5133,0.003625
43.988,50.4179,0.002417
44.019,50.3264,0.006042
44.051,50.2297,0.003625
44.082,50.1367,0.002417
44.114,50.0411,0.008459
44.144,49.9519,0.001208
44.175,49.8593,0.003625
44.207,49.7639,0.006042
44.236,49.6754,0.003625
44.267,49.5796,0.001208
44.298,49.4912,0.003625
44.329,49.3969,0.003625
44.349,49.3349,0.002417
44.376,49.2571,0.004834
44.407,49.1599,0.007251
44.429,49.0967,0.008459
44.454,49.0222,0.007251
44.475,48.9575,0.003625
44.500,48.8821,-0.001208
44.531,48.7892,0.000000
44.562,48.6964,0.002417
44.593,48.6040,-0.001208
44.624,48.5120,0.001208
44.655,48.4171,0.007251
44.686,48.3256,-0.001208
44.717,48.2309,0.000000
44.748,48.1382,0.000000
44.779,48.0467,0.001208
44.812,47.9480,-0.001208
44.842,47.8594,0.002417
44.873,47.7634,0.004834
44.905,47.6699,0.000000
44.936,47.5760,0.003625
44.967,47.5501,0.002417
44.987,47.5501,-0.008459
45.013,47.5501,0.000000
45.035,47.5501,0.000000
45.062,47.5501,0.001208
45.084,47.5501,0.000000
45.106,47.5501,0.000000
45.138,47.5501,0.002417
45.168,47.5501,0.000000
45.199,47.5501,0.006042
45.230,47.5501,0.006042
45.261,47.5501,-0.001208
45.295,47.5501,0.002417
45.322,47.5501,0.003625
45.354,47.5501,0.002417
45.385,47.5501,-0.001208
45.416,47.5868,0.002417
45.445,47.6760,-0.004834
45.468,47.7426,-0.002417
45.491,47.8151,0.001208
45.526,47.9189,0.001208
45.547,47.9792,0.004834
45.569,48.0467,0.004834
45.601,48.1433,0.003625
45.631,48.2361,0.003625
45.663,48.3312,0.003625
45.693,48.4187,0.004834
45.725,48.5145,0.003625
45.756,48.6080,0.000000
45.785,48.6947,-0.003625
45.817,48.7896,-0.001208
45.848,48.8846,0.003625
45.879,48.9770,0.000000
45.899,49.0385,0.000000
45.926,49.1195,-0.002417
45.946,49.1783,-0.002417
45.973,49.2602,0.003625
45.996,49.3290,0.000000
46.018,49.3947,-0.001208
46.049,49.4861,0.006042
46.073,49.5584,0.003625
46.096,49.6290,0.001208
46.126,49.7201,-0.001208
46.158,49.8144,0.000000
46.188,49.9041,0.004834
46.219,49.9992,0.000000
46.250,50.0888,0.000000
46.281,50.1830,-0.001208
46.316,50.2883,-0.002417
46.342,50.3673,0.000000
46.374,50.4633,0.000000
46.405,50.5559,0.002417
46.435,50.6471,0.000000
46.456,50.7083,-0.002417
46.484,50.7902,0.000000
46.506,50.8613,0.003625
46.528,50.9228,0.003625
46.560,51.0198,0.000000
46.591,51.1127,-0.001208
46.623,51.2082,-0.003625
46.653,51.2993,0.003625
46.684,51.3941,-0.002417
46.716,51.4860,0.000000
46.746,51.5771,0.002417
46.776,51.6710,-0.002417
46.799,51.7374,-0.003625
46.824,51.8114,-0.003625
46.855,51.9053,-0.001208
46.886,51.9983,-0.002417
46.917,52.0922,-0.006042
46.948,52.1825,-0.006042
46.968,52.2467,-0.003625
46.994,52.3214,-0.004834
47.025,52.4147,-0.004834
47.056,52.5062,-0.006042
47.087,52.5998,-0.009668
47.117,52.6919,-0.008459
47.148,52.7831,-0.007251
47.179,52.8762,-0.010876
47.209,52.9676,-0.010876
47.241,53.0618,-0.013293
47.273,53.1590,-0.014501
47.303,53.2479,-0.018127
47.335,53.3445,-0.022961
47.366,53.4388,-0.029003
47.397,53.5310,-0.036253
47.428,53.5501,-0.030211
47.448,53.5501,-0.030211
47.474,53.5501,-0.042296
47.506,53.5501,-0.041087
47.537,53.5501,-0.037462
47.567,53.5501,-0.037462
47.598,53.5501,-0.037462
47.629,53.5501,-0.035045
47.660,53.5501,-0.032628
47.691,53.5501,-0.035045
47.723,53.5501,-0.037462
