Elapsed Time (s),Position (mm),Force (N)
-0.013,66.1593,-0.852826
0.018,66.1593,-0.852826
0.049,66.1593,-0.852826
0.079,66.1593,-0.852826
0.110,66.1593,-0.852826
0.141,66.1593,-0.852826
0.172,66.1593,-0.655772
0.203,66.1593,-0.655772
0.235,66.1593,-0.655772
0.266,66.1593,-0.655772
0.297,66.1593,-0.655772
0.327,66.1593,-0.655772
0.358,66.1593,-0.655772
0.389,66.1593,-0.655772
0.419,66.1593,-0.655772
0.450,66.1593,-0.445732
0.480,66.1593,-0.445732
0.510,66.1593,-0.445732
0.542,66.1593,-0.445732
0.572,66.1593,-0.445732
0.602,66.1593,-0.445732
0.633,66.1593,-0.445732
0.659,66.1593,-0.445732
0.694,66.1593,-0.360747
0.726,66.1593,-0.360747
0.758,66.1593,-0.360747
0.787,66.1593,-0.360747
0.818,66.1593,-0.360747
0.850,66.1593,-0.360747
0.881,66.1593,-0.360747
0.911,66.1593,-0.360747
0.942,66.1593,-0.316556
0.972,66.1593,-0.316556
1.003,66.1593,-0.316556
1.035,66.1593,-0.316556
1.065,66.1593,-0.316556
1.096,66.1593,-0.316556
1.128,66.1593,-0.316556
1.159,66.1593,-0.316556
1.190,66.1593,-0.316556
1.221,66.1593,-0.290132
1.252,66.1593,-0.290132
1.283,66.1593,-0.290132
1.314,66.1593,-0.290132
1.345,66.1593,-0.290132
1.376,66.1593,-0.290132
1.408,66.1593,-0.290132
1.439,66.1593,-0.290132
1.470,66.1593,-0.272798
1.501,66.1593,-0.272798
1.533,66.1593,-0.272798
1.563,66.1593,-0.272798
1.595,66.1593,-0.272798
1.626,66.1593,-0.272798
1.657,66.1593,-0.272798
1.688,66.1593,-0.272798
1.719,66.1593,-0.260564
1.751,66.1593,-0.260564
1.782,66.1593,-0.260564
1.813,66.1593,-0.260564
1.843,66.1593,-0.260564
1.876,66.1593,-0.260564
1.905,66.1593,-0.260564
1.936,66.1593,-0.260564
1.968,66.1593,-0.251474
2.001,66.1593,-0.251474
2.031,66.1593,-0.251474
2.062,66.1593,-0.251474
2.093,66.1593,-0.251474
2.128,66.1593,-0.251474
2.156,66.1593,-0.251474
2.186,66.1593,-0.251474
2.218,66.1593,-0.244388
2.249,66.1593,-0.244388
2.280,66.1593,-0.244388
2.313,66.1593,-0.244388
2.341,66.1593,-0.244388
2.372,66.1593,-0.244388
2.404,66.1593,-0.244388
2.435,66.1593,-0.244388
2.466,66.1593,-0.238657
2.497,66.1593,-0.238657
2.528,66.1593,-0.238657
2.559,66.1593,-0.238657
2.590,66.1593,-0.238657
2.621,66.1593,-0.238657
2.652,66.1593,-0.238657
2.684,66.1593,-0.238657
2.715,66.1593,-0.233980
2.746,66.1593,-0.233980
2.777,66.1593,-0.233980
2.808,66.1593,-0.233980
2.839,66.1593,-0.233980
2.870,66.1593,-0.233980
2.901,66.1593,-0.233980
2.932,66.1593,-0.233980
2.965,66.1593,-0.229990
2.993,66.1593,-0.229990
3.024,66.1593,-0.229990
3.055,66.1593,-0.229990
3.086,66.1593,-0.229990
3.117,66.1593,-0.229990
3.149,66.1593,-0.229990
3.180,66.1593,-0.226546
3.212,66.1593,-0.226546
3.241,66.1593,-0.226546
3.273,66.1593,-0.226546
3.304,66.1593,-0.226546
3.336,66.1593,-0.226546
3.367,66.1593,-0.226546
3.401,66.1593,-0.226546
3.432,66.1593,-0.226546
3.460,66.1593,-0.226546
3.491,66.1593,-0.223591
3.525,66.1593,-0.223591
3.553,66.1593,-0.223591
3.583,66.1593,-0.223591
3.615,66.1593,-0.223591
3.647,66.1593,-0.223591
3.677,66.1593,-0.220316
3.708,66.1593,-0.220316
3.739,66.1593,-0.220316
3.771,66.1593,-0.220316
3.801,66.1593,-0.220316
3.832,66.1593,-0.220316
3.863,66.1593,-0.220316
3.893,66.1593,-0.220316
3.925,66.1593,-0.216260
3.957,66.1593,-0.216260
3.987,66.1593,-0.216260
4.018,66.1593,-0.216260
4.049,66.1593,-0.216260
4.081,66.1592,-0.216260
4.111,66.1583,-0.216260
4.143,66.1567,-0.216260
4.173,66.1545,-0.216260
4.204,66.1514,-0.211724
4.235,66.1478,-0.211724
4.266,66.1432,-0.211724
4.296,66.1381,-0.211724
4.328,66.1318,-0.211724
4.359,66.1256,-0.211724
4.390,66.1181,-0.211724
4.421,66.1101,0.134550
4.451,66.1013,0.134550
4.483,66.0915,0.134550
4.515,66.0809,0.134550
4.545,66.0700,0.134550
4.576,66.0584,0.134550
4.608,66.0455,0.134550
4.640,66.0319,0.134550
4.670,66.0183,0.134550
4.701,66.0039,0.134550
4.732,65.9880,0.258325
4.763,65.9720,0.258325
4.796,65.9539,0.258325
4.824,65.9383,0.258325
4.862,65.9149,0.258325
4.901,65.8912,0.258325
4.932,65.8711,0.258325
4.963,65.8505,0.027732
4.993,65.8295,0.027732
5.024,65.8071,0.027732
5.055,65.7844,0.027732
5.085,65.7608,0.027732
5.118,65.7358,0.027732
5.148,65.7105,0.027732
5.180,65.6847,0.027732
5.210,65.6583,0.028448
5.241,65.6307,0.028448
5.273,65.6016,0.028448
5.305,65.5724,0.028448
5.335,65.5437,0.028448
5.365,65.5145,0.028448
5.397,65.4831,0.028448
5.428,65.4513,0.028448
5.459,65.4186,0.050223
5.494,65.3806,0.050223
5.521,65.3517,0.050223
5.552,65.3173,0.050223
5.583,65.2812,0.050223
5.616,65.2431,0.050223
5.645,65.2083,0.050223
5.676,65.1703,0.050223
5.707,65.1328,0.066663
5.739,65.0927,0.066663
5.769,65.0536,0.066663
5.801,65.0110,0.066663
5.830,64.9727,0.066663
5.863,64.9274,0.066663
5.893,64.8865,0.066663
5.925,64.8411,0.066663
5.955,64.7996,0.066663
5.987,64.7535,0.074700
6.018,64.7075,0.074700
6.048,64.6631,0.074700
6.079,64.6171,0.074700
6.109,64.5701,0.074700
6.141,64.5239,0.074700
6.172,64.4756,0.074700
6.202,64.4310,0.077523
6.234,64.3840,0.077523
6.265,64.3372,0.077523
6.295,64.2928,0.077523
6.327,64.2440,0.077523
6.358,64.1991,0.077523
6.388,64.1515,0.077523
6.421,64.1035,0.077523
6.451,64.0571,0.077523
6.482,64.0121,0.077749
6.513,63.9661,0.077749
6.544,63.9191,0.077749
6.575,63.8727,0.077749
6.607,63.8252,0.077749
6.638,63.7782,0.077749
6.669,63.7319,0.077749
6.700,63.6853,0.079744
6.731,63.6375,0.079744
6.763,63.5913,0.079744
6.794,63.5433,0.079744
6.825,63.4971,0.079744
6.857,63.4485,0.079744
6.887,63.4054,0.079744
6.918,63.3587,0.079744
6.949,63.3112,0.085512
6.980,63.2647,0.085512
7.010,63.2206,0.085512
7.041,63.1741,0.085512
7.072,63.1271,0.085512
7.103,63.0807,0.085512
7.133,63.0353,0.085512
7.164,62.9895,0.085512
7.194,62.9436,0.095412
7.225,62.8965,0.095412
7.256,62.8507,0.095412
7.288,62.8034,0.095412
7.319,62.7567,0.095412
7.351,62.7090,0.095412
7.382,62.6632,0.095412
7.411,62.6176,0.095412
7.442,62.5721,0.108003
7.476,62.5202,0.108003
7.504,62.4811,0.108003
7.535,62.4359,0.108003
7.566,62.3932,0.108003
7.597,62.3506,0.108003
7.628,62.3085,0.108003
7.658,62.2677,0.108003
7.690,62.2273,0.083150
7.721,62.1861,0.083150
7.751,62.1485,0.083150
7.781,62.1109,0.083150
7.813,62.0722,0.083150
7.844,62.0358,0.083150
7.875,61.9987,0.083150
7.905,61.9637,0.083150
7.938,61.9266,0.035148
7.967,61.8946,0.035148
7.999,61.8608,0.035148
8.029,61.8284,0.035148
8.061,61.7958,0.035148
8.092,61.7652,0.035148
8.123,61.7344,0.035148
8.153,61.7054,0.035148
8.185,61.6752,0.035148
8.216,61.6472,0.017033
8.247,61.6191,0.017033
8.280,61.5914,0.017033
8.309,61.5657,0.017033
8.340,61.5412,0.017033
8.372,61.5153,0.017033
8.403,61.4914,0.017033
8.433,61.4689,0.015565
8.465,61.4460,0.015565
8.497,61.4237,0.015565
8.527,61.4023,0.015565
8.559,61.3818,0.015565
8.590,61.3627,0.015565
8.621,61.3440,0.015565
8.652,61.3255,0.015565
8.683,61.3079,0.014868
8.715,61.2911,0.014868
8.745,61.2753,0.014868
8.777,61.2601,0.014868
8.807,61.2459,0.014868
8.838,61.2322,0.014868
8.869,61.2188,0.014868
8.901,61.2064,0.014868
8.933,61.1945,0.014511
8.963,61.1842,0.014511
8.994,61.1742,0.014511
9.024,61.1650,0.014511
9.056,61.1563,0.014511
9.087,61.1481,0.014511
9.117,61.1414,0.014511
9.148,61.1350,0.014511
9.179,61.1293,0.014511
9.209,61.1242,0.014238
9.240,61.1200,0.014238
9.270,61.1164,0.014238
9.301,61.1137,0.014238
9.334,61.1114,0.014238
9.364,61.1101,0.014238
9.395,61.1094,0.014238
9.426,61.1093,0.013909
9.456,61.1093,0.013909
9.487,61.1093,0.013909
9.518,61.1093,0.013909
9.550,61.1093,0.013909
9.580,61.1098,0.013909
9.611,61.1111,0.013909
9.643,61.1132,0.013909
9.678,61.1164,0.013909
9.719,61.1211,0.013909
9.750,61.1258,0.013711
9.781,61.1308,0.013711
9.812,61.1369,0.013711
9.843,61.1434,0.013711
9.875,61.1511,0.013711
9.906,61.1592,0.013711
9.936,61.1682,0.013711
9.967,61.1774,0.013513
9.998,61.1878,0.013513
10.029,61.1989,0.013513
10.060,61.2105,0.013513
10.091,61.2229,0.013513
10.121,61.2364,0.013513
10.152,61.2503,0.013513
10.184,61.2650,0.013513
10.216,61.2810,0.013118
10.246,61.2967,0.013118
10.277,61.3133,0.013118
10.308,61.3313,0.013118
10.339,61.3494,0.013118
10.370,61.3685,0.013118
10.401,61.3881,0.013118
10.432,61.4086,0.013118
10.463,61.4298,0.012676
10.495,61.4525,0.012676
10.526,61.4756,0.012676
10.557,61.4991,0.012676
10.589,61.5237,0.012676
10.620,61.5490,0.012676
10.651,61.5744,0.012676
10.682,61.6016,0.012676
10.713,61.6279,0.012177
10.745,61.6563,0.012177
10.775,61.6844,0.012177
10.806,61.7139,0.012177
10.838,61.7447,0.012177
10.868,61.7751,0.012177
10.899,61.8065,0.012177
10.930,61.8380,0.012177
10.961,61.8712,0.011434
10.992,61.9048,0.011434
11.022,61.9384,0.011434
11.054,61.9740,0.011434
11.085,62.0104,0.011434
11.117,62.0476,0.011434
11.147,62.0835,0.011434
11.178,62.1216,0.011434
11.209,62.1599,0.010436
11.240,62.1997,0.010436
11.270,62.2391,0.010436
11.302,62.2807,0.010436
11.332,62.3215,0.010436
11.364,62.3648,0.010436
11.394,62.4059,0.010436
11.425,62.4504,0.010436
11.456,62.4947,0.009109
11.488,62.5425,0.009109
11.518,62.5867,0.009109
11.549,62.6321,0.009109
11.579,62.6785,0.009109
11.611,62.7255,0.009109
11.641,62.7722,0.009109
11.672,62.8176,0.007340
11.703,62.8641,0.007340
11.735,62.9116,0.007340
11.766,62.9584,0.007340
11.798,63.0068,0.007340
11.829,63.0531,0.007340
11.863,63.1050,0.007340
11.891,63.1463,0.007340
11.923,63.1945,0.007340
11.956,63.2449,0.005147
11.984,63.2861,0.005147
12.018,63.3367,0.005147
12.046,63.3777,0.005147
12.077,63.4246,0.005147
12.107,63.4694,0.005147
12.137,63.5159,0.005147
12.169,63.5630,0.005147
12.201,63.6108,0.002108
12.232,63.6571,0.002108
12.263,63.7043,0.002108
12.293,63.7502,0.002108
12.324,63.7953,0.002108
12.355,63.8421,0.002108
12.386,63.8882,0.002108
12.417,63.9346,0.002108
12.449,63.9836,-0.002475
12.478,64.0271,-0.002475
12.509,64.0744,-0.002475
12.543,64.1238,-0.002475
12.572,64.1670,-0.002475
12.603,64.2139,-0.002475
12.634,64.2611,-0.002475
12.665,64.3069,-0.002475
12.696,64.3535,-0.002475
12.727,64.3995,-0.009890
12.758,64.4456,-0.009890
12.791,64.4969,-0.009890
12.819,64.5371,-0.009890
12.849,64.5840,-0.009890
12.881,64.6310,-0.009890
12.911,64.6767,-0.009890
12.943,64.7227,-0.022406
12.975,64.7680,-0.022406
13.005,64.8103,-0.022406
13.036,64.8540,-0.022406
13.068,64.8971,-0.022406
13.100,64.9408,-0.022406
13.131,64.9807,-0.022406
13.162,65.0229,-0.022406
13.193,65.0605,-0.042093
13.228,65.1055,-0.042093
13.254,65.1365,-0.042093
13.285,65.1737,-0.042093
13.316,65.2099,-0.042093
13.346,65.2453,-0.042093
13.377,65.2796,-0.042093
13.408,65.3145,-0.042093
13.438,65.3471,-0.042093
13.470,65.3806,-0.070700
13.501,65.4126,-0.070700
13.532,65.4441,-0.070700
13.563,65.4747,-0.070700
13.593,65.5047,-0.070700
13.624,65.5337,-0.070700
13.656,65.5628,-0.070700
13.687,65.5905,-0.110638
13.718,65.6175,-0.110638
13.748,65.6439,-0.110638
13.779,65.6689,-0.110638
13.810,65.6941,-0.110638
13.841,65.7185,-0.110638
13.872,65.7420,-0.110638
13.910,65.7696,-0.110638
13.950,65.7980,-0.174102
13.982,65.8191,-0.174102
14.013,65.8395,-0.174102
14.043,65.8589,-0.174102
14.074,65.8773,-0.174102
14.105,65.8948,-0.174102
14.139,65.9140,-0.174102
14.167,65.9288,-0.174102
14.198,65.9451,-0.174102
14.228,65.9598,-0.297811
14.263,65.9756,-0.297811
14.289,65.9870,-0.297811
14.320,66.0002,-0.297811
14.351,66.0123,-0.297811
14.382,66.0240,-0.297811
14.407,66.0326,-0.297811
14.445,66.0448,-0.493481
14.475,66.0540,-0.493481
14.508,66.0634,-0.493481
14.541,66.0716,-0.493481
14.582,66.0806,-0.493481
14.614,66.0869,-0.493481
14.645,66.0922,-0.493481
14.677,66.0971,-0.736843
14.710,66.1011,-0.736843
14.738,66.1039,-0.736843
14.772,66.1066,-0.736843
14.800,66.1081,-0.736843
14.831,66.1091,-0.736843
14.862,66.1093,-0.736843
14.893,66.1093,-0.736843
14.924,66.1093,-0.736843
14.955,66.1093,-0.736843
14.986,66.1093,-0.843255
15.020,66.1093,-0.843255
15.048,66.1093,-0.843255
15.078,66.1093,-0.843255
15.110,66.1093,-0.843255
15.141,66.1093,-0.843255
15.172,66.1093,-0.843255
15.203,66.1093,-0.667733
15.235,66.1093,-0.667733
15.265,66.1093,-0.667733
15.296,66.1093,-0.667733
15.328,66.1093,-0.667733
15.358,66.1093,-0.667733
15.390,66.1093,-0.667733
15.420,66.1093,-0.667733
15.452,66.1093,-0.455246
15.483,66.1093,-0.455246
15.514,66.1093,-0.455246
15.545,66.1093,-0.455246
15.576,66.1093,-0.455246
15.607,66.1093,-0.455246
15.638,66.1093,-0.455246
15.668,66.1093,-0.455246
15.699,66.1093,-0.363918
15.731,66.1093,-0.363918
15.762,66.1093,-0.363918
15.792,66.1093,-0.363918
15.824,66.1093,-0.363918
15.855,66.1093,-0.363918
15.888,66.1093,-0.363918
15.917,66.1093,-0.363918
15.949,66.1093,-0.317450
15.981,66.1093,-0.317450
16.012,66.1093,-0.317450
16.043,66.1093,-0.317450
16.074,66.1093,-0.317450
16.104,66.1093,-0.317450
16.136,66.1093,-0.317450
16.167,66.1093,-0.317450
16.198,66.1093,-0.289953
16.231,66.1093,-0.289953
16.260,66.1093,-0.289953
16.291,66.1093,-0.289953
16.322,66.1093,-0.289953
16.354,66.1093,-0.289953
16.385,66.1093,-0.289953
16.417,66.1093,-0.289953
16.448,66.1093,-0.272064
16.479,66.1093,-0.272064
16.510,66.1093,-0.272064
16.542,66.1093,-0.272064
16.573,66.1093,-0.272064
16.605,66.1093,-0.272064
16.635,66.1093,-0.272064
16.666,66.1093,-0.272064
16.697,66.1093,-0.259567
16.728,66.1093,-0.259567
16.760,66.1093,-0.259567
16.791,66.1093,-0.259567
16.822,66.1093,-0.259567
16.854,66.1093,-0.259567
16.885,66.1093,-0.259567
16.916,66.1093,-0.259567
16.947,66.1093,-0.250297
16.978,66.1093,-0.250297
17.010,66.1093,-0.250297
17.041,66.1093,-0.250297
17.072,66.1093,-0.250297
17.103,66.1093,-0.250297
17.134,66.1093,-0.250297
17.165,66.1093,-0.250297
17.196,66.1093,-0.243193
17.228,66.1093,-0.243193
17.258,66.1093,-0.243193
17.289,66.1093,-0.243193
17.321,66.1093,-0.243193
17.352,66.1093,-0.243193
17.383,66.1093,-0.243193
17.414,66.1093,-0.243193
17.445,66.1093,-0.237490
17.475,66.1093,-0.237490
17.506,66.1093,-0.237490
17.537,66.1093,-0.237490
17.569,66.1093,-0.237490
17.598,66.1093,-0.237490
17.629,66.1093,-0.237490
17.660,66.1093,-0.237490
17.689,66.1093,-0.237490
17.721,66.1093,-0.232757
17.751,66.1093,-0.232757
17.783,66.1093,-0.232757
17.813,66.1093,-0.232757
17.844,66.1093,-0.232757
17.875,66.1093,-0.232757
17.905,66.1093,-0.232757
17.937,66.1093,-0.232757
17.968,66.1093,-0.228635
17.999,66.1093,-0.228635
18.030,66.1093,-0.228635
18.062,66.1093,-0.228635
18.092,66.1093,-0.228635
18.123,66.1093,-0.228635
18.154,66.1093,-0.228635
18.186,66.1093,-0.228635
18.217,66.1093,-0.225125
18.247,66.1093,-0.225125
18.279,66.1093,-0.225125
18.311,66.1093,-0.225125
18.343,66.1093,-0.225125
18.374,66.1093,-0.225125
18.405,66.1093,-0.225125
18.436,66.1093,-0.222160
18.467,66.1093,-0.222160
18.498,66.1093,-0.222160
18.529,66.1093,-0.222160
18.559,66.1093,-0.222160
18.590,66.1093,-0.222160
18.623,66.1093,-0.222160
18.652,66.1093,-0.222160
18.682,66.1093,-0.222160
18.713,66.1093,-0.218763
18.744,66.1093,-0.218763
18.775,66.1093,-0.218763
18.806,66.1093,-0.218763
18.838,66.1093,-0.218763
18.868,66.1093,-0.218763
18.899,66.1093,-0.218763
18.930,66.1093,-0.214642
18.961,66.1093,-0.214642
18.992,66.1093,-0.214642
19.022,66.1093,-0.214642
19.053,66.1093,-0.214642
19.084,66.1093,-0.214642
19.115,66.1093,-0.214642
19.146,66.1086,-0.214642
19.176,66.1073,-0.214642
19.207,66.1052,-0.210200
19.238,66.1024,-0.210200
19.269,66.0989,-0.210200
19.300,66.0947,-0.210200
19.331,66.0895,-0.210200
19.362,66.0838,-0.210200
19.394,66.0772,-0.210200
19.424,66.0701,-0.210200
19.455,66.0622,-0.029379
19.487,66.0534,-0.029379
19.518,66.0440,-0.029379
19.549,66.0339,-0.029379
19.580,66.0230,-0.029379
19.612,66.0111,-0.029379
19.644,65.9986,-0.029379
19.675,65.9854,-0.029379
19.705,65.9720,0.122975
19.737,65.9573,0.122975
19.766,65.9429,0.122975
19.798,65.9265,0.122975
19.829,65.9099,0.122975
19.860,65.8927,0.122975
19.891,65.8743,0.122975
19.922,65.8550,0.122975
19.953,65.8361,0.056095
19.983,65.8158,0.056095
20.014,65.7952,0.056095
20.046,65.7729,0.056095
20.077,65.7503,0.056095
20.107,65.7277,0.056095
20.138,65.7039,0.056095
20.169,65.6790,0.056095
20.200,65.6537,0.025502
20.230,65.6281,0.025502
20.261,65.6023,0.025502
20.291,65.5752,0.025502
20.322,65.5468,0.025502
20.354,65.5174,0.025502
20.384,65.4883,0.025502
20.415,65.4572,0.025502
20.446,65.4271,0.025502
20.477,65.3943,0.046760
20.508,65.3628,0.046760
20.539,65.3288,0.046760
20.570,65.2949,0.046760
20.603,65.2572,0.046760
20.631,65.2253,0.046760
20.663,65.1877,0.046760
20.693,65.1514,0.064706
20.725,65.1133,0.064706
20.756,65.0752,0.064706
20.787,65.0357,0.064706
20.817,64.9978,0.064706
20.848,64.9567,0.064706
20.879,64.9149,0.064706
20.910,64.8733,0.064706
20.942,64.8297,0.074191
20.973,64.7851,0.074191
21.004,64.7416,0.074191
21.035,64.6963,0.074191
21.065,64.6523,0.074191
21.096,64.6049,0.074191
21.128,64.5580,0.074191
21.160,64.5098,0.074191
21.191,64.4639,0.077636
21.223,64.4139,0.077636
21.253,64.3708,0.077636
21.283,64.3246,0.077636
21.315,64.2771,0.077636
21.346,64.2307,0.077636
21.376,64.1862,0.077636
21.407,64.1390,0.077636
21.443,64.0855,0.077909
21.483,64.0252,0.077909
21.514,63.9780,0.077909
21.545,63.9330,0.077909
21.576,63.8862,0.077909
21.607,63.8404,0.077909
21.639,63.7923,0.077909
21.669,63.7471,0.077909
21.700,63.6999,0.077909
21.731,63.6529,0.079123
21.762,63.6060,0.079123
21.794,63.5597,0.079123
21.825,63.5125,0.079123
21.857,63.4653,0.079123
21.887,63.4184,0.079123
21.918,63.3730,0.079123
21.950,63.3253,0.079123
21.981,63.2790,0.084054
22.012,63.2319,0.084054
22.043,63.1856,0.084054
22.074,63.1396,0.084054
22.104,63.0947,0.084054
22.135,63.0474,0.084054
22.166,63.0009,0.084054
22.197,62.9545,0.084054
22.228,62.9080,0.093210
22.260,62.8602,0.093210
22.290,62.8150,0.093210
22.321,62.7689,0.093210
22.353,62.7209,0.093210
22.385,62.6726,0.093210
22.415,62.6269,0.093210
22.446,62.5805,0.093210
22.477,62.5350,0.106149
22.508,62.4883,0.106149
22.539,62.4438,0.106149
22.574,62.3927,0.106149
22.600,62.3560,0.106149
22.632,62.3121,0.106149
22.662,62.2708,0.106149
22.694,62.2285,0.097360
22.726,62.1862,0.097360
22.755,62.1485,0.097360
22.786,62.1078,0.097360
22.818,62.0694,0.097360
22.848,62.0313,0.097360
22.879,61.9947,0.097360
22.910,61.9576,0.097360
22.941,61.9228,0.050223
22.972,61.8865,0.050223
23.003,61.8521,0.050223
23.034,61.8191,0.050223
23.065,61.7861,0.050223
23.096,61.7542,0.050223
23.128,61.7219,0.050223
23.158,61.6921,0.050223
23.190,61.6617,0.050223
23.220,61.6330,0.017569
23.252,61.6032,0.017569
23.283,61.5750,0.017569
23.314,61.5487,0.017569
23.346,61.5218,0.017569
23.377,61.4958,0.017569
23.408,61.4715,0.017569
23.439,61.4473,0.015809
23.469,61.4245,0.015809
23.500,61.4014,0.015809
23.531,61.3799,0.015809
23.562,61.3586,0.015809
23.592,61.3388,0.015809
23.621,61.3195,0.015809
23.653,61.3004,0.015809
23.684,61.2823,0.015809
23.716,61.2639,0.015085
23.747,61.2474,0.015085
23.777,61.2314,0.015085
23.807,61.2162,0.015085
23.840,61.2005,0.015085
23.870,61.1872,0.015085
23.902,61.1734,0.015085
23.932,61.1612,0.015085
23.962,61.1499,0.014614
23.993,61.1387,0.014614
24.024,61.1283,0.014614
24.055,61.1186,0.014614
24.087,61.1097,0.014614
24.118,61.1013,0.014614
24.149,61.0939,0.014614
24.181,61.0870,0.014294
24.211,61.0812,0.014294
24.242,61.0758,0.014294
24.272,61.0715,0.014294
24.303,61.0677,0.014294
24.333,61.0646,0.014294
24.366,61.0621,0.014294
24.396,61.0605,0.014294
24.427,61.0596,0.014040
24.459,61.0593,0.014040
24.490,61.0593,0.014040
24.521,61.0593,0.014040
24.552,61.0593,0.014040
24.582,61.0593,0.014040
24.614,61.0598,0.014040
24.644,61.0611,0.014040
24.675,61.0629,0.014040
24.705,61.0655,0.013899
24.737,61.0689,0.013899
24.768,61.0731,0.013899
24.799,61.0779,0.013899
24.830,61.0835,0.013899
24.861,61.0897,0.013899
24.900,61.0988,0.013899
24.939,61.1087,0.013626
24.970,61.1178,0.013626
25.000,61.1272,0.013626
25.031,61.1374,0.013626
25.062,61.1485,0.013626
25.093,61.1600,0.013626
25.125,61.1729,0.013626
25.155,61.1858,0.013626
25.188,61.2004,0.013626
25.218,61.2149,0.013222
25.250,61.2310,0.013222
25.281,61.2464,0.013222
25.312,61.2639,0.013222
25.343,61.2812,0.013222
25.374,61.3001,0.013222
25.405,61.3182,0.013222
25.436,61.3385,0.013222
25.467,61.3590,0.013222
25.498,61.3801,0.012826
25.529,61.4021,0.012826
25.563,61.4273,0.012826
25.590,61.4474,0.012826
25.624,61.4748,0.012826
25.652,61.4971,0.012826
25.683,61.5221,0.012826
25.714,61.5486,0.012826
25.745,61.5752,0.012318
25.775,61.6023,0.012318
25.806,61.6306,0.012318
25.837,61.6605,0.012318
25.869,61.6914,0.012318
25.900,61.7215,0.012318
25.931,61.7531,0.012318
25.963,61.7854,0.012318
25.993,61.8189,0.011575
26.023,61.8504,0.011575
26.057,61.8884,0.011575
26.086,61.9208,0.011575
26.117,61.9567,0.011575
26.148,61.9926,0.011575
26.179,62.0300,0.011575
26.210,62.0678,0.010606
26.240,62.1055,0.010606
26.271,62.1450,0.010606
26.302,62.1847,0.010606
26.333,62.2264,0.010606
26.364,62.2678,0.010606
26.395,62.3096,0.010606
26.426,62.3532,0.010606
26.457,62.3956,0.009382
26.488,62.4410,0.009382
26.519,62.4872,0.009382
26.550,62.5325,0.009382
26.581,62.5784,0.009382
26.613,62.6260,0.009382
26.643,62.6712,0.009382
26.677,62.7232,0.009382
26.705,62.7640,0.009382
26.736,62.8124,0.007641
26.767,62.8573,0.007641
26.799,62.9056,0.007641
26.830,62.9522,0.007641
26.861,62.9983,0.007641
26.891,63.0438,0.007641
26.923,63.0913,0.007641
26.953,63.1369,0.007641
26.984,63.1836,0.005514
27.017,63.2324,0.005514
27.047,63.2782,0.005514
27.078,63.3240,0.005514
27.108,63.3703,0.005514
27.139,63.4155,0.005514
27.170,63.4624,0.005514
27.200,63.5076,0.002710
27.237,63.5644,0.002710
27.279,63.6254,0.002710
27.309,63.6713,0.002710
27.340,63.7172,0.002710
27.371,63.7642,0.002710
27.403,63.8118,0.002710
27.433,63.8579,0.002710
27.465,63.9043,-0.001656
27.496,63.9519,-0.001656
27.526,63.9967,-0.001656
27.558,64.0440,-0.001656
27.593,64.0968,-0.001656
27.620,64.1381,-0.001656
27.653,64.1878,-0.001656
27.683,64.2326,-0.008639
27.713,64.2769,-0.008639
27.744,64.3228,-0.008639
27.776,64.3710,-0.008639
27.807,64.4175,-0.008639
27.838,64.4642,-0.008639
27.868,64.5083,-0.008639
27.899,64.5551,-0.008639
27.930,64.6013,-0.008639
27.960,64.6457,-0.020148
27.992,64.6922,-0.020148
28.024,64.7380,-0.020148
28.056,64.7829,-0.020148
28.084,64.8213,-0.020148
28.115,64.8631,-0.020148
28.147,64.9056,-0.020148
28.178,64.9478,-0.020148
28.211,64.9887,-0.038705
28.241,65.0270,-0.038705
28.272,65.0653,-0.038705
28.302,65.1024,-0.038705
28.334,65.1402,-0.038705
28.364,65.1754,-0.038705
28.395,65.2110,-0.038705
28.426,65.2453,-0.038705
28.457,65.2802,-0.038705
28.487,65.3117,-0.065976
28.518,65.3441,-0.065976
28.548,65.3754,-0.065976
28.580,65.4077,-0.065976
28.612,65.4384,-0.065976
28.643,65.4686,-0.065976
28.673,65.4974,-0.065976
28.704,65.5248,-0.065976
28.736,65.5535,-0.104004
28.766,65.5789,-0.104004
28.796,65.6043,-0.104004
28.828,65.6301,-0.104004
28.858,65.6543,-0.104004
28.889,65.6786,-0.104004
28.919,65.7013,-0.104004
28.950,65.7229,-0.104004
28.981,65.7452,-0.162122
29.012,65.7659,-0.162122
29.042,65.7858,-0.162122
29.073,65.8052,-0.162122
29.104,65.8243,-0.162122
29.135,65.8423,-0.162122
29.166,65.8595,-0.162122
29.197,65.8763,-0.274652
29.227,65.8923,-0.274652
29.259,65.9075,-0.274652
29.290,65.9219,-0.274652
29.321,65.9361,-0.274652
29.352,65.9491,-0.274652
29.384,65.9616,-0.274652
29.414,65.9729,-0.274652
29.445,65.9836,-0.274652
29.476,65.9937,-0.459217
29.507,66.0030,-0.459217
29.540,66.0126,-0.459217
29.569,66.0198,-0.459217
29.600,66.0270,-0.459217
29.631,66.0337,-0.459217
29.662,66.0394,-0.459217
29.692,66.0443,-0.459217
29.723,66.0486,-0.699088
29.754,66.0522,-0.699088
29.786,66.0551,-0.699088
29.817,66.0572,-0.699088
29.848,66.0586,-0.699088
29.880,66.0593,-0.699088
29.911,66.0593,-0.699088
29.942,66.0593,-0.845900
29.972,66.0593,-0.845900
30.004,66.0593,-0.845900
30.034,66.0593,-0.845900
30.067,66.0593,-0.845900
30.096,66.0593,-0.845900
30.128,66.0593,-0.845900
30.159,66.0593,-0.845900
30.189,66.0593,-0.699041
30.219,66.0593,-0.699041
30.250,66.0593,-0.699041
30.282,66.0593,-0.699041
30.313,66.0593,-0.699041
30.344,66.0593,-0.699041
30.374,66.0593,-0.699041
30.405,66.0593,-0.699041
30.436,66.0593,-0.699041
30.467,66.0593,-0.468637
30.498,66.0593,-0.468637
30.529,66.0593,-0.468637
30.561,66.0593,-0.468637
30.592,66.0593,-0.468637
30.624,66.0593,-0.468637
30.655,66.0593,-0.468637
30.687,66.0593,-0.468637
30.720,66.0593,-0.368257
30.751,66.0593,-0.368257
30.780,66.0593,-0.368257
30.810,66.0593,-0.368257
30.841,66.0593,-0.368257
30.871,66.0593,-0.368257
30.903,66.0593,-0.368257
30.934,66.0593,-0.318664
30.965,66.0593,-0.318664
30.995,66.0593,-0.318664
31.027,66.0593,-0.318664
31.058,66.0593,-0.318664
31.089,66.0593,-0.318664
31.119,66.0593,-0.318664
31.150,66.0593,-0.318664
31.181,66.0593,-0.318664
31.213,66.0593,-0.289887
31.243,66.0593,-0.289887
31.274,66.0593,-0.289887
31.306,66.0593,-0.289887
31.340,66.0593,-0.289887
31.369,66.0593,-0.289887
31.401,66.0593,-0.289887
31.433,66.0593,-0.271377
31.464,66.0593,-0.271377
31.494,66.0593,-0.271377
31.526,66.0593,-0.271377
31.556,66.0593,-0.271377
31.587,66.0593,-0.271377
31.618,66.0593,-0.271377
31.648,66.0593,-0.271377
31.680,66.0593,-0.271377
31.711,66.0593,-0.258466
31.741,66.0593,-0.258466
31.773,66.0593,-0.258466
31.803,66.0593,-0.258466
31.835,66.0593,-0.258466
31.865,66.0593,-0.258466
31.896,66.0593,-0.258466
31.927,66.0593,-0.249027
31.958,66.0593,-0.249027
31.989,66.0593,-0.249027
32.020,66.0593,-0.249027
32.052,66.0593,-0.249027
32.084,66.0593,-0.249027
32.114,66.0593,-0.249027
32.145,66.0593,-0.249027
32.176,66.0593,-0.241828
32.206,66.0593,-0.241828
32.237,66.0593,-0.241828
32.268,66.0593,-0.241828
32.299,66.0593,-0.241828
32.329,66.0593,-0.241828
32.360,66.0593,-0.241828
32.391,66.0593,-0.241828
32.423,66.0593,-0.236003
32.454,66.0593,-0.236003
32.486,66.0593,-0.236003
32.517,66.0593,-0.236003
32.548,66.0593,-0.236003
32.580,66.0593,-0.236003
32.612,66.0593,-0.236003
32.643,66.0593,-0.236003
32.674,66.0593,-0.231157
32.705,66.0593,-0.231157
32.736,66.0593,-0.231157
32.767,66.0593,-0.231157
32.798,66.0593,-0.231157
32.828,66.0593,-0.231157
32.859,66.0593,-0.231157
32.891,66.0593,-0.231157
32.922,66.0593,-0.231157
32.952,66.0593,-0.227082
32.984,66.0593,-0.227082
33.015,66.0593,-0.227082
33.047,66.0593,-0.227082
33.078,66.0593,-0.227082
33.110,66.0593,-0.227082
33.141,66.0593,-0.227082
33.172,66.0593,-0.223638
33.204,66.0593,-0.223638
33.235,66.0593,-0.223638
33.267,66.0593,-0.223638
33.298,66.0593,-0.223638
33.329,66.0593,-0.223638
33.360,66.0593,-0.223638
33.391,66.0593,-0.223638
33.422,66.0593,-0.223638
33.452,66.0593,-0.220702
33.483,66.0593,-0.220702
33.514,66.0593,-0.220702
33.544,66.0593,-0.220702
33.576,66.0593,-0.220702
33.606,66.0593,-0.220702
33.638,66.0593,-0.220702
33.669,66.0593,-0.220702
33.699,66.0593,-0.220702
33.731,66.0593,-0.217493
33.762,66.0593,-0.217493
33.794,66.0593,-0.217493
33.825,66.0593,-0.217493
33.855,66.0593,-0.217493
33.885,66.0593,-0.217493
33.916,66.0593,-0.217493
33.948,66.0593,-0.213569
33.979,66.0593,-0.213569
34.010,66.0593,-0.213569
34.041,66.0593,-0.213569
34.074,66.0593,-0.213569
34.102,66.0593,-0.213569
34.133,66.0593,-0.213569
34.163,66.0593,-0.213569
34.196,66.0589,-0.213569
34.225,66.0577,-0.209127
34.257,66.0559,-0.209127
34.288,66.0531,-0.209127
34.320,66.0498,-0.209127
34.350,66.0457,-0.209127
34.381,66.0409,-0.209127
34.412,66.0352,-0.209127
34.444,66.0290,-0.209127
34.475,66.0220,-0.209127
34.506,66.0141,-0.148929
34.537,66.0056,-0.148929
34.568,65.9965,-0.148929
34.599,65.9865,-0.148929
34.631,65.9755,-0.148929
34.661,65.9645,-0.148929
34.691,65.9527,-0.148929
34.722,65.9399,0.180999
34.753,65.9264,0.180999
34.784,65.9121,0.180999
34.815,65.8971,0.180999
34.847,65.8809,0.180999
34.878,65.8643,0.180999
34.910,65.8468,0.180999
34.940,65.8289,0.180999
34.972,65.8099,0.233679
35.004,65.7901,0.233679
35.035,65.7699,0.233679
35.065,65.7492,0.233679
35.097,65.7276,0.233679
35.127,65.7060,0.233679
35.158,65.6827,0.233679
35.188,65.6594,0.233679
35.219,65.6352,0.022237
35.250,65.6100,0.022237
35.281,65.5841,0.022237
35.312,65.5577,0.022237
35.343,65.5298,0.022237
35.374,65.5016,0.022237
35.405,65.4728,0.022237
35.437,65.4425,0.022237
35.468,65.4119,0.041839
35.504,65.3747,0.041839
35.530,65.3493,0.041839
35.561,65.3164,0.041839
35.592,65.2841,0.041839
35.623,65.2503,0.041839
35.655,65.2136,0.041839
35.686,65.1772,0.041839
35.717,65.1419,0.061356
35.748,65.1054,0.061356
35.779,65.0670,0.061356
35.810,65.0295,0.061356
35.840,64.9909,0.061356
35.870,64.9527,0.061356
35.902,64.9113,0.061356
35.933,64.8700,0.061356
35.965,64.8266,0.072639
35.996,64.7841,0.072639
36.028,64.7389,0.072639
36.059,64.6948,0.072639
36.091,64.6493,0.072639
36.120,64.6049,0.072639
36.153,64.5558,0.072639
36.184,64.5107,0.072639
36.215,64.4629,0.077052
36.247,64.4160,0.077052
36.278,64.3675,0.077052
36.309,64.3217,0.077052
36.340,64.2760,0.077052
36.372,64.2268,0.077052
36.402,64.1821,0.077052
36.434,64.1357,0.077749
36.465,64.0890,0.077749
36.495,64.0424,0.077749
36.527,63.9950,0.077749
36.557,63.9502,0.077749
36.588,63.9036,0.077749
36.619,63.8579,0.077749
36.649,63.8122,0.077749
36.680,63.7654,0.077749
36.711,63.7200,0.078341
36.742,63.6723,0.078341
36.773,63.6263,0.078341
36.805,63.5778,0.078341
36.836,63.5320,0.078341
36.867,63.4855,0.078341
36.898,63.4382,0.078341
36.929,63.3925,0.078341
36.960,63.3452,0.078341
36.991,63.2987,0.082341
37.021,63.2541,0.082341
37.052,63.2080,0.082341
37.083,63.1622,0.082341
37.113,63.1158,0.082341
37.145,63.0690,0.082341
37.176,63.0225,0.082341
37.208,62.9741,0.090594
37.239,62.9274,0.090594
37.269,62.8825,0.090594
37.300,62.8357,0.090594
37.331,62.7900,0.090594
37.362,62.7418,0.090594
37.393,62.6957,0.090594
37.425,62.6488,0.090594
37.455,62.6028,0.103072
37.488,62.5523,0.103072
37.518,62.5087,0.103072
37.549,62.4633,0.103072
37.579,62.4183,0.103072
37.611,62.3728,0.103072
37.640,62.3313,0.103072
37.674,62.2842,0.103072
37.702,62.2446,0.103072
37.733,62.2015,0.107692
37.765,62.1607,0.107692
37.796,62.1192,0.107692
37.827,62.0796,0.107692
37.861,62.0371,0.107692
37.890,62.0011,0.107692
37.922,61.9612,0.107692
37.952,61.9259,0.062739
37.983,61.8894,0.062739
38.013,61.8551,0.062739
38.045,61.8206,0.062739
38.076,61.7861,0.062739
38.107,61.7535,0.062739
38.138,61.7209,0.062739
38.168,61.6894,0.062739
38.199,61.6585,0.018586
38.231,61.6271,0.018586
38.262,61.5975,0.018586
38.294,61.5671,0.018586
38.324,61.5403,0.018586
38.355,61.5125,0.018586
38.386,61.4864,0.018586
38.417,61.4596,0.018586
38.448,61.4350,0.016082
38.479,61.4101,0.016082
38.511,61.3864,0.016082
38.541,61.3632,0.016082
38.572,61.3412,0.016082
38.603,61.3198,0.016082
38.635,61.2978,0.016082
38.665,61.2784,0.016082
38.696,61.2591,0.015245
38.727,61.2405,0.015245
38.759,61.2221,0.015245
38.791,61.2043,0.015245
38.821,61.1883,0.015245
38.852,61.1723,0.015245
38.883,61.1576,0.015245
38.914,61.1428,0.015245
38.945,61.1294,0.014793
38.977,61.1163,0.014793
39.007,61.1047,0.014793
39.038,61.0931,0.014793
39.068,61.0829,0.014793
39.099,61.0722,0.014793
39.130,61.0637,0.014793
39.160,61.0552,0.014793
39.192,61.0474,0.014436
39.227,61.0391,0.014436
39.254,61.0337,0.014436
39.285,61.0282,0.014436
39.317,61.0231,0.014436
39.348,61.0192,0.014436
39.380,61.0157,0.014436
39.411,61.0130,0.014436
39.441,61.0111,0.014144
39.472,61.0099,0.014144
39.503,61.0094,0.014144
39.534,61.0094,0.014144
39.565,61.0094,0.014144
39.596,61.0094,0.014144
39.627,61.0094,0.014144
39.658,61.0094,0.014144
39.689,61.0094,0.013927
39.720,61.0096,0.013927
39.751,61.0105,0.013927
39.782,61.0121,0.013927
39.813,61.0144,0.013927
39.844,61.0175,0.013927
39.875,61.0214,0.013927
39.905,61.0257,0.013927
39.936,61.0311,0.013927
39.967,61.0371,0.013720
39.998,61.0435,0.013720
40.028,61.0509,0.013720
40.059,61.0590,0.013720
40.090,61.0679,0.013720
40.122,61.0776,0.013720
40.153,61.0881,0.013720
40.184,61.0993,0.013429
40.216,61.1114,0.013429
40.247,61.1237,0.013429
40.278,61.1375,0.013429
40.309,61.1515,0.013429
40.340,61.1661,0.013429
40.371,61.1814,0.013429
40.402,61.1976,0.013429
40.433,61.2142,0.013043
40.463,61.2320,0.013043
40.494,61.2498,0.013043
40.526,61.2696,0.013043
40.556,61.2887,0.013043
40.588,61.3100,0.013043
40.619,61.3310,0.013043
40.651,61.3538,0.013043
40.681,61.3761,0.012572
40.714,61.4009,0.012572
40.744,61.4245,0.012572
40.777,61.4518,0.012572
40.806,61.4747,0.012572
40.837,61.5011,0.012572
40.866,61.5268,0.012572
40.897,61.5546,0.012572
40.928,61.5835,0.012572
40.959,61.6119,0.011970
40.990,61.6419,0.011970
41.021,61.6731,0.011970
41.053,61.7053,0.011970
41.083,61.7363,0.011970
41.114,61.7691,0.011970
41.145,61.8025,0.011970
41.176,61.8377,0.011970
41.206,61.8714,0.011180
41.237,61.9075,0.011180
41.268,61.9434,0.011180
41.301,61.9847,0.011180
41.330,62.0190,0.011180
41.361,62.0571,0.011180
41.392,62.0967,0.011180
41.423,62.1376,0.010107
41.453,62.1773,0.010107
41.485,62.2195,0.010107
41.516,62.2627,0.010107
41.547,62.3054,0.010107
41.578,62.3493,0.010107
41.609,62.3945,0.010107
41.642,62.4412,0.010107
41.671,62.4847,0.010107
41.701,62.5288,0.008620
41.731,62.5744,0.008620
41.762,62.6204,0.008620
41.793,62.6669,0.008620
41.825,62.7160,0.008620
41.856,62.7611,0.008620
41.887,62.8077,0.008620
41.918,62.8546,0.008620
41.949,62.9015,0.008620
41.980,62.9480,0.006700
42.011,62.9940,0.006700
42.042,63.0406,0.006700
42.074,63.0885,0.006700
42.105,63.1346,0.006700
42.136,63.1816,0.006700
42.166,63.2263,0.006700
42.197,63.2735,0.006700
42.228,63.3193,0.004272
42.259,63.3662,0.004272
42.290,63.4117,0.004272
42.321,63.4596,0.004272
42.351,63.5045,0.004272
42.382,63.5506,0.004272
42.413,63.5977,0.004272
42.444,63.6444,0.004272
42.476,63.6912,0.000753
42.512,63.7462,0.000753
42.539,63.7865,0.000753
42.570,63.8335,0.000753
42.602,63.8800,0.000753
42.631,63.9249,0.000753
42.662,63.9700,0.000753
42.693,64.0175,-0.004762
42.724,64.0634,-0.004762
42.755,64.1099,-0.004762
42.786,64.1565,-0.004762
42.819,64.2068,-0.004762
42.847,64.2481,-0.004762
42.879,64.2964,-0.004762
42.909,64.3417,-0.004762
42.945,64.3973,-0.004762
42.985,64.4570,-0.013796
43.016,64.5020,-0.013796
43.047,64.5482,-0.013796
43.078,64.5934,-0.013796
43.109,64.6387,-0.013796
43.140,64.6831,-0.013796
43.171,64.7268,-0.013796
43.202,64.7695,-0.013796
43.233,64.8120,-0.028871
43.264,64.8530,-0.028871
43.295,64.8935,-0.028871
43.326,64.9336,-0.028871
43.358,64.9741,-0.028871
43.388,65.0121,-0.028871
43.419,65.0492,-0.028871
43.449,65.0849,-0.051682
43.480,65.1211,-0.051682
43.512,65.1572,-0.051682
43.542,65.1914,-0.051682
43.574,65.2262,-0.051682
43.605,65.2598,-0.051682
43.636,65.2930,-0.051682
43.667,65.3243,-0.051682
43.698,65.3555,-0.084063
43.733,65.3901,-0.084063
43.759,65.4152,-0.084063
43.790,65.4444,-0.084063
43.821,65.4730,-0.084063
43.852,65.5002,-0.084063
43.883,65.5273,-0.084063
43.914,65.5532,-0.084063
43.945,65.5793,-0.129929
43.976,65.6033,-0.129929
44.007,65.6276,-0.129929
44.038,65.6511,-0.129929
44.069,65.6729,-0.129929
44.101,65.6951,-0.129929
44.132,65.7163,-0.129929
44.163,65.7368,-0.129929
44.194,65.7562,-0.129929
44.227,65.7758,-0.210887
44.258,65.7941,-0.210887
44.288,65.8112,-0.210887
44.320,65.8280,-0.210887
44.352,65.8442,-0.210887
44.381,65.8587,-0.210887
44.412,65.8731,-0.210887
44.444,65.8875,-0.359994
44.475,65.9003,-0.359994
44.506,65.9123,-0.359994
44.537,65.9242,-0.359994
44.567,65.9345,-0.359994
44.600,65.9450,-0.359994
44.629,65.9538,-0.359994
44.660,65.9624,-0.359994
44.691,65.9704,-0.578306
44.721,65.9774,-0.578306
44.753,65.9841,-0.578306
44.784,65.9896,-0.578306
44.816,65.9949,-0.578306
44.848,65.9991,-0.578306
44.878,66.0025,-0.578306
44.911,66.0055,-0.578306
44.940,66.0074,-0.802885
44.972,66.0087,-0.802885
45.003,66.0094,-0.802885
45.033,66.0094,-0.802885
45.065,66.0094,-0.802885
45.099,66.0094,-0.802885
45.127,66.0094,-0.802885
45.158,66.0094,-0.802885
45.189,66.0094,-0.784939
45.221,66.0094,-0.784939
45.252,66.0094,-0.784939
45.288,66.0094,-0.784939
45.328,66.0094,-0.784939
45.359,66.0094,-0.784939
45.390,66.0094,-0.784939
45.421,66.0094,-0.784939
45.452,66.0094,-0.556822
45.483,66.0094,-0.556822
45.517,66.0094,-0.556822
45.546,66.0094,-0.556822
45.578,66.0094,-0.556822
45.608,66.0094,-0.556822
45.644,66.0094,-0.556822
45.686,66.0094,-0.556822
45.716,66.0094,-0.403357
45.748,66.0094,-0.403357
45.778,66.0094,-0.403357
45.810,66.0094,-0.403357
45.841,66.0094,-0.403357
45.875,66.0094,-0.403357
45.902,66.0094,-0.403357
45.933,66.0094,-0.403357
45.964,66.0094,-0.335876
45.995,66.0094,-0.335876
46.026,66.0094,-0.335876
46.056,66.0094,-0.335876
46.087,66.0094,-0.335876
46.118,66.0094,-0.335876
46.149,66.0094,-0.335876
46.181,66.0094,-0.335876
46.211,66.0094,-0.299420
46.242,66.0094,-0.299420
46.273,66.0094,-0.299420
46.305,66.0094,-0.299420
46.336,66.0094,-0.299420
46.368,66.0094,-0.299420
46.398,66.0094,-0.299420
46.429,66.0094,-0.299420
46.454,66.0094,-0.299420
46.494,66.0094,-0.299420
46.523,66.0094,-0.277023
46.554,66.0094,-0.277023
46.584,66.0094,-0.277023
46.615,66.0094,-0.277023
46.648,66.0094,-0.277023
46.676,66.0094,-0.262042
46.709,66.0094,-0.262042
46.738,66.0094,-0.262042
46.769,66.0094,-0.262042
46.799,66.0094,-0.262042
46.831,66.0094,-0.262042
46.862,66.0094,-0.262042
46.893,66.0094,-0.262042
46.924,66.0094,-0.262042
46.954,66.0094,-0.251380
46.986,66.0094,-0.251380
47.016,66.0094,-0.251380
47.047,66.0094,-0.251380
47.078,66.0094,-0.251380
47.110,66.0094,-0.251380
47.141,66.0094,-0.251380
47.172,66.0094,-0.243334
47.203,66.0094,-0.243334
47.234,66.0094,-0.243334
47.266,66.0094,-0.243334
47.296,66.0094,-0.243334
47.328,66.0094,-0.243334
47.358,66.0094,-0.243334
47.390,66.0094,-0.243334
47.421,66.0094,-0.237029
47.452,66.0094,-0.237029
47.484,66.0094,-0.237029
47.516,66.0094,-0.237029
47.547,66.0094,-0.237029
47.580,66.0094,-0.237029
47.608,66.0094,-0.237029
47.639,66.0094,-0.237029
47.670,66.0094,-0.237029
47.700,66.0094,-0.237029
47.732,66.0094,-0.231891
47.764,66.0094,-0.231891
47.793,66.0094,-0.231891
47.823,66.0094,-0.231891
47.854,66.0094,-0.231891
47.888,66.0094,-0.231891
47.916,66.0094,-0.231891
47.947,66.0094,-0.231891
47.978,66.0094,-0.227515
48.009,66.0094,-0.227515
48.041,66.0094,-0.227515
48.070,66.0094,-0.227515
48.102,66.0094,-0.227515
48.131,66.0094,-0.227515
48.163,66.0094,-0.227515
48.194,66.0094,-0.223873
48.226,66.0094,-0.223873
48.256,66.0094,-0.223873
48.288,66.0094,-0.223873
48.319,66.0094,-0.223873
48.351,66.0094,-0.223873
48.382,66.0094,-0.223873
48.414,66.0094,-0.223873
48.445,66.0094,-0.220739
48.476,66.0094,-0.220739
48.506,66.0094,-0.220739
48.537,66.0094,-0.220739
48.568,66.0094,-0.220739
48.599,66.0094,-0.220739
48.630,66.0094,-0.220739
48.661,66.0094,-0.220739
48.692,66.0094,-0.217841
48.722,66.0094,-0.217841
48.754,66.0094,-0.217841
48.785,66.0094,-0.217841
48.816,66.0094,-0.217841
48.847,66.0094,-0.217841
48.878,66.0094,-0.217841
48.908,66.0094,-0.217841
48.939,66.0094,-0.214387
48.971,66.0094,-0.214387
49.002,66.0094,-0.214387
49.035,66.0094,-0.214387
49.066,66.0094,-0.214387
49.097,66.0094,-0.214387
49.128,66.0094,-0.214387
49.158,66.0094,-0.214387
49.190,66.0094,-0.210115
49.221,66.0094,-0.210115
49.252,66.0094,-0.210115
49.283,66.0094,-0.210115
49.314,66.0092,-0.210115
49.345,66.0084,-0.210115
49.376,66.0068,-0.210115
49.407,66.0045,-0.210115
49.438,66.0013,-0.210115
49.468,65.9978,-0.205382
49.499,65.9934,-0.205382
49.530,65.9883,-0.205382
49.561,65.9823,-0.205382
49.591,65.9756,-0.205382
49.622,65.9684,-0.205382
49.653,65.9605,-0.205382
49.684,65.9514,-0.205382
49.716,65.9420,0.189855
49.746,65.9319,0.189855
49.777,65.9209,0.189855
49.808,65.9090,0.189855
49.839,65.8968,0.189855
49.870,65.8836,0.189855
49.901,65.8697,0.189855
49.932,65.8551,0.189855
49.963,65.8398,0.306779
49.995,65.8231,0.306779
50.026,65.8067,0.306779
50.058,65.7884,0.306779
50.088,65.7705,0.306779
50.120,65.7498,0.306779
50.151,65.7313,0.306779
50.182,65.7107,0.306779
50.214,65.6890,0.025088
50.244,65.6676,0.025088
50.275,65.6445,0.025088
50.306,65.6217,0.025088
50.337,65.5969,0.025088
50.367,65.5731,0.025088
50.398,65.5470,0.025088
50.429,65.5216,0.025088
50.459,65.4945,0.030405
50.490,65.4670,0.030405
50.521,65.4389,0.030405
50.551,65.4106,0.030405
50.583,65.3802,0.030405
50.615,65.3489,0.030405
50.645,65.3181,0.030405
50.676,65.2854,0.030405
50.707,65.2538,0.052011
50.738,65.2205,0.052011
50.769,65.1857,0.052011
50.800,65.1509,0.052011
50.831,65.1149,0.052011
50.862,65.0784,0.052011
50.893,65.0417,0.052011
50.925,65.0022,0.052011
50.955,64.9645,0.068009
50.987,64.9229,0.068009
51.017,64.8845,0.068009
51.051,64.8406,0.068009
51.079,64.8025,0.068009
51.110,64.7605,0.068009
51.139,64.7199,0.068009
51.170,64.6757,0.068009
51.202,64.6315,0.075565
51.238,64.5780,0.075565
51.278,64.5191,0.075565
51.309,64.4727,0.075565
51.339,64.4265,0.075565
51.369,64.3818,0.075565
51.401,64.3346,0.075565
51.431,64.2892,0.075565
51.463,64.2410,0.078003
51.494,64.1945,0.078003
51.526,64.1472,0.078003
51.557,64.1009,0.078003
51.589,64.0534,0.078003
51.620,64.0060,0.078003
51.652,63.9581,0.078003
51.683,63.9113,0.078003
51.713,63.8664,0.077927
51.744,63.8200,0.077927
51.775,63.7735,0.077927
51.805,63.7281,0.077927
51.835,63.6807,0.077927
51.866,63.6375,0.077927
51.896,63.5903,0.077927
51.928,63.5419,0.077927
51.959,63.4964,0.079715
51.990,63.4504,0.079715
52.021,63.4038,0.079715
52.052,63.3585,0.079715
52.083,63.3125,0.079715
52.113,63.2668,0.079715
52.144,63.2198,0.079715
52.175,63.1732,0.079715
52.206,63.1281,0.085729
52.236,63.0812,0.085729
52.267,63.0355,0.085729
52.299,62.9864,0.085729
52.329,62.9424,0.085729
52.360,62.8961,0.085729
52.390,62.8495,0.085729
52.423,62.8014,0.085729
52.454,62.7555,0.096014
52.484,62.7097,0.096014
52.515,62.6632,0.096014
52.545,62.6183,0.096014
52.577,62.5709,0.096014
52.607,62.5251,0.096014
52.639,62.4779,0.096014
52.671,62.4288,0.096014
52.701,62.3848,0.108248
52.733,62.3389,0.108248
52.764,62.2945,0.108248
52.795,62.2507,0.108248
52.826,62.2072,0.108248
52.857,62.1641,0.108248
52.888,62.1237,0.108248
52.920,62.0814,0.108248
52.951,62.0424,0.077485
52.981,62.0032,0.077485
53.013,61.9637,0.077485
53.043,61.9265,0.077485
53.074,61.8894,0.077485
53.106,61.8517,0.077485
53.137,61.8169,0.077485
53.169,61.7804,0.077485
53.200,61.7463,0.029549
53.230,61.7132,0.029549
53.261,61.6807,0.029549
53.292,61.6492,0.029549
53.323,61.6182,0.029549
53.354,61.5872,0.029549
53.385,61.5572,0.029549
53.416,61.5283,0.029549
53.447,61.4999,0.029549
53.477,61.4733,0.016995
53.507,61.4465,0.016995
53.538,61.4206,0.016995
53.569,61.3943,0.016995
53.601,61.3695,0.016995
53.632,61.3455,0.016995
53.662,61.3226,0.016995
53.693,61.2995,0.015659
53.725,61.2775,0.015659
53.757,61.2560,0.015659
53.788,61.2353,0.015659
53.819,61.2150,0.015659
53.850,61.1968,0.015659
53.881,61.1782,0.015659
53.913,61.1607,0.015659
53.943,61.1442,0.015659
53.976,61.1274,0.015085
54.007,61.1122,0.015085
54.038,61.0977,0.015085
54.069,61.0837,0.015085
54.101,61.0699,0.015085
54.131,61.0580,0.015085
54.162,61.0464,0.015085
54.194,61.0355,0.014661
54.223,61.0255,0.014661
54.254,61.0164,0.014661
54.284,61.0077,0.014661
54.315,60.9996,0.014661
54.346,60.9925,0.014661
54.377,60.9860,0.014661
54.408,60.9801,0.014661
54.439,60.9750,0.014313
54.470,60.9705,0.014313
54.502,60.9667,0.014313
54.533,60.9638,0.014313
54.564,60.9616,0.014313
54.595,60.9602,0.014313
54.625,60.9595,0.014313
54.656,60.9594,0.014313
54.687,60.9594,0.014313
54.718,60.9594,0.014050
54.749,60.9594,0.014050
54.780,60.9595,0.014050
54.812,60.9604,0.014050
54.843,60.9619,0.014050
54.874,60.9641,0.014050
54.905,60.9672,0.014050
54.936,60.9710,0.013918
54.967,60.9754,0.013918
54.999,60.9807,0.013918
55.027,60.9860,0.013918
55.061,60.9932,0.013918
55.092,61.0009,0.013918
55.123,61.0087,0.013918
55.154,61.0177,0.013918
55.186,61.0277,0.013654
55.217,61.0379,0.013654
55.247,61.0488,0.013654
55.278,61.0603,0.013654
55.309,61.0730,0.013654
55.340,61.0859,0.013654
55.372,61.1003,0.013654
55.403,61.1149,0.013654
55.433,61.1302,0.013654
55.464,61.1462,0.013203
55.496,61.1636,0.013203
55.526,61.1806,0.013203
55.558,61.1995,0.013203
55.589,61.2183,0.013203
55.620,61.2387,0.013203
55.651,61.2588,0.013203
55.683,61.2808,0.012798
55.714,61.3026,0.012798
55.745,61.3261,0.012798
55.777,61.3494,0.012798
55.808,61.3739,0.012798
55.838,61.3978,0.012798
55.869,61.4236,0.012798
55.901,61.4508,0.012798
55.932,61.4780,0.012243
55.962,61.5057,0.012243
55.993,61.5334,0.012243
56.025,61.5631,0.012243
56.056,61.5936,0.012243
56.087,61.6241,0.012243
56.118,61.6555,0.012243
56.149,61.6876,0.012243
56.180,61.7206,0.012243
56.210,61.7530,0.011490
56.243,61.7898,0.011490
56.273,61.8239,0.011490
56.304,61.8602,0.011490
56.336,61.8984,0.011490
56.368,61.9358,0.011490
56.399,61.9744,0.011490
56.433,62.0187,0.010455
56.461,62.0529,0.010455
56.493,62.0935,0.010455
56.524,62.1352,0.010455
56.555,62.1765,0.010455
56.586,62.2202,0.010455
56.617,62.2613,0.010455
56.648,62.3058,0.010455
56.679,62.3510,0.010455
56.710,62.3964,0.010455
56.741,62.4423,0.009053
56.771,62.4880,0.009053
56.802,62.5342,0.009053
56.834,62.5817,0.009053
56.866,62.6302,0.009053
56.896,62.6749,0.009053
56.926,62.7209,0.009053
56.956,62.7644,0.009053
56.988,62.8125,0.007265
57.019,62.8595,0.007265
57.050,62.9056,0.007265
57.081,62.9533,0.007265
57.115,63.0039,0.007265
57.144,63.0472,0.007265
57.175,63.0925,0.007265
57.206,63.1398,0.005016
57.237,63.1852,0.005016
57.267,63.2325,0.005016
57.298,63.2775,0.005016
57.330,63.3262,0.005016
57.358,63.3685,0.005016
57.390,63.4160,0.005016
57.421,63.4618,0.005016
57.453,63.5095,0.001854
57.484,63.5572,0.001854
57.515,63.6036,0.001854
57.547,63.6514,0.001854
57.577,63.6969,0.001854
57.610,63.7452,0.001854
57.639,63.7891,0.001854
57.671,63.8362,0.001854
57.702,63.8837,0.001854
57.733,63.9299,-0.003030
57.764,63.9772,-0.003030
57.797,64.0266,-0.003030
57.826,64.0704,-0.003030
57.857,64.1164,-0.003030
57.889,64.1650,-0.003030
57.923,64.2160,-0.003030
57.952,64.2585,-0.010944
57.983,64.3052,-0.010944
58.014,64.3527,-0.010944
58.046,64.3993,-0.010944
58.077,64.4469,-0.010944
58.109,64.4936,-0.010944
58.140,64.5394,-0.010944
58.170,64.5836,-0.010944
58.201,64.6289,-0.024119
58.232,64.6726,-0.024119
58.258,64.7081,-0.024119
58.294,64.7573,-0.024119
58.325,64.7988,-0.024119
58.356,64.8387,-0.024119
58.387,64.8791,-0.024119
58.417,64.9172,-0.024119
58.449,64.9573,-0.044671
58.480,64.9941,-0.044671
58.511,65.0314,-0.044671
58.541,65.0673,-0.044671
58.573,65.1031,-0.044671
58.603,65.1367,-0.044671
58.634,65.1717,-0.044671
58.665,65.2051,-0.044671
58.695,65.2368,-0.074380
58.726,65.2689,-0.074380
58.756,65.2997,-0.074380
58.788,65.3312,-0.074380
58.818,65.3602,-0.074380
58.849,65.3894,-0.074380
58.880,65.4180,-0.074380
58.911,65.4456,-0.074380
58.943,65.4735,-0.115804
58.973,65.4991,-0.115804
59.005,65.5252,-0.115804
59.036,65.5499,-0.115804
59.069,65.5754,-0.115804
59.097,65.5961,-0.115804
59.128,65.6193,-0.115804
59.159,65.6409,-0.115804
59.190,65.6626,-0.183333
59.221,65.6824,-0.183333
59.253,65.7024,-0.183333
59.283,65.7210,-0.183333
59.315,65.7397,-0.183333
59.345,65.7569,-0.183333
59.376,65.7738,-0.183333
59.407,65.7898,-0.183333
59.438,65.8049,-0.183333
59.468,65.8192,-0.312095
59.493,65.8305,-0.312095
59.530,65.8460,-0.312095
59.561,65.8587,-0.312095
59.591,65.8700,-0.312095
59.621,65.8810,-0.312095
59.653,65.8914,-0.312095
59.683,65.9007,-0.312095
59.715,65.9099,-0.513657
59.745,65.9180,-0.513657
59.776,65.9253,-0.513657
59.808,65.9320,-0.513657
59.839,65.9379,-0.513657
59.870,65.9431,-0.513657
59.901,65.9477,-0.513657
59.932,65.9514,-0.751354
59.963,65.9545,-0.751354
59.994,65.9568,-0.751354
60.025,65.9584,-0.751354
60.056,65.9593,-0.751354
60.087,65.9594,-0.751354
60.117,65.9594,-0.751354
60.148,65.9594,-0.751354
60.184,65.9594,-0.751354
60.211,65.9594,-0.813067
60.243,65.9594,-0.813067
60.275,65.9594,-0.813067
60.306,65.9594,-0.813067
60.336,65.9594,-0.813067
60.367,65.9594,-0.813067
60.398,65.9594,-0.813067
60.428,65.9594,-0.813067
60.460,65.9594,-0.617020
60.491,65.9594,-0.617020
60.522,65.9594,-0.617020
60.554,65.9594,-0.617020
60.588,65.9594,-0.617020
60.616,65.9594,-0.617020
60.646,65.9594,-0.617020
60.678,65.9594,-0.617020
60.709,65.9594,-0.426112
60.742,65.9594,-0.426112
60.771,65.9594,-0.426112
60.801,65.9594,-0.426112
60.831,65.9594,-0.426112
60.863,65.9594,-0.426112
60.897,65.9594,-0.426112
60.924,65.9594,-0.426112
60.955,65.9594,-0.345117
60.986,65.9594,-0.345117
61.018,65.9594,-0.345117
61.050,65.9594,-0.345117
61.081,65.9594,-0.345117
61.112,65.9594,-0.345117
61.144,65.9594,-0.345117
61.175,65.9594,-0.345117
61.206,65.9594,-0.303636
61.236,65.9594,-0.303636
61.267,65.9594,-0.303636
61.298,65.9594,-0.303636
61.328,65.9594,-0.303636
61.360,65.9594,-0.303636
61.392,65.9594,-0.303636
61.422,65.9594,-0.303636
61.453,65.9594,-0.278990
61.485,65.9594,-0.278990
61.516,65.9594,-0.278990
61.547,65.9594,-0.278990
61.579,65.9594,-0.278990
61.609,65.9594,-0.278990
61.640,65.9594,-0.278990
61.671,65.9594,-0.262766
61.702,65.9594,-0.262766
61.733,65.9594,-0.262766
61.764,65.9594,-0.262766
61.796,65.9594,-0.262766
61.827,65.9594,-0.262766
61.858,65.9594,-0.262766
61.889,65.9594,-0.262766
61.920,65.9594,-0.262766
61.951,65.9594,-0.251370
61.982,65.9594,-0.251370
62.012,65.9594,-0.251370
62.044,65.9594,-0.251370
62.074,65.9594,-0.251370
62.105,65.9594,-0.251370
62.136,65.9594,-0.251370
62.167,65.9594,-0.242948
62.198,65.9594,-0.242948
62.230,65.9594,-0.242948
62.261,65.9594,-0.242948
62.293,65.9594,-0.242948
62.323,65.9594,-0.242948
62.354,65.9594,-0.242948
62.385,65.9594,-0.242948
62.416,65.9594,-0.242948
62.447,65.9594,-0.236398
62.478,65.9594,-0.236398
62.509,65.9594,-0.236398
62.540,65.9594,-0.236398
62.570,65.9594,-0.236398
62.604,65.9594,-0.236398
62.634,65.9594,-0.236398
62.665,65.9594,-0.236398
62.697,65.9594,-0.231053
62.728,65.9594,-0.231053
62.759,65.9594,-0.231053
62.789,65.9594,-0.231053
62.823,65.9594,-0.231053
62.851,65.9594,-0.231053
62.882,65.9594,-0.231053
62.912,65.9594,-0.231053
62.943,65.9594,-0.226630
62.974,65.9594,-0.226630
63.006,65.9594,-0.226630
63.037,65.9594,-0.226630
63.068,65.9594,-0.226630
63.099,65.9594,-0.226630
63.125,65.9594,-0.226630
63.162,65.9594,-0.226630
63.193,65.9594,-0.222866
63.223,65.9594,-0.222866
63.253,65.9594,-0.222866
63.286,65.9594,-0.222866
63.316,65.9594,-0.222866
63.347,65.9594,-0.222866
63.378,65.9594,-0.222866
63.408,65.9594,-0.222866
63.439,65.9594,-0.222866
63.470,65.9594,-0.219573
63.501,65.9594,-0.219573
63.532,65.9594,-0.219573
63.563,65.9594,-0.219573
63.594,65.9594,-0.219573
63.625,65.9594,-0.219573
63.657,65.9594,-0.219573
63.688,65.9594,-0.219573
63.720,65.9594,-0.216712
63.752,65.9594,-0.216712
63.783,65.9594,-0.216712
63.815,65.9594,-0.216712
63.845,65.9594,-0.216712
63.876,65.9594,-0.216712
63.907,65.9594,-0.216712
63.938,65.9594,-0.213625
63.969,65.9594,-0.213625
64.000,65.9594,-0.213625
64.032,65.9594,-0.213625
64.061,65.9594,-0.213625
64.093,65.9594,-0.213625
64.123,65.9594,-0.213625
64.154,65.9594,-0.213625
64.186,65.9594,-0.213625
64.216,65.9594,-0.213625
64.248,65.9594,-0.209673
64.279,65.9594,-0.209673
64.310,65.9594,-0.209673
64.341,65.9594,-0.209673
64.372,65.9590,-0.209673
64.404,65.9579,-0.209673
64.435,65.9562,-0.209673
64.465,65.9536,-0.205438
64.497,65.9502,-0.205438
64.528,65.9464,-0.205438
64.558,65.9415,-0.205438
64.589,65.9363,-0.205438
64.620,65.9300,-0.205438
64.651,65.9233,-0.205438
64.682,65.9156,-0.205438
64.713,65.9073,0.009297
64.744,65.8982,0.009297
64.775,65.8883,0.009297
64.805,65.8784,0.009297
64.836,65.8670,0.009297
64.867,65.8548,0.009297
64.898,65.8424,0.009297
64.929,65.8285,0.009297
64.960,65.8149,0.143668
64.991,65.8001,0.143668
65.022,65.7844,0.143668
65.053,65.7676,0.143668
65.084,65.7508,0.143668
65.119,65.7312,0.143668
65.146,65.7144,0.143668
65.178,65.6945,0.143668
65.210,65.6744,0.040756
65.240,65.6540,0.040756
65.272,65.6315,0.040756
65.302,65.6099,0.040756
65.334,65.5867,0.040756
65.365,65.5634,0.040756
65.396,65.5389,0.040756
65.428,65.5131,0.040756
65.458,65.4880,0.026509
65.488,65.4622,0.026509
65.520,65.4341,0.026509
65.550,65.4070,0.026509
65.581,65.3782,0.026509
65.613,65.3479,0.026509
65.643,65.3191,0.026509
65.673,65.2880,0.047824
65.704,65.2570,0.047824
65.736,65.2238,0.047824
65.767,65.1912,0.047824
65.798,65.1572,0.047824
65.829,65.1222,0.047824
65.861,65.0863,0.047824
65.892,65.0493,0.047824
65.924,65.0123,0.065280
65.954,64.9749,0.065280
65.986,64.9368,0.065280
66.016,64.8977,0.065280
66.049,64.8567,0.065280
66.079,64.8179,0.065280
66.111,64.7757,0.065280
66.141,64.7344,0.065280
66.173,64.6903,0.065280
66.204,64.6468,0.074182
66.235,64.6033,0.074182
66.266,64.5582,0.074182
66.296,64.5133,0.074182
66.327,64.4686,0.074182
66.358,64.4209,0.074182
66.387,64.3772,0.074182
66.420,64.3280,0.074182
66.452,64.2806,0.077419
66.483,64.2338,0.077419
66.513,64.1886,0.077419
66.544,64.1431,0.077419
66.575,64.0957,0.077419
66.606,64.0487,0.077419
66.637,64.0019,0.077419
66.667,63.9568,0.077419
66.699,63.9098,0.077419
66.730,63.8628,0.077607
66.761,63.8173,0.077607
66.792,63.7704,0.077607
66.823,63.7240,0.077607
66.854,63.6771,0.077607
66.889,63.6243,0.077607
66.916,63.5847,0.077607
66.947,63.5388,0.078671
66.978,63.4914,0.078671
67.009,63.4454,0.078671
67.040,63.3989,0.078671
67.073,63.3487,0.078671
67.101,63.3075,0.078671
67.132,63.2600,0.078671
67.163,63.2147,0.078671
67.195,63.1660,0.083752
67.225,63.1216,0.083752
67.257,63.0732,0.083752
67.286,63.0292,0.083752
67.319,62.9793,0.083752
67.348,62.9363,0.083752
67.380,62.8886,0.083752
67.410,62.8433,0.083752
67.441,62.7972,0.083752
67.473,62.7487,0.093210
67.503,62.7039,0.093210
67.535,62.6563,0.093210
67.565,62.6108,0.093210
67.596,62.5640,0.093210
67.627,62.5174,0.093210
67.658,62.4707,0.093210
67.689,62.4245,0.093210
67.720,62.3771,0.105632
67.751,62.3326,0.105632
67.783,62.2854,0.105632
67.815,62.2405,0.105632
67.846,62.1965,0.105632
67.877,62.1526,0.105632
67.909,62.1096,0.105632
67.941,62.0674,0.089361
67.972,62.0255,0.089361
68.004,61.9862,0.089361
68.034,61.9474,0.089361
68.065,61.9093,0.089361
68.096,61.8713,0.089361
68.128,61.8329,0.089361
68.159,61.7972,0.089361
68.190,61.7613,0.042676
68.221,61.7266,0.042676
68.253,61.6911,0.042676
68.283,61.6589,0.042676
68.314,61.6260,0.042676
68.345,61.5946,0.042676
68.376,61.5628,0.042676
68.407,61.5317,0.042676
68.438,61.5027,0.017466
68.469,61.4743,0.017466
68.501,61.4448,0.017466
68.531,61.4176,0.017466
68.562,61.3905,0.017466
68.593,61.3648,0.017466
68.624,61.3395,0.017466
68.656,61.3147,0.017466
68.687,61.2900,0.015838
68.718,61.2670,0.015838
68.749,61.2448,0.015838
68.780,61.2233,0.015838
68.811,61.2017,0.015838
68.842,61.1818,0.015838
68.873,61.1624,0.015838
68.904,61.1437,0.015838
68.934,61.1261,0.015838
68.965,61.1083,0.015104
68.996,61.0921,0.015104
69.026,61.0761,0.015104
69.057,61.0611,0.015104
69.088,61.0466,0.015104
69.119,61.0329,0.015104
69.151,61.0194,0.015104
69.182,61.0069,0.014718
69.214,60.9952,0.014718
69.245,60.9846,0.014718
69.276,60.9743,0.014718
69.308,60.9646,0.014718
69.339,60.9559,0.014718
69.370,60.9482,0.014718
69.401,60.9411,0.014718
69.432,60.9346,0.014718
69.463,60.9290,0.014426
69.495,60.9239,0.014426
69.526,60.9197,0.014426
69.556,60.9161,0.014426
69.587,60.9134,0.014426
69.618,60.9114,0.014426
69.650,60.9100,0.014426
69.681,60.9094,0.014426
69.712,60.9094,0.014116
69.742,60.9094,0.014116
69.773,60.9094,0.014116
69.804,60.9094,0.014116
69.835,60.9095,0.014116
69.867,60.9104,0.014116
69.898,60.9119,0.014116
69.929,60.9141,0.013965
69.963,60.9173,0.013965
69.992,60.9211,0.013965
70.023,60.9254,0.013965
70.055,60.9309,0.013965
70.086,60.9368,0.013965
70.117,60.9434,0.013965
70.148,60.9509,0.013965
70.179,60.9588,0.013965
70.209,60.9674,0.013711
70.240,60.9769,0.013711
70.272,60.9875,0.013711
70.303,60.9986,0.013711
70.335,61.0106,0.013711
70.365,61.0228,0.013711
70.395,61.0359,0.013711
70.426,61.0494,0.013306
70.457,61.0643,0.013306
70.489,61.0799,0.013306
70.521,61.0972,0.013306
70.551,61.1133,0.013306
70.582,61.1309,0.013306
70.614,61.1494,0.013306
70.645,61.1684,0.013306
70.676,61.1885,0.013306
70.707,61.2087,0.013306
70.738,61.2299,0.012949
70.769,61.2524,0.012949
70.800,61.2750,0.012949
70.830,61.2980,0.012949
70.864,61.3238,0.012949
70.892,61.3470,0.012949
70.924,61.3729,0.012949
70.955,61.3993,0.012949
70.987,61.4272,0.012431
71.017,61.4549,0.012431
71.048,61.4830,0.012431
71.079,61.5118,0.012431
71.111,61.5420,0.012431
71.141,61.5723,0.012431
71.178,61.6100,0.012431
71.203,61.6361,0.012431
71.234,61.6697,0.011744
71.265,61.7022,0.011744
71.299,61.7402,0.011744
71.326,61.7704,0.011744
71.357,61.8065,0.011744
71.390,61.8466,0.011744
71.418,61.8799,0.011744
71.451,61.9197,0.011744
71.481,61.9573,0.010765
71.513,61.9971,0.010765
71.544,62.0380,0.010765
71.574,62.0775,0.010765
71.606,62.1202,0.010765
71.636,62.1603,0.010765
71.667,62.2036,0.010765
71.697,62.2475,0.010765
71.729,62.2915,0.009448
71.760,62.3378,0.009448
71.791,62.3834,0.009448
71.823,62.4319,0.009448
71.853,62.4763,0.009448
71.884,62.5232,0.009448
71.917,62.5713,0.009448
71.945,62.6157,0.009448
71.976,62.6616,0.007782
72.006,62.7059,0.007782
72.039,62.7559,0.007782
72.068,62.7993,0.007782
72.099,62.8463,0.007782
72.130,62.8918,0.007782
72.161,62.9394,0.007782
72.193,62.9857,0.005656
72.224,63.0329,0.005656
72.254,63.0782,0.005656
72.285,63.1242,0.005656
72.317,63.1728,0.005656
72.347,63.2180,0.005656
72.379,63.2645,0.005656
72.413,63.3153,0.005656
72.440,63.3580,0.002757
72.472,63.4051,0.002757
72.502,63.4500,0.002757
72.533,63.4970,0.002757
72.564,63.5428,0.002757
72.596,63.5903,0.002757
72.627,63.6373,0.002757
72.657,63.6837,0.002757
72.689,63.7292,-0.001647
72.720,63.7774,-0.001647
72.752,63.8238,-0.001647
72.783,63.8713,-0.001647
72.813,63.9168,-0.001647
72.845,63.9647,-0.001647
72.875,64.0089,-0.001647
72.907,64.0570,-0.001647
72.937,64.1028,-0.008705
72.968,64.1500,-0.008705
72.999,64.1948,-0.008705
73.032,64.2451,-0.008705
73.062,64.2895,-0.008705
73.098,64.3466,-0.008705
73.140,64.4071,-0.008705
73.171,64.4535,-0.020486
73.201,64.4979,-0.020486
73.232,64.5420,-0.020486
73.264,64.5881,-0.020486
73.296,64.6326,-0.020486
73.328,64.6766,-0.020486
73.358,64.7170,-0.020486
73.390,64.7605,-0.020486
73.421,64.8003,-0.020486
73.451,64.8388,-0.039260
73.481,64.8774,-0.039260
73.512,64.9150,-0.039260
73.543,64.9523,-0.039260
73.577,64.9940,-0.039260
73.604,65.0249,-0.039260
73.635,65.0620,-0.039260
73.667,65.0967,-0.039260
73.698,65.1302,-0.066626
73.729,65.1646,-0.066626
73.765,65.2015,-0.066626
73.791,65.2285,-0.066626
73.822,65.2596,-0.066626
73.853,65.2900,-0.066626
73.885,65.3200,-0.066626
73.914,65.3477,-0.066626
73.946,65.3764,-0.066626
73.977,65.4038,-0.066626
74.008,65.4307,-0.104794
74.038,65.4560,-0.104794
74.069,65.4813,-0.104794
74.100,65.5056,-0.104794
74.130,65.5289,-0.104794
74.161,65.5518,-0.104794
74.192,65.5748,-0.104794
74.224,65.5970,-0.163505
74.256,65.6181,-0.163505
74.287,65.6388,-0.163505
74.317,65.6581,-0.163505
74.348,65.6762,-0.163505
74.379,65.6945,-0.163505
74.410,65.7116,-0.163505
74.441,65.7283,-0.163505
74.472,65.7443,-0.275922
74.502,65.7588,-0.275922
74.534,65.7740,-0.275922
74.564,65.7871,-0.275922
74.595,65.7999,-0.275922
74.626,65.8122,-0.275922
74.657,65.8235,-0.275922
74.688,65.8346,-0.275922
74.719,65.8445,-0.459857
74.750,65.8537,-0.459857
74.781,65.8625,-0.459857
74.810,65.8702,-0.459857
74.842,65.8773,-0.459857
74.872,65.8836,-0.459857
74.902,65.8892,-0.459857
74.933,65.8943,-0.459857
74.964,65.8985,-0.697366
74.995,65.9021,-0.697366
75.025,65.9049,-0.697366
75.057,65.9072,-0.697366
75.088,65.9085,-0.697366
75.120,65.9093,-0.697366
75.150,65.9093,-0.697366
75.182,65.9093,-0.697366
75.213,65.9093,-0.697366
75.244,65.9093,-0.830184
75.275,65.9093,-0.830184
75.307,65.9093,-0.830184
75.338,65.9093,-0.830184
75.369,65.9093,-0.830184
75.400,65.9093,-0.830184
75.431,65.9093,-0.830184
75.462,65.9093,-0.671572
75.493,65.9093,-0.671572
75.525,65.9093,-0.671572
75.556,65.9093,-0.671572
75.588,65.9093,-0.671572
75.619,65.9093,-0.671572
75.651,65.9093,-0.671572
75.680,65.9093,-0.671572
75.712,65.9093,-0.671572
75.743,65.9093,-0.445328
75.774,65.9093,-0.445328
75.805,65.9093,-0.445328
75.837,65.9093,-0.445328
75.868,65.9093,-0.445328
75.899,65.9093,-0.445328
75.930,65.9093,-0.445328
75.962,65.9093,-0.351534
75.993,65.9093,-0.351534
76.024,65.9093,-0.351534
76.056,65.9093,-0.351534
76.087,65.9093,-0.351534
76.118,65.9093,-0.351534
76.150,65.9093,-0.351534
76.180,65.9093,-0.351534
76.211,65.9093,-0.305781
76.241,65.9093,-0.305781
76.272,65.9093,-0.305781
76.304,65.9093,-0.305781
76.335,65.9093,-0.305781
76.366,65.9093,-0.305781
76.397,65.9093,-0.305781
76.429,65.9093,-0.305781
76.458,65.9093,-0.279394
76.488,65.9093,-0.279394
76.520,65.9093,-0.279394
76.550,65.9093,-0.279394
76.581,65.9093,-0.279394
76.612,65.9093,-0.279394
76.643,65.9093,-0.279394
76.673,65.9093,-0.279394
76.704,65.9093,-0.279394
76.736,65.9093,-0.262540
76.767,65.9093,-0.262540
76.797,65.9093,-0.262540
76.828,65.9093,-0.262540
76.859,65.9093,-0.262540
76.889,65.9093,-0.262540
76.922,65.9093,-0.262540
76.952,65.9093,-0.250815
76.982,65.9093,-0.250815
77.013,65.9093,-0.250815
77.045,65.9093,-0.250815
77.076,65.9093,-0.250815
77.108,65.9093,-0.250815
77.138,65.9093,-0.250815
77.170,65.9093,-0.250815
77.200,65.9093,-0.242073
77.232,65.9093,-0.242073
77.263,65.9093,-0.242073
77.294,65.9093,-0.242073
77.325,65.9093,-0.242073
77.356,65.9093,-0.242073
77.387,65.9093,-0.242073
77.418,65.9093,-0.242073
77.449,65.9093,-0.235354
77.479,65.9093,-0.235354
77.510,65.9093,-0.235354
77.542,65.9093,-0.235354
77.572,65.9093,-0.235354
77.604,65.9093,-0.235354
77.635,65.9093,-0.235354
77.667,65.9093,-0.235354
77.698,65.9093,-0.229933
77.730,65.9093,-0.229933
77.760,65.9093,-0.229933
77.792,65.9093,-0.229933
77.822,65.9093,-0.229933
77.853,65.9093,-0.229933
77.883,65.9093,-0.229933
77.914,65.9093,-0.229933
77.945,65.9093,-0.225416
77.975,65.9093,-0.225416
78.006,65.9093,-0.225416
78.038,65.9093,-0.225416
78.069,65.9093,-0.225416
78.100,65.9093,-0.225416
78.131,65.9093,-0.225416
78.165,65.9093,-0.225416
78.194,65.9093,-0.221549
78.226,65.9093,-0.221549
78.256,65.9093,-0.221549
78.287,65.9093,-0.221549
78.318,65.9093,-0.221549
78.350,65.9093,-0.221549
78.381,65.9093,-0.221549
78.412,65.9093,-0.221549
78.442,65.9093,-0.221549
78.474,65.9093,-0.218227
78.505,65.9093,-0.218227
78.536,65.9093,-0.218227
78.567,65.9093,-0.218227
78.598,65.9093,-0.218227
78.628,65.9093,-0.218227
78.659,65.9093,-0.218227
78.690,65.9093,-0.218227
78.725,65.9093,-0.215385
78.752,65.9093,-0.215385
78.783,65.9093,-0.215385
78.814,65.9093,-0.215385
78.845,65.9093,-0.215385
78.876,65.9093,-0.215385
78.906,65.9093,-0.215385
78.938,65.9093,-0.215385
78.969,65.9093,-0.212214
79.000,65.9093,-0.212214
79.031,65.9093,-0.212214
79.063,65.9093,-0.212214
79.094,65.9093,-0.212214
79.125,65.9093,-0.212214
79.156,65.9093,-0.212214
79.188,65.9093,-0.208233
79.219,65.9093,-0.208233
79.251,65.9093,-0.208233
79.282,65.9093,-0.208233
79.314,65.9093,-0.208233
79.346,65.9093,-0.208233
79.377,65.9093,-0.208233
79.407,65.9092,-0.208233
79.438,65.9083,-0.203735
79.470,65.9067,-0.203735
79.501,65.9044,-0.203735
79.533,65.9013,-0.203735
79.563,65.8976,-0.203735
79.594,65.8932,-0.203735
79.624,65.8881,-0.203735
79.656,65.8821,-0.203735
79.687,65.8753,-0.106516
79.718,65.8680,-0.106516
79.749,65.8599,-0.106516
79.781,65.8506,-0.106516
79.812,65.8411,-0.106516
79.844,65.8302,-0.106516
79.874,65.8197,-0.106516
79.905,65.8081,-0.106516
79.939,65.7942,0.110629
79.968,65.7819,0.110629
79.998,65.7684,0.110629
80.028,65.7539,0.110629
80.060,65.7381,0.110629
80.090,65.7226,0.110629
80.121,65.7055,0.110629
80.152,65.6880,0.110629
80.183,65.6699,0.123822
80.214,65.6511,0.123822
80.245,65.6312,0.123822
80.276,65.6109,0.123822
80.308,65.5889,0.123822
80.339,65.5669,0.123822
80.370,65.5439,0.123822
80.401,65.5205,0.123822
80.432,65.4965,0.023742
80.463,65.4711,0.023742
80.494,65.4462,0.023742
80.524,65.4208,0.023742
80.555,65.3937,0.023742
80.586,65.3654,0.023742
80.618,65.3363,0.023742
80.649,65.3071,0.023742
80.680,65.2766,0.044323
80.712,65.2460,0.044323
80.743,65.2139,0.044323
80.774,65.1819,0.044323
80.805,65.1485,0.044323
80.837,65.1152,0.044323
80.868,65.0794,0.044323
80.899,65.0452,0.044323
80.930,65.0080,0.044323
80.962,64.9717,0.063398
80.994,64.9327,0.063398
81.020,64.9012,0.063398
81.055,64.8571,0.063398
81.086,64.8177,0.063398
81.118,64.7766,0.063398
81.149,64.7350,0.063398
81.181,64.6930,0.063398
81.212,64.6492,0.073966
81.243,64.6067,0.073966
81.274,64.5626,0.073966
81.306,64.5171,0.073966
81.338,64.4701,0.073966
81.368,64.4239,0.073966
81.399,64.3783,0.073966
81.429,64.3347,0.073966
81.460,64.2877,0.073966
81.491,64.2404,0.077937
81.522,64.1934,0.077937
81.554,64.1464,0.077937
81.584,64.1020,0.077937
81.615,64.0538,0.077937
81.646,64.0082,0.077937
81.679,63.9595,0.077937
81.709,63.9140,0.078276
81.739,63.8679,0.078276
81.770,63.8221,0.078276
81.800,63.7776,0.078276
81.831,63.7308,0.078276
81.863,63.6823,0.078276
81.894,63.6367,0.078276
81.925,63.5893,0.078276
81.956,63.5429,0.078605
81.986,63.4974,0.078605
82.017,63.4520,0.078605
82.049,63.4043,0.078605
82.079,63.3586,0.078605
82.110,63.3115,0.078605
82.142,63.2644,0.078605
82.174,63.2159,0.078605
82.205,63.1703,0.082981
82.236,63.1225,0.082981
82.267,63.0770,0.082981
82.300,63.0275,0.082981
82.329,62.9839,0.082981
82.360,62.9369,0.082981
82.391,62.8912,0.082981
82.425,62.8396,0.082981
82.453,62.7975,0.091883
82.484,62.7504,0.091883
82.516,62.7039,0.091883
82.546,62.6579,0.091883
82.577,62.6110,0.091883
82.607,62.5662,0.091883
82.638,62.5208,0.091883
82.669,62.4738,0.091883
82.699,62.4288,0.104540
82.730,62.3821,0.104540
82.761,62.3360,0.104540
82.792,62.2898,0.104540
82.822,62.2459,0.104540
82.853,62.2010,0.104540
82.885,62.1566,0.104540
82.916,62.1119,0.104540
82.948,62.0701,0.105293
82.979,62.0281,0.105293
83.010,61.9877,0.105293
83.041,61.9462,0.105293
83.072,61.9067,0.105293
83.103,61.8687,0.105293
83.134,61.8308,0.105293
83.165,61.7942,0.105293
83.195,61.7582,0.105293
83.226,61.7227,0.059417
83.257,61.6876,0.059417
83.288,61.6525,0.059417
83.319,61.6191,0.059417
83.350,61.5859,0.059417
83.381,61.5547,0.059417
83.412,61.5227,0.059417
83.443,61.4926,0.018303
83.473,61.4627,0.018303
83.504,61.4335,0.018303
83.535,61.4049,0.018303
83.566,61.3772,0.018303
83.597,61.3501,0.018303
83.628,61.3241,0.018303
83.659,61.2987,0.018303
83.690,61.2732,0.016120
83.721,61.2495,0.016120
83.751,61.2267,0.016120
83.781,61.2042,0.016120
83.812,61.1826,0.016120
83.843,61.1614,0.016120
83.875,61.1402,0.016120
83.905,61.1205,0.016120
83.936,61.1015,0.015311
83.968,61.0827,0.015311
83.998,61.0654,0.015311
84.030,61.0479,0.015311
84.061,61.0318,0.015311
84.092,61.0162,0.015311
84.123,61.0014,0.015311
84.154,60.9873,0.015311
84.185,60.9744,0.014850
84.216,60.9619,0.014850
84.247,60.9498,0.014850
84.278,60.9385,0.014850
84.308,60.9286,0.014850
84.339,60.9189,0.014850
84.370,60.9100,0.014850
84.401,60.9017,0.014850
84.434,60.8940,0.014501
84.464,60.8873,0.014501
84.496,60.8812,0.014501
84.527,60.8757,0.014501
84.559,60.8712,0.014501
84.589,60.8675,0.014501
84.620,60.8644,0.014501
84.652,60.8620,0.014501
84.683,60.8603,0.014210
84.715,60.8594,0.014210
84.746,60.8593,0.014210
84.777,60.8593,0.014210
84.808,60.8593,0.014210
84.838,60.8593,0.014210
84.870,60.8593,0.014210
84.901,60.8593,0.014210
84.932,60.8599,0.014021
84.962,60.8613,0.014021
84.994,60.8634,0.014021
85.025,60.8661,0.014021
85.056,60.8696,0.014021
85.087,60.8739,0.014021
85.118,60.8789,0.014021
85.149,60.8846,0.014021
85.180,60.8910,0.014021
85.212,60.8985,0.013739
85.243,60.9064,0.013739
85.274,60.9151,0.013739
85.305,60.9245,0.013739
85.336,60.9346,0.013739
85.370,60.9466,0.013739
85.398,60.9569,0.013739
85.428,60.9687,0.013739
85.459,60.9815,0.013429
85.492,60.9966,0.013429
85.522,61.0102,0.013429
85.554,61.0260,0.013429
85.583,61.0411,0.013429
85.614,61.0575,0.013429
85.646,61.0756,0.013429
85.677,61.0934,0.013429
85.708,61.1125,0.013118
85.738,61.1314,0.013118
85.770,61.1525,0.013118
85.802,61.1742,0.013118
85.831,61.1940,0.013118
85.862,61.2162,0.013118
85.893,61.2397,0.013118
85.929,61.2676,0.013118
85.970,61.3006,0.012648
86.001,61.3267,0.012648
86.034,61.3550,0.012648
86.062,61.3794,0.012648
86.094,61.4075,0.012648
86.124,61.4361,0.012648
86.156,61.4650,0.012648
86.188,61.4960,0.012036
86.219,61.5269,0.012036
86.250,61.5597,0.012036
86.281,61.5915,0.012036
86.311,61.6233,0.012036
86.342,61.6568,0.012036
86.373,61.6916,0.012036
86.405,61.7280,0.012036
86.436,61.7632,0.011142
86.466,61.7986,0.011142
86.498,61.8372,0.011142
86.529,61.8749,0.011142
86.559,61.9126,0.011142
86.590,61.9524,0.011142
86.620,61.9916,0.011142
86.656,62.0386,0.011142
86.682,62.0753,0.009937
86.714,62.1178,0.009937
86.745,62.1609,0.009937
86.775,62.2032,0.009937
86.805,62.2481,0.009937
86.837,62.2930,0.009937
86.868,62.3389,0.009937
86.899,62.3863,0.009937
86.930,62.4329,0.009937
86.961,62.4794,0.008366
86.992,62.5253,0.008366
87.023,62.5724,0.008366
87.054,62.6188,0.008366
87.085,62.6652,0.008366
87.116,62.7113,0.008366
87.147,62.7587,0.008366
87.178,62.8051,0.008366
87.210,62.8528,0.006296
87.242,62.9011,0.006296
87.271,62.9441,0.006296
87.302,62.9901,0.006296
87.334,63.0380,0.006296
87.365,63.0850,0.006296
87.396,63.1304,0.006296
87.427,63.1779,0.006296
87.458,63.2240,0.003576
87.489,63.2702,0.003576
87.519,63.3173,0.003576
87.551,63.3627,0.003576
87.581,63.4090,0.003576
87.613,63.4565,0.003576
87.643,63.5021,0.003576
87.674,63.5480,0.003576
87.706,63.5956,-0.000329
87.737,63.6429,-0.000329
87.768,63.6891,-0.000329
87.799,63.7363,-0.000329
87.829,63.7815,-0.000329
87.860,63.8279,-0.000329
87.891,63.8731,-0.000329
87.921,63.9187,-0.000329
87.952,63.9653,-0.006446
87.983,64.0138,-0.006446
88.015,64.0606,-0.006446
88.045,64.1052,-0.006446
88.077,64.1524,-0.006446
88.107,64.1986,-0.006446
88.138,64.2456,-0.006446
88.169,64.2910,-0.006446
88.200,64.3380,-0.016581
88.231,64.3835,-0.016581
88.262,64.4315,-0.016581
88.294,64.4763,-0.016581
88.324,64.5206,-0.016581
88.356,64.5641,-0.016581
88.386,64.6078,-0.016581
88.417,64.6490,-0.016581
88.448,64.6900,-0.033181
88.479,64.7307,-0.033181
88.510,64.7714,-0.033181
88.542,64.8119,-0.033181
88.572,64.8499,-0.033181
88.604,64.8879,-0.033181
88.635,64.9255,-0.033181
88.665,64.9616,-0.033181
88.696,64.9968,-0.057808
88.727,65.0323,-0.057808
88.758,65.0660,-0.057808
88.789,65.0998,-0.057808
88.819,65.1319,-0.057808
88.852,65.1654,-0.057808
88.883,65.1973,-0.057808
88.913,65.2268,-0.057808
88.944,65.2573,-0.092448
88.974,65.2857,-0.092448
89.005,65.3138,-0.092448
89.036,65.3416,-0.092448
89.068,65.3697,-0.092448
89.099,65.3964,-0.092448
89.130,65.4214,-0.092448
89.161,65.4462,-0.092448
89.192,65.4706,-0.092448
89.223,65.4939,-0.142737
89.253,65.5161,-0.142737
89.285,65.5387,-0.142737
89.316,65.5600,-0.142737
89.347,65.5804,-0.142737
89.378,65.6003,-0.142737
89.410,65.6196,-0.142737
89.441,65.6385,-0.142737
89.472,65.6559,-0.235965
89.503,65.6725,-0.235965
89.534,65.6886,-0.235965
89.565,65.7041,-0.235965
89.596,65.7187,-0.235965
89.628,65.7332,-0.235965
89.659,65.7461,-0.235965
89.690,65.7587,-0.235965
89.722,65.7707,-0.397909
89.752,65.7817,-0.397909
89.784,65.7924,-0.397909
89.816,65.8018,-0.397909
89.846,65.8104,-0.397909
89.877,65.8185,-0.397909
89.909,65.8259,-0.397909
89.940,65.8326,-0.397909
89.971,65.8385,-0.624614
90.002,65.8437,-0.624614
90.033,65.8480,-0.624614
90.067,65.8520,-0.624614
90.096,65.8547,-0.624614
90.127,65.8571,-0.624614
90.159,65.8584,-0.624614
90.190,65.8592,-0.624614
90.221,65.8593,-0.624614
90.250,65.8593,-0.817461
90.283,65.8593,-0.817461
90.316,65.8593,-0.817461
90.343,65.8593,-0.817461
