Elapsed Time (s),Position (mm),Force (N)
-0.018,62.9094,-1.144915
0.014,62.9094,-1.144915
0.045,62.9094,-1.144915
0.076,62.9094,-0.980854
0.107,62.9094,-0.980854
0.138,62.9094,-0.980854
0.169,62.9094,-0.980854
0.199,62.9094,-0.980854
0.230,62.9094,-0.980854
0.261,62.9094,-0.980854
0.292,62.9094,-0.980854
0.323,62.9094,-0.980854
0.354,62.9094,-0.700970
0.385,62.9094,-0.700970
0.417,62.9094,-0.700970
0.447,62.9094,-0.700970
0.478,62.9094,-0.700970
0.509,62.9094,-0.700970
0.541,62.9094,-0.700970
0.571,62.9094,-0.557245
0.603,62.9094,-0.557245
0.634,62.9094,-0.557245
0.662,62.9094,-0.557245
0.695,62.9094,-0.557245
0.726,62.9094,-0.557245
0.758,62.9094,-0.557245
0.789,62.9094,-0.557245
0.820,62.9094,-0.557245
0.851,62.9094,-0.557245
0.883,62.9094,-0.478481
0.914,62.9094,-0.478481
0.944,62.9094,-0.478481
0.975,62.9094,-0.478481
1.006,62.9094,-0.478481
1.037,62.9094,-0.478481
1.068,62.9094,-0.478481
1.103,62.9094,-0.478481
1.130,62.9094,-0.429227
1.161,62.9094,-0.429227
1.192,62.9094,-0.429227
1.224,62.9094,-0.429227
1.255,62.9094,-0.429227
1.285,62.9094,-0.429227
1.316,62.9094,-0.429227
1.347,62.9094,-0.395970
1.377,62.9094,-0.395970
1.408,62.9094,-0.395970
1.442,62.9094,-0.395970
1.470,62.9094,-0.395970
1.501,62.9094,-0.395970
1.532,62.9094,-0.395970
1.563,62.9094,-0.395970
1.594,62.9094,-0.372284
1.631,62.9094,-0.372284
1.672,62.9094,-0.372284
1.704,62.9094,-0.372284
1.734,62.9094,-0.372284
1.765,62.9094,-0.372284
1.796,62.9094,-0.372284
1.828,62.9094,-0.372284
1.858,62.9094,-0.354762
1.889,62.9094,-0.354762
1.921,62.9094,-0.354762
1.951,62.9094,-0.354762
1.982,62.9094,-0.354762
2.014,62.9094,-0.354762
2.045,62.9094,-0.354762
2.075,62.9094,-0.341343
2.105,62.9094,-0.341343
2.137,62.9094,-0.341343
2.168,62.9094,-0.341343
2.199,62.9094,-0.341343
2.229,62.9094,-0.341343
2.262,62.9094,-0.341343
2.293,62.9094,-0.341343
2.324,62.9094,-0.341343
2.355,62.9094,-0.341343
2.386,62.9094,-0.330803
2.417,62.9094,-0.330803
2.448,62.9094,-0.330803
2.479,62.9094,-0.330803
2.510,62.9094,-0.330803
2.542,62.9094,-0.330803
2.573,62.9094,-0.330803
2.604,62.9094,-0.322334
2.635,62.9094,-0.322334
2.666,62.9094,-0.322334
2.697,62.9094,-0.322334
2.728,62.9094,-0.322334
2.760,62.9094,-0.322334
2.791,62.9094,-0.322334
2.821,62.9094,-0.322334
2.852,62.9094,-0.322334
2.882,62.9094,-0.315323
2.914,62.9094,-0.315323
2.946,62.9094,-0.315323
2.976,62.9094,-0.315323
3.007,62.9094,-0.315323
3.038,62.9094,-0.315323
3.070,62.9094,-0.315323
3.100,62.9094,-0.309395
3.131,62.9094,-0.309395
3.162,62.9094,-0.309395
3.193,62.9094,-0.309395
3.223,62.9094,-0.309395
3.254,62.9094,-0.309395
3.285,62.9094,-0.309395
3.316,62.9094,-0.309395
3.348,62.9094,-0.309395
3.379,62.9094,-0.304322
3.410,62.9094,-0.304322
3.441,62.9094,-0.304322
3.471,62.9094,-0.304322
3.502,62.9094,-0.304322
3.534,62.9094,-0.304322
3.565,62.9094,-0.304322
3.596,62.9094,-0.299448
3.628,62.9094,-0.299448
3.658,62.9094,-0.299448
3.689,62.9094,-0.299448
3.720,62.9094,-0.299448
3.751,62.9094,-0.299448
3.782,62.9094,-0.299448
3.813,62.9094,-0.299448
3.844,62.9094,-0.293971
3.876,62.9094,-0.293971
3.907,62.9094,-0.293971
3.938,62.9094,-0.293971
3.968,62.9094,-0.293971
3.999,62.9094,-0.293971
4.031,62.9094,-0.293971
4.061,62.9094,-0.293971
4.093,62.9088,-0.288014
4.123,62.9074,-0.288014
4.153,62.9054,-0.288014
4.185,62.9026,-0.288014
4.216,62.8991,-0.288014
4.247,62.8949,-0.288014
4.279,62.8897,-0.288014
4.310,62.8841,-0.288014
4.341,62.8777,-0.203302
4.373,62.8702,-0.203302
4.404,62.8623,-0.203302
4.435,62.8536,-0.203302
4.466,62.8444,-0.203302
4.497,62.8341,-0.203302
4.529,62.8230,-0.203302
4.559,62.8118,-0.203302
4.589,62.7999,0.608090
4.620,62.7869,0.608090
4.651,62.7733,0.608090
4.682,62.7587,0.608090
4.713,62.7440,0.608090
4.744,62.7276,0.608090
4.774,62.7116,0.608090
4.805,62.6942,0.608090
4.836,62.6756,0.681575
4.867,62.6568,0.681575
4.898,62.6373,0.681575
4.924,62.6212,0.681575
4.960,62.5960,0.681575
4.992,62.5742,0.681575
5.023,62.5515,0.681575
5.054,62.5288,0.681575
5.084,62.5056,0.032240
5.115,62.4809,0.032240
5.146,62.4556,0.032240
5.178,62.4286,0.032240
5.209,62.4023,0.032240
5.241,62.3730,0.032240
5.270,62.3466,0.032240
5.301,62.3179,0.032240
5.333,62.2873,0.052821
5.364,62.2562,0.052821
5.396,62.2248,0.052821
5.427,62.1929,0.052821
5.458,62.1607,0.052821
5.488,62.1272,0.052821
5.520,62.0921,0.052821
5.551,62.0576,0.052821
5.582,62.0229,0.076111
5.613,61.9858,0.076111
5.644,61.9485,0.076111
5.675,61.9108,0.076111
5.706,61.8727,0.076111
5.742,61.8273,0.076111
5.768,61.7931,0.076111
5.799,61.7529,0.076111
5.830,61.7111,0.076111
5.860,61.6703,0.088966
5.892,61.6261,0.088966
5.923,61.5828,0.088966
5.953,61.5401,0.088966
5.984,61.4948,0.088966
6.015,61.4490,0.088966
6.047,61.4016,0.088966
6.077,61.3550,0.088966
6.108,61.3100,0.088966
6.139,61.2630,0.092335
6.170,61.2171,0.092335
6.201,61.1698,0.092335
6.231,61.1247,0.092335
6.263,61.0773,0.092335
6.292,61.0342,0.092335
6.325,60.9842,0.092335
6.354,60.9411,0.091620
6.384,60.8961,0.091620
6.416,60.8486,0.091620
6.446,60.8025,0.091620
6.477,60.7555,0.091620
6.509,60.7084,0.091620
6.540,60.6612,0.091620
6.571,60.6155,0.091620
6.602,60.5690,0.092419
6.633,60.5218,0.092419
6.664,60.4757,0.092419
6.695,60.4293,0.092419
6.726,60.3843,0.092419
6.756,60.3381,0.092419
6.787,60.2919,0.092419
6.818,60.2445,0.092419
6.850,60.1978,0.097482
6.880,60.1512,0.097482
6.911,60.1060,0.097482
6.943,60.0570,0.097482
6.973,60.0127,0.097482
7.004,59.9652,0.097482
7.035,59.9196,0.097482
7.067,59.8702,0.097482
7.098,59.8257,0.097482
7.129,59.7790,0.108982
7.159,59.7324,0.108982
7.191,59.6859,0.108982
7.221,59.6406,0.108982
7.252,59.5941,0.108982
7.283,59.5479,0.108982
7.314,59.5011,0.108982
7.345,59.4549,0.127991
7.376,59.4075,0.127991
7.408,59.3608,0.127991
7.439,59.3128,0.127991
7.471,59.2675,0.127991
7.501,59.2224,0.127991
7.531,59.1801,0.127991
7.562,59.1361,0.127991
7.593,59.0949,0.142229
7.623,59.0525,0.142229
7.654,59.0120,0.142229
7.686,58.9695,0.142229
7.717,58.9306,0.142229
7.748,58.8913,0.142229
7.779,58.8523,0.142229
7.810,58.8154,0.142229
7.841,58.7789,0.095610
7.873,58.7411,0.095610
7.904,58.7061,0.095610
7.934,58.6720,0.095610
7.965,58.6387,0.095610
7.996,58.6049,0.095610
8.027,58.5718,0.095610
8.058,58.5406,0.095610
8.089,58.5095,0.034536
8.119,58.4789,0.034536
8.150,58.4504,0.034536
8.184,58.4169,0.034536
8.212,58.3932,0.034536
8.243,58.3654,0.034536
8.273,58.3393,0.034536
8.305,58.3126,0.034536
8.335,58.2884,0.034536
8.366,58.2635,0.022274
8.397,58.2397,0.022274
8.428,58.2162,0.022274
8.459,58.1942,0.022274
8.489,58.1724,0.022274
8.521,58.1517,0.022274
8.554,58.1295,0.022274
8.583,58.1112,0.020533
8.615,58.0920,0.020533
8.645,58.0743,0.020533
8.677,58.0566,0.020533
8.708,58.0404,0.020533
8.738,58.0242,0.020533
8.769,58.0097,0.020533
8.800,57.9953,0.020533
8.831,57.9813,0.020533
8.863,57.9683,0.020533
8.893,57.9562,0.019621
8.925,57.9446,0.019621
8.955,57.9337,0.019621
8.987,57.9239,0.019621
9.018,57.9142,0.019621
9.050,57.9056,0.019621
9.084,57.8970,0.019621
9.112,57.8905,0.019084
9.143,57.8841,0.019084
9.174,57.8784,0.019084
9.204,57.8737,0.019084
9.235,57.8695,0.019084
9.266,57.8660,0.019084
9.297,57.8633,0.019084
9.329,57.8612,0.019084
9.359,57.8599,0.018567
9.390,57.8593,0.018567
9.421,57.8593,0.018567
9.452,57.8593,0.018567
9.482,57.8593,0.018567
9.513,57.8593,0.018567
9.544,57.8593,0.018567
9.575,57.8598,0.018567
9.606,57.8609,0.018303
9.637,57.8628,0.018303
9.668,57.8654,0.018303
9.699,57.8688,0.018303
9.730,57.8729,0.018303
9.761,57.8776,0.018303
9.793,57.8832,0.018303
9.823,57.8896,0.018303
9.854,57.8964,0.018040
9.884,57.9041,0.018040
9.915,57.9125,0.018040
9.946,57.9214,0.018040
9.976,57.9313,0.018040
10.008,57.9420,0.018040
10.039,57.9533,0.018040
10.070,57.9655,0.018040
10.101,57.9782,0.017710
10.132,57.9919,0.017710
10.164,58.0061,0.017710
10.195,58.0215,0.017710
10.226,58.0370,0.017710
10.257,58.0538,0.017710
10.288,58.0706,0.017710
10.319,58.0885,0.017710
10.350,58.1071,0.017428
10.381,58.1267,0.017428
10.413,58.1469,0.017428
10.444,58.1679,0.017428
10.475,58.1897,0.017428
10.511,58.2151,0.017428
10.551,58.2455,0.017428
10.582,58.2697,0.017428
10.614,58.2947,0.016920
10.645,58.3210,0.016920
10.676,58.3467,0.016920
10.707,58.3739,0.016920
10.738,58.4014,0.016920
10.769,58.4309,0.016920
10.801,58.4602,0.016920
10.831,58.4901,0.016920
10.862,58.5202,0.016186
10.893,58.5516,0.016186
10.924,58.5846,0.016186
10.955,58.6166,0.016186
10.989,58.6549,0.016186
11.018,58.6852,0.016186
11.049,58.7205,0.016186
11.080,58.7559,0.016186
11.111,58.7928,0.015019
11.141,58.8280,0.015019
11.171,58.8662,0.015019
11.202,58.9033,0.015019
11.232,58.9430,0.015019
11.264,58.9827,0.015019
11.295,59.0247,0.015019
11.326,59.0654,0.015019
11.356,59.1073,0.013278
11.387,59.1491,0.013278
11.417,59.1919,0.013278
11.448,59.2361,0.013278
11.479,59.2826,0.013278
11.510,59.3267,0.013278
11.542,59.3755,0.013278
11.572,59.4210,0.013278
11.603,59.4671,0.010850
11.633,59.5119,0.010850
11.665,59.5595,0.010850
11.695,59.6058,0.010850
11.727,59.6525,0.010850
11.757,59.6969,0.010850
11.788,59.7446,0.010850
11.819,59.7897,0.010850
11.850,59.8382,0.010850
11.880,59.8826,0.010850
11.911,59.9315,0.007848
11.941,59.9740,0.007848
11.973,60.0208,0.007848
12.004,60.0673,0.007848
12.036,60.1165,0.007848
12.067,60.1639,0.007848
12.098,60.2089,0.007848
12.130,60.2562,0.003896
12.161,60.3044,0.003896
12.192,60.3491,0.003896
12.223,60.3962,0.003896
12.253,60.4421,0.003896
12.284,60.4877,0.003896
12.316,60.5351,0.003896
12.347,60.5825,0.003896
12.378,60.6289,-0.002080
12.409,60.6760,-0.002080
12.440,60.7219,-0.002080
12.471,60.7683,-0.002080
12.501,60.8141,-0.002080
12.532,60.8614,-0.002080
12.563,60.9068,-0.002080
12.595,60.9542,-0.011170
12.626,61.0017,-0.011170
12.657,61.0471,-0.011170
12.688,61.0942,-0.011170
12.719,61.1401,-0.011170
12.749,61.1871,-0.011170
12.781,61.2331,-0.011170
12.812,61.2812,-0.011170
12.843,61.3271,-0.025389
12.875,61.3744,-0.025389
12.905,61.4186,-0.025389
12.936,61.4659,-0.025389
12.967,61.5093,-0.025389
12.999,61.5551,-0.025389
13.029,61.5961,-0.025389
13.060,61.6394,-0.025389
13.091,61.6802,-0.047946
13.121,61.7209,-0.047946
13.153,61.7624,-0.047946
13.183,61.8014,-0.047946
13.214,61.8387,-0.047946
13.245,61.8772,-0.047946
13.276,61.9142,-0.047946
13.307,61.9517,-0.047946
13.338,61.9877,-0.047946
13.372,62.0260,-0.081042
13.401,62.0582,-0.081042
13.431,62.0911,-0.081042
13.462,62.1237,-0.081042
13.492,62.1556,-0.081042
13.524,62.1881,-0.081042
13.558,62.2217,-0.081042
13.585,62.2484,-0.081042
13.620,62.2813,-0.127351
13.648,62.3078,-0.127351
13.680,62.3360,-0.127351
13.711,62.3641,-0.127351
13.743,62.3906,-0.127351
13.774,62.4165,-0.127351
13.805,62.4415,-0.127351
13.836,62.4661,-0.127351
13.867,62.4891,-0.201072
13.898,62.5125,-0.201072
13.930,62.5346,-0.201072
13.959,62.5553,-0.201072
13.990,62.5759,-0.201072
14.021,62.5954,-0.201072
14.052,62.6150,-0.201072
14.084,62.6336,-0.341983
14.114,62.6508,-0.341983
14.144,62.6679,-0.341983
14.175,62.6843,-0.341983
14.206,62.7000,-0.341983
14.237,62.7144,-0.341983
14.269,62.7288,-0.341983
14.299,62.7420,-0.341983
14.330,62.7550,-0.341983
14.362,62.7669,-0.567578
14.393,62.7782,-0.567578
14.425,62.7890,-0.567578
14.455,62.7985,-0.567578
14.487,62.8078,-0.567578
14.516,62.8159,-0.567578
14.548,62.8235,-0.567578
14.578,62.8301,-0.875542
14.609,62.8362,-0.875542
14.639,62.8416,-0.875542
14.670,62.8464,-0.875542
14.701,62.8502,-0.875542
14.734,62.8537,-0.875542
14.763,62.8559,-0.875542
14.793,62.8578,-0.875542
14.826,62.8590,-0.875542
14.855,62.8593,-0.875542
14.885,62.8593,-1.130272
14.917,62.8593,-1.130272
14.947,62.8593,-1.130272
14.978,62.8593,-1.130272
15.009,62.8593,-1.130272
15.040,62.8593,-1.130272
15.070,62.8593,-1.130272
15.100,62.8593,-1.130272
15.131,62.8593,-1.032846
15.162,62.8593,-1.032846
15.192,62.8593,-1.032846
15.224,62.8593,-1.032846
15.255,62.8593,-1.032846
15.285,62.8593,-1.032846
15.316,62.8593,-1.032846
15.347,62.8593,-0.744418
15.379,62.8593,-0.744418
15.409,62.8593,-0.744418
15.440,62.8593,-0.744418
15.471,62.8593,-0.744418
15.502,62.8593,-0.744418
15.533,62.8593,-0.744418
15.564,62.8593,-0.744418
15.595,62.8593,-0.576386
15.626,62.8593,-0.576386
15.659,62.8593,-0.576386
15.689,62.8593,-0.576386
15.720,62.8593,-0.576386
15.750,62.8593,-0.576386
15.781,62.8593,-0.576386
15.812,62.8593,-0.576386
15.843,62.8593,-0.576386
15.873,62.8593,-0.488738
15.903,62.8593,-0.488738
15.934,62.8593,-0.488738
15.965,62.8593,-0.488738
15.997,62.8593,-0.488738
16.026,62.8593,-0.488738
16.058,62.8593,-0.488738
16.089,62.8593,-0.488738
16.119,62.8593,-0.435221
16.149,62.8593,-0.435221
16.180,62.8593,-0.435221
16.212,62.8593,-0.435221
16.243,62.8593,-0.435221
16.274,62.8593,-0.435221
16.305,62.8593,-0.435221
16.336,62.8593,-0.435221
16.370,62.8593,-0.399706
16.398,62.8593,-0.399706
16.430,62.8593,-0.399706
16.461,62.8593,-0.399706
16.492,62.8593,-0.399706
16.523,62.8593,-0.399706
16.554,62.8593,-0.399706
16.585,62.8593,-0.374759
16.619,62.8593,-0.374759
16.647,62.8593,-0.374759
16.680,62.8593,-0.374759
16.709,62.8593,-0.374759
16.740,62.8593,-0.374759
16.772,62.8593,-0.374759
16.803,62.8593,-0.374759
16.833,62.8593,-0.356475
16.864,62.8593,-0.356475
16.895,62.8593,-0.356475
16.926,62.8593,-0.356475
16.957,62.8593,-0.356475
16.988,62.8593,-0.356475
17.019,62.8593,-0.356475
17.049,62.8593,-0.356475
17.080,62.8593,-0.356475
17.110,62.8593,-0.342566
17.141,62.8593,-0.342566
17.173,62.8593,-0.342566
17.204,62.8593,-0.342566
17.235,62.8593,-0.342566
17.266,62.8593,-0.342566
17.297,62.8593,-0.342566
17.328,62.8593,-0.331603
17.359,62.8593,-0.331603
17.391,62.8593,-0.331603
17.421,62.8593,-0.331603
17.452,62.8593,-0.331603
17.483,62.8593,-0.331603
17.514,62.8593,-0.331603
17.545,62.8593,-0.331603
17.576,62.8593,-0.331603
17.607,62.8593,-0.322786
17.638,62.8593,-0.322786
17.669,62.8593,-0.322786
17.700,62.8593,-0.322786
17.730,62.8593,-0.322786
17.761,62.8593,-0.322786
17.792,62.8593,-0.322786
17.823,62.8593,-0.322786
17.856,62.8593,-0.315653
17.883,62.8593,-0.315653
17.914,62.8593,-0.315653
17.945,62.8593,-0.315653
17.981,62.8593,-0.315653
18.007,62.8593,-0.315653
18.038,62.8593,-0.315653
18.070,62.8593,-0.315653
18.101,62.8593,-0.315653
18.131,62.8593,-0.315653
18.162,62.8593,-0.309639
18.193,62.8593,-0.309639
18.224,62.8593,-0.309639
18.255,62.8593,-0.309639
18.286,62.8593,-0.309639
18.317,62.8593,-0.309639
18.348,62.8593,-0.309639
18.379,62.8593,-0.304492
18.413,62.8593,-0.304492
18.441,62.8593,-0.304492
18.472,62.8593,-0.304492
18.503,62.8593,-0.304492
18.539,62.8593,-0.304492
18.566,62.8593,-0.304492
18.597,62.8593,-0.304492
18.627,62.8593,-0.299777
18.663,62.8593,-0.299777
18.689,62.8593,-0.299777
18.719,62.8593,-0.299777
18.751,62.8593,-0.299777
18.781,62.8593,-0.299777
18.812,62.8593,-0.299777
18.843,62.8593,-0.299777
18.874,62.8593,-0.294583
18.905,62.8593,-0.294583
18.935,62.8593,-0.294583
18.967,62.8593,-0.294583
18.997,62.8593,-0.294583
19.028,62.8593,-0.294583
19.059,62.8593,-0.294583
19.089,62.8593,-0.294583
19.120,62.8593,-0.288889
19.151,62.8590,-0.288889
19.182,62.8581,-0.288889
19.214,62.8563,-0.288889
19.245,62.8540,-0.288889
19.276,62.8506,-0.288889
19.307,62.8469,-0.288889
19.338,62.8421,-0.288889
19.369,62.8368,-0.275498
19.401,62.8306,-0.275498
19.431,62.8239,-0.275498
19.463,62.8160,-0.275498
19.493,62.8081,-0.275498
19.526,62.7986,-0.275498
19.556,62.7891,-0.275498
19.587,62.7783,-0.275498
19.616,62.7680,0.474876
19.655,62.7530,0.474876
19.696,62.7361,0.474876
19.726,62.7225,0.474876
19.756,62.7086,0.474876
19.788,62.6931,0.474876
19.821,62.6762,0.474876
19.851,62.6601,0.625762
19.881,62.6427,0.625762
19.913,62.6246,0.625762
19.943,62.6059,0.625762
19.975,62.5862,0.625762
20.006,62.5657,0.625762
20.037,62.5446,0.625762
20.068,62.5231,0.625762
20.098,62.5011,0.625762
20.130,62.4776,0.034414
20.159,62.4549,0.034414
20.190,62.4304,0.034414
20.221,62.4046,0.034414
20.254,62.3765,0.034414
20.282,62.3530,0.034414
20.314,62.3250,0.034414
20.344,62.2968,0.034414
20.376,62.2670,0.045499
20.407,62.2382,0.045499
20.438,62.2063,0.045499
20.469,62.1762,0.045499
20.502,62.1423,0.045499
20.531,62.1112,0.045499
20.563,62.0772,0.045499
20.593,62.0438,0.070286
20.628,62.0044,0.070286
20.656,61.9728,0.070286
20.687,61.9358,0.070286
20.718,61.8995,0.070286
20.749,61.8615,0.070286
20.780,61.8226,0.070286
20.811,61.7840,0.070286
20.842,61.7438,0.086726
20.874,61.7017,0.086726
20.905,61.6612,0.086726
20.935,61.6189,0.086726
20.966,61.5755,0.086726
20.998,61.5319,0.086726
21.029,61.4869,0.086726
21.059,61.4441,0.086726
21.091,61.3964,0.092645
21.122,61.3514,0.092645
21.152,61.3038,0.092645
21.184,61.2573,0.092645
21.215,61.2107,0.092645
21.246,61.1641,0.092645
21.277,61.1187,0.092645
21.309,61.0706,0.092645
21.338,61.0264,0.092664
21.369,60.9786,0.092664
21.400,60.9338,0.092664
21.431,60.8867,0.092664
21.462,60.8402,0.092664
21.494,60.7929,0.092664
21.525,60.7448,0.092664
21.557,60.6977,0.092664
21.588,60.6514,0.092721
21.618,60.6059,0.092721
21.650,60.5593,0.092721
21.681,60.5113,0.092721
21.711,60.4664,0.092721
21.742,60.4193,0.092721
21.774,60.3732,0.092721
21.804,60.3269,0.092721
21.834,60.2827,0.092721
21.865,60.2353,0.092721
21.896,60.1899,0.096240
21.927,60.1418,0.096240
21.958,60.0962,0.096240
21.987,60.0526,0.096240
22.019,60.0048,0.096240
22.051,59.9570,0.096240
22.083,59.9082,0.096240
22.114,59.8621,0.105378
22.146,59.8148,0.105378
22.178,59.7668,0.105378
22.208,59.7209,0.105378
22.239,59.6740,0.105378
22.270,59.6280,0.105378
22.302,59.5801,0.105378
22.333,59.5342,0.105378
22.363,59.4895,0.105378
22.394,59.4427,0.122646
22.425,59.3957,0.122646
22.456,59.3488,0.122646
22.488,59.3016,0.122646
22.519,59.2544,0.122646
22.550,59.2089,0.122646
22.581,59.1636,0.122646
22.612,59.1206,0.140892
22.643,59.0773,0.140892
22.674,59.0354,0.140892
22.705,58.9930,0.140892
22.736,58.9527,0.140892
22.766,58.9129,0.140892
22.797,58.8732,0.140892
22.827,58.8354,0.140892
22.857,58.7978,0.123812
22.888,58.7602,0.123812
22.919,58.7240,0.123812
22.950,58.6886,0.123812
22.980,58.6537,0.123812
23.012,58.6173,0.123812
23.043,58.5837,0.123812
23.074,58.5500,0.123812
23.105,58.5179,0.062259
23.141,58.4809,0.062259
23.182,58.4402,0.062259
23.213,58.4111,0.062259
23.244,58.3811,0.062259
23.276,58.3528,0.062259
23.307,58.3247,0.062259
23.337,58.2981,0.062259
23.371,58.2691,0.023451
23.402,58.2439,0.023451
23.432,58.2202,0.023451
23.462,58.1965,0.023451
23.493,58.1729,0.023451
23.525,58.1499,0.023451
23.556,58.1278,0.023451
23.586,58.1073,0.020976
23.617,58.0871,0.020976
23.647,58.0680,0.020976
23.678,58.0485,0.020976
23.710,58.0297,0.020976
23.743,58.0116,0.020976
23.773,57.9948,0.020976
23.805,57.9784,0.020976
23.835,57.9638,0.020976
23.867,57.9482,0.019912
23.898,57.9346,0.019912
23.931,57.9204,0.019912
23.960,57.9089,0.019912
23.991,57.8974,0.019912
24.025,57.8855,0.019912
24.054,57.8760,0.019912
24.084,57.8669,0.019912
24.115,57.8579,0.019244
24.146,57.8499,0.019244
24.176,57.8428,0.019244
24.207,57.8361,0.019244
24.239,57.8300,0.019244
24.270,57.8249,0.019244
24.301,57.8206,0.019244
24.331,57.8169,0.018793
24.363,57.8140,0.018793
24.393,57.8118,0.018793
24.424,57.8103,0.018793
24.455,57.8094,0.018793
24.486,57.8093,0.018793
24.517,57.8093,0.018793
24.548,57.8093,0.018793
24.580,57.8093,0.018793
24.609,57.8099,0.018793
24.641,57.8112,0.018454
24.672,57.8132,0.018454
24.705,57.8161,0.018454
24.733,57.8192,0.018454
24.764,57.8234,0.018454
24.795,57.8284,0.018454
24.827,57.8341,0.018454
24.858,57.8404,0.018153
24.888,57.8474,0.018153
24.920,57.8554,0.018153
24.951,57.8639,0.018153
24.981,57.8731,0.018153
25.012,57.8832,0.018153
25.043,57.8935,0.018153
25.075,57.9054,0.018153
25.105,57.9172,0.017908
25.136,57.9305,0.017908
25.167,57.9436,0.017908
25.198,57.9583,0.017908
25.228,57.9728,0.017908
25.260,57.9890,0.017908
25.291,58.0053,0.017908
25.321,58.0228,0.017908
25.352,58.0402,0.017550
25.384,58.0595,0.017550
25.415,58.0787,0.017550
25.447,58.0998,0.017550
25.478,58.1204,0.017550
25.509,58.1437,0.017550
25.539,58.1640,0.017550
25.570,58.1866,0.017550
25.601,58.2110,0.017033
25.637,58.2400,0.017033
25.663,58.2612,0.017033
25.694,58.2873,0.017033
25.725,58.3137,0.017033
25.756,58.3410,0.017033
25.787,58.3690,0.017033
25.818,58.3978,0.017033
25.849,58.4277,0.016346
25.881,58.4584,0.016346
25.911,58.4893,0.016346
25.943,58.5213,0.016346
25.974,58.5538,0.016346
26.005,58.5876,0.016346
26.036,58.6212,0.016346
26.066,58.6550,0.016346
26.097,58.6906,0.015235
26.128,58.7277,0.015235
26.160,58.7649,0.015235
26.191,58.8032,0.015235
26.223,58.8421,0.015235
26.254,58.8825,0.015235
26.286,58.9219,0.015235
26.318,58.9640,0.015235
26.348,59.0049,0.013551
26.379,59.0472,0.013551
26.410,59.0908,0.013551
26.442,59.1340,0.013551
26.472,59.1784,0.013551
26.503,59.2226,0.013551
26.534,59.2689,0.013551
26.565,59.3156,0.013551
26.597,59.3637,0.011189
26.628,59.4090,0.011189
26.659,59.4566,0.011189
26.691,59.5038,0.011189
26.721,59.5489,0.011189
26.753,59.5955,0.011189
26.784,59.6421,0.011189
26.815,59.6896,0.011189
26.845,59.7335,0.008243
26.875,59.7803,0.008243
26.907,59.8275,0.008243
26.937,59.8728,0.008243
26.968,59.9187,0.008243
27.002,59.9697,0.008243
27.030,60.0121,0.008243
27.061,60.0576,0.008243
27.092,60.1055,0.004461
27.124,60.1520,0.004461
27.154,60.1981,0.004461
27.185,60.2443,0.004461
27.215,60.2905,0.004461
27.247,60.3365,0.004461
27.278,60.3842,0.004461
27.310,60.4312,0.004461
27.340,60.4778,0.004461
27.372,60.5253,-0.001214
27.403,60.5714,-0.001214
27.435,60.6188,-0.001214
27.467,60.6672,-0.001214
27.497,60.7129,-0.001214
27.528,60.7601,-0.001214
27.559,60.8052,-0.001214
27.590,60.8511,-0.001214
27.621,60.8989,-0.009853
27.654,60.9482,-0.009853
27.684,60.9932,-0.009853
27.714,61.0379,-0.009853
27.745,61.0843,-0.009853
27.776,61.1315,-0.009853
27.810,61.1826,-0.009853
27.838,61.2248,-0.009853
27.869,61.2706,-0.023394
27.901,61.3183,-0.023394
27.932,61.3648,-0.023394
27.963,61.4093,-0.023394
27.994,61.4539,-0.023394
28.024,61.4973,-0.023394
28.058,61.5453,-0.023394
28.086,61.5840,-0.044850
28.120,61.6287,-0.044850
28.148,61.6663,-0.044850
28.184,61.7133,-0.044850
28.210,61.7463,-0.044850
28.240,61.7844,-0.044850
28.271,61.8227,-0.044850
28.303,61.8610,-0.044850
28.334,61.8980,-0.076478
28.364,61.9332,-0.076478
28.395,61.9684,-0.076478
28.427,62.0033,-0.076478
28.458,62.0374,-0.076478
28.489,62.0709,-0.076478
28.520,62.1029,-0.076478
28.551,62.1357,-0.076478
28.584,62.1676,-0.076478
28.613,62.1969,-0.120971
28.645,62.2274,-0.120971
28.676,62.2555,-0.120971
28.708,62.2838,-0.120971
28.737,62.3102,-0.120971
28.768,62.3362,-0.120971
28.799,62.3621,-0.120971
28.830,62.3874,-0.120971
28.860,62.4108,-0.189619
28.891,62.4344,-0.189619
28.921,62.4572,-0.189619
28.953,62.4795,-0.189619
28.984,62.5011,-0.189619
29.015,62.5226,-0.189619
29.045,62.5420,-0.189619
29.076,62.5610,-0.189619
29.107,62.5797,-0.319944
29.138,62.5979,-0.319944
29.169,62.6147,-0.319944
29.200,62.6311,-0.319944
29.230,62.6467,-0.319944
29.261,62.6616,-0.319944
29.292,62.6762,-0.319944
29.323,62.6893,-0.319944
29.354,62.7023,-0.535103
29.385,62.7146,-0.535103
29.417,62.7258,-0.535103
29.447,62.7364,-0.535103
29.477,62.7461,-0.535103
29.508,62.7554,-0.535103
29.539,62.7637,-0.535103
29.571,62.7719,-0.535103
29.601,62.7784,-0.834588
29.632,62.7850,-0.834588
29.663,62.7905,-0.834588
29.695,62.7957,-0.834588
29.725,62.7995,-0.834588
29.756,62.8030,-0.834588
29.787,62.8056,-0.834588
29.818,62.8076,-0.834588
29.849,62.8088,-1.116862
29.883,62.8093,-1.116862
29.910,62.8093,-1.116862
29.942,62.8093,-1.116862
29.973,62.8093,-1.116862
30.005,62.8093,-1.116862
30.037,62.8093,-1.116862
30.067,62.8093,-1.116862
30.099,62.8093,-1.063157
30.130,62.8093,-1.063157
30.161,62.8093,-1.063157
30.193,62.8093,-1.063157
30.223,62.8093,-1.063157
30.254,62.8093,-1.063157
30.288,62.8093,-1.063157
30.316,62.8093,-1.063157
30.350,62.8093,-0.774908
30.378,62.8093,-0.774908
30.409,62.8093,-0.774908
30.439,62.8093,-0.774908
30.470,62.8093,-0.774908
30.501,62.8093,-0.774908
30.533,62.8093,-0.774908
30.564,62.8093,-0.774908
30.595,62.8093,-0.591095
30.625,62.8093,-0.591095
30.656,62.8093,-0.591095
30.687,62.8093,-0.591095
30.718,62.8093,-0.591095
30.749,62.8093,-0.591095
30.780,62.8093,-0.591095
30.812,62.8093,-0.591095
30.843,62.8093,-0.497057
30.877,62.8093,-0.497057
30.905,62.8093,-0.497057
30.938,62.8093,-0.497057
30.967,62.8093,-0.497057
30.999,62.8093,-0.497057
31.029,62.8093,-0.497057
31.060,62.8093,-0.497057
31.090,62.8093,-0.440500
31.121,62.8093,-0.440500
31.152,62.8093,-0.440500
31.183,62.8093,-0.440500
31.214,62.8093,-0.440500
31.246,62.8093,-0.440500
31.276,62.8093,-0.440500
31.307,62.8093,-0.440500
31.339,62.8093,-0.403235
31.370,62.8093,-0.403235
31.400,62.8093,-0.403235
31.430,62.8093,-0.403235
31.461,62.8093,-0.403235
31.492,62.8093,-0.403235
31.523,62.8093,-0.403235
31.554,62.8093,-0.403235
31.587,62.8093,-0.403235
31.615,62.8093,-0.403235
31.646,62.8093,-0.377149
31.677,62.8093,-0.377149
31.708,62.8093,-0.377149
31.738,62.8093,-0.377149
31.770,62.8093,-0.377149
31.800,62.8093,-0.377149
31.831,62.8093,-0.377149
31.862,62.8093,-0.358150
31.894,62.8093,-0.358150
31.926,62.8093,-0.358150
31.957,62.8093,-0.358150
31.989,62.8093,-0.358150
32.020,62.8093,-0.358150
32.050,62.8093,-0.358150
32.084,62.8093,-0.358150
32.113,62.8093,-0.343808
32.144,62.8093,-0.343808
32.175,62.8093,-0.343808
32.206,62.8093,-0.343808
32.237,62.8093,-0.343808
32.268,62.8093,-0.343808
32.299,62.8093,-0.343808
32.330,62.8093,-0.343808
32.360,62.8093,-0.332478
32.392,62.8093,-0.332478
32.422,62.8093,-0.332478
32.453,62.8093,-0.332478
32.484,62.8093,-0.332478
32.519,62.8093,-0.332478
32.547,62.8093,-0.332478
32.579,62.8093,-0.332478
32.609,62.8093,-0.323435
32.641,62.8093,-0.323435
32.672,62.8093,-0.323435
32.704,62.8093,-0.323435
32.735,62.8093,-0.323435
32.767,62.8093,-0.323435
32.798,62.8093,-0.323435
32.829,62.8093,-0.323435
32.857,62.8093,-0.323435
32.891,62.8093,-0.316133
32.922,62.8093,-0.316133
32.953,62.8093,-0.316133
32.984,62.8093,-0.316133
33.015,62.8093,-0.316133
33.045,62.8093,-0.316133
33.076,62.8093,-0.316133
33.108,62.8093,-0.309978
33.139,62.8093,-0.309978
33.170,62.8093,-0.309978
33.202,62.8093,-0.309978
33.233,62.8093,-0.309978
33.267,62.8093,-0.309978
33.294,62.8093,-0.309978
33.332,62.8093,-0.309978
33.372,62.8093,-0.309978
33.403,62.8093,-0.304746
33.435,62.8093,-0.304746
33.466,62.8093,-0.304746
33.496,62.8093,-0.304746
33.528,62.8093,-0.304746
33.558,62.8093,-0.304746
33.589,62.8093,-0.304746
33.621,62.8093,-0.300238
33.651,62.8093,-0.300238
33.683,62.8093,-0.300238
33.714,62.8093,-0.300238
33.744,62.8093,-0.300238
33.775,62.8093,-0.300238
33.806,62.8093,-0.300238
33.842,62.8093,-0.300238
33.867,62.8093,-0.300238
33.900,62.8093,-0.295627
33.930,62.8093,-0.295627
33.961,62.8093,-0.295627
33.992,62.8093,-0.295627
34.023,62.8093,-0.295627
34.055,62.8093,-0.295627
34.086,62.8093,-0.295627
34.116,62.8093,-0.290348
34.150,62.8093,-0.290348
34.178,62.8093,-0.290348
34.210,62.8093,-0.290348
34.242,62.8093,-0.290348
34.273,62.8091,-0.290348
34.304,62.8081,-0.290348
34.335,62.8063,-0.290348
34.366,62.8039,-0.284796
34.398,62.8006,-0.284796
34.428,62.7967,-0.284796
34.460,62.7921,-0.284796
34.491,62.7865,-0.284796
34.523,62.7802,-0.284796
34.554,62.7735,-0.284796
34.585,62.7659,-0.284796
34.615,62.7576,-0.041763
34.646,62.7488,-0.041763
34.676,62.7392,-0.041763
34.707,62.7288,-0.041763
34.739,62.7173,-0.041763
34.770,62.7050,-0.041763
34.800,62.6931,-0.041763
34.832,62.6790,-0.041763
34.863,62.6650,0.332648
34.894,62.6501,0.332648
34.926,62.6343,0.332648
34.957,62.6182,0.332648
34.988,62.6010,0.332648
35.018,62.5837,0.332648
35.050,62.5644,0.332648
35.081,62.5454,0.245856
35.114,62.5236,0.245856
35.143,62.5047,0.245856
35.177,62.4808,0.245856
35.205,62.4609,0.245856
35.237,62.4375,0.245856
35.268,62.4139,0.245856
35.299,62.3895,0.245856
35.329,62.3656,0.245856
35.363,62.3363,0.035251
35.392,62.3125,0.035251
35.426,62.2818,0.035251
35.454,62.2569,0.035251
35.489,62.2238,0.035251
35.516,62.1984,0.035251
35.551,62.1649,0.035251
35.578,62.1380,0.035251
35.609,62.1062,0.058796
35.640,62.0729,0.058796
35.671,62.0410,0.058796
35.702,62.0063,0.058796
35.733,61.9713,0.058796
35.764,61.9372,0.058796
35.795,61.9008,0.058796
35.826,61.8643,0.080176
35.859,61.8242,0.080176
35.888,61.7886,0.080176
35.919,61.7489,0.080176
35.953,61.7061,0.080176
35.981,61.6684,0.080176
36.015,61.6241,0.080176
36.043,61.5863,0.080176
36.075,61.5437,0.080176
36.107,61.4984,0.090537
36.138,61.4546,0.090537
36.169,61.4095,0.090537
36.199,61.3656,0.090537
36.230,61.3203,0.090537
36.264,61.2682,0.090537
36.292,61.2262,0.090537
36.323,61.1794,0.090537
36.354,61.1343,0.092702
36.385,61.0868,0.092702
36.416,61.0407,0.092702
36.446,60.9944,0.092702
36.478,60.9483,0.092702
36.510,60.8998,0.092702
36.539,60.8548,0.092702
36.574,60.8031,0.092702
36.601,60.7621,0.092702
36.632,60.7158,0.092702
36.663,60.6695,0.092147
36.694,60.6241,0.092147
36.725,60.5770,0.092147
36.757,60.5298,0.092147
36.787,60.4836,0.092147
36.819,60.4356,0.092147
36.848,60.3921,0.092147
36.880,60.3448,0.093633
36.912,60.2967,0.093633
36.942,60.2516,0.093633
36.973,60.2054,0.093633
37.006,60.1552,0.093633
37.035,60.1124,0.093633
37.068,60.0627,0.093633
37.097,60.0190,0.093633
37.128,59.9730,0.099882
37.160,59.9244,0.099882
37.189,59.8811,0.099882
37.222,59.8308,0.099882
37.255,59.7819,0.099882
37.284,59.7389,0.099882
37.315,59.6926,0.099882
37.346,59.6454,0.113263
37.377,59.5986,0.113263
37.409,59.5507,0.113263
37.440,59.5047,0.113263
37.472,59.4562,0.113263
37.502,59.4106,0.113263
37.534,59.3633,0.113263
37.565,59.3172,0.113263
37.595,59.2706,0.113263
37.627,59.2239,0.132752
37.658,59.1773,0.132752
37.689,59.1325,0.132752
37.720,59.0881,0.132752
37.750,59.0462,0.132752
37.782,59.0017,0.132752
37.814,58.9593,0.132752
37.845,58.9167,0.141843
37.876,58.8772,0.141843
37.908,58.8346,0.141843
37.937,58.7983,0.141843
37.969,58.7591,0.141843
38.000,58.7215,0.141843
38.031,58.6843,0.141843
38.062,58.6477,0.141843
38.093,58.6129,0.086425
38.123,58.5776,0.086425
38.153,58.5445,0.086425
38.186,58.5102,0.086425
38.215,58.4782,0.086425
38.250,58.4432,0.086425
38.277,58.4163,0.086425
38.307,58.3858,0.086425
38.337,58.3575,0.086425
38.368,58.3286,0.027554
38.398,58.3012,0.027554
38.429,58.2735,0.027554
38.460,58.2456,0.027554
38.491,58.2198,0.027554
38.522,58.1935,0.027554
38.554,58.1685,0.027554
38.587,58.1437,0.027554
38.617,58.1209,0.021870
38.648,58.0980,0.021870
38.679,58.0761,0.021870
38.711,58.0548,0.021870
38.741,58.0345,0.021870
38.768,58.0175,0.021870
38.802,57.9970,0.021870
38.833,57.9785,0.021870
38.864,57.9609,0.020383
38.903,57.9399,0.020383
38.942,57.9201,0.020383
38.972,57.9056,0.020383
39.003,57.8914,0.020383
39.035,57.8776,0.020383
39.066,57.8651,0.020383
39.097,57.8530,0.020383
39.128,57.8418,0.019574
39.158,57.8313,0.019574
39.189,57.8213,0.019574
39.221,57.8122,0.019574
39.252,57.8037,0.019574
39.283,57.7959,0.019574
39.314,57.7890,0.019574
39.345,57.7828,0.018962
39.375,57.7776,0.018962
39.406,57.7727,0.018962
39.437,57.7688,0.018962
39.468,57.7654,0.018962
39.499,57.7627,0.018962
39.532,57.7608,0.018962
39.562,57.7597,0.018962
39.594,57.7593,0.018520
39.629,57.7593,0.018520
39.656,57.7593,0.018520
39.687,57.7593,0.018520
39.717,57.7593,0.018520
39.748,57.7598,0.018520
39.780,57.7612,0.018520
39.811,57.7632,0.018520
39.843,57.7659,0.018520
39.874,57.7694,0.018341
39.905,57.7736,0.018341
39.935,57.7784,0.018341
39.967,57.7843,0.018341
40.001,57.7913,0.018341
40.030,57.7979,0.018341
40.061,57.8060,0.018341
40.092,57.8145,0.018115
40.124,57.8241,0.018115
40.154,57.8337,0.018115
40.187,57.8454,0.018115
40.215,57.8557,0.018115
40.247,57.8685,0.018115
40.278,57.8812,0.018115
40.308,57.8950,0.018115
40.340,57.9096,0.017804
40.370,57.9243,0.017804
40.401,57.9399,0.017804
40.431,57.9560,0.017804
40.462,57.9734,0.017804
40.493,57.9914,0.017804
40.524,58.0104,0.017804
40.555,58.0295,0.017804
40.590,58.0520,0.017804
40.617,58.0707,0.017804
40.648,58.0923,0.017419
40.680,58.1154,0.017419
40.711,58.1385,0.017419
40.743,58.1629,0.017419
40.773,58.1876,0.017419
40.804,58.2121,0.017419
40.836,58.2388,0.017419
40.866,58.2651,0.016779
40.897,58.2930,0.016779
40.928,58.3209,0.016779
40.959,58.3502,0.016779
40.990,58.3792,0.016779
41.022,58.4109,0.016779
41.051,58.4396,0.016779
41.084,58.4738,0.016779
41.112,58.5026,0.016779
41.145,58.5399,0.015913
41.173,58.5696,0.015913
41.204,58.6042,0.015913
41.235,58.6394,0.015913
41.266,58.6757,0.015913
41.296,58.7116,0.015913
41.327,58.7480,0.015913
41.357,58.7862,0.015913
41.390,58.8279,0.014652
41.418,58.8644,0.014652
41.450,58.9043,0.014652
41.480,58.9465,0.014652
41.511,58.9864,0.014652
41.543,59.0301,0.014652
41.577,59.0777,0.014652
41.605,59.1174,0.012723
41.635,59.1629,0.012723
41.666,59.2078,0.012723
41.697,59.2543,0.012723
41.729,59.3004,0.012723
41.759,59.3468,0.012723
41.791,59.3932,0.012723
41.821,59.4403,0.012723
41.852,59.4849,0.012723
41.882,59.5315,0.010031
41.913,59.5780,0.010031
41.944,59.6244,0.010031
41.976,59.6718,0.010031
42.008,59.7188,0.010031
42.039,59.7664,0.010031
42.070,59.8129,0.010031
42.101,59.8600,0.010031
42.132,59.9065,0.006785
42.163,59.9531,0.006785
42.194,59.9983,0.006785
42.224,60.0436,0.006785
42.255,60.0908,0.006785
42.286,60.1378,0.006785
42.318,60.1856,0.006785
42.349,60.2305,0.006785
42.380,60.2785,0.002334
42.413,60.3267,0.002334
42.446,60.3782,0.002334
42.473,60.4183,0.002334
42.504,60.4645,0.002334
42.535,60.5114,0.002334
42.568,60.5610,0.002334
42.598,60.6060,-0.004564
42.629,60.6508,-0.004564
42.661,60.7007,-0.004564
42.690,60.7422,-0.004564
42.723,60.7928,-0.004564
42.751,60.8347,-0.004564
42.785,60.8846,-0.004564
42.813,60.9273,-0.004564
42.844,60.9735,-0.014981
42.875,61.0210,-0.014981
42.909,61.0729,-0.014981
42.936,61.1130,-0.014981
42.967,61.1584,-0.014981
42.997,61.2072,-0.014981
43.029,61.2513,-0.014981
43.060,61.2972,-0.014981
43.091,61.3448,-0.014981
43.122,61.3889,-0.031525
43.153,61.4320,-0.031525
43.184,61.4757,-0.031525
43.215,61.5197,-0.031525
43.245,61.5603,-0.031525
43.278,61.6041,-0.031525
43.308,61.6430,-0.031525
43.339,61.6836,-0.031525
43.369,61.7215,-0.057225
43.401,61.7616,-0.057225
43.432,61.7990,-0.057225
43.463,61.8354,-0.057225
43.494,61.8731,-0.057225
43.527,61.9099,-0.057225
43.555,61.9423,-0.057225
43.587,61.9761,-0.057225
43.617,62.0097,-0.094283
43.651,62.0452,-0.094283
43.679,62.0742,-0.094283
43.710,62.1054,-0.094283
43.743,62.1371,-0.094283
43.775,62.1677,-0.094283
43.805,62.1955,-0.094283
43.835,62.2232,-0.094283
43.866,62.2507,-0.146840
43.901,62.2812,-0.146840
43.928,62.3037,-0.146840
43.959,62.3292,-0.146840
43.991,62.3543,-0.146840
44.021,62.3778,-0.146840
44.053,62.4014,-0.146840
44.085,62.4245,-0.146840
44.117,62.4468,-0.237471
44.147,62.4673,-0.237471
44.179,62.4887,-0.237471
44.208,62.5064,-0.237471
44.241,62.5263,-0.237471
44.271,62.5442,-0.237471
44.303,62.5620,-0.237471
44.333,62.5780,-0.405343
44.365,62.5944,-0.405343
44.395,62.6091,-0.405343
44.426,62.6239,-0.405343
44.457,62.6373,-0.405343
44.488,62.6499,-0.405343
44.519,62.6626,-0.405343
44.550,62.6739,-0.405343
44.581,62.6849,-0.659678
44.613,62.6950,-0.659678
44.643,62.7044,-0.659678
44.674,62.7127,-0.659678
44.705,62.7208,-0.659678
44.737,62.7280,-0.659678
44.768,62.7345,-0.659678
44.799,62.7401,-0.659678
44.830,62.7449,-0.659678
44.862,62.7492,-0.977447
44.894,62.7529,-0.977447
44.926,62.7556,-0.977447
44.958,62.7576,-0.977447
44.989,62.7588,-0.977447
45.020,62.7593,-0.977447
45.051,62.7593,-0.977447
45.083,62.7593,-0.977447
45.114,62.7593,-1.139664
45.144,62.7593,-1.139664
45.176,62.7593,-1.139664
45.206,62.7593,-1.139664
45.237,62.7593,-1.139664
45.268,62.7593,-1.139664
45.299,62.7593,-1.139664
45.329,62.7593,-1.139664
45.360,62.7593,-0.947033
45.390,62.7593,-0.947033
45.421,62.7593,-0.947033
45.453,62.7593,-0.947033
45.484,62.7593,-0.947033
45.516,62.7593,-0.947033
45.547,62.7593,-0.947033
45.578,62.7593,-0.947033
45.609,62.7593,-0.676146
45.640,62.7593,-0.676146
45.672,62.7593,-0.676146
45.702,62.7593,-0.676146
45.733,62.7593,-0.676146
45.763,62.7593,-0.676146
45.794,62.7593,-0.676146
45.825,62.7593,-0.542490
45.856,62.7593,-0.542490
45.887,62.7593,-0.542490
45.918,62.7593,-0.542490
45.949,62.7593,-0.542490
45.980,62.7593,-0.542490
46.012,62.7593,-0.542490
46.043,62.7593,-0.542490
46.075,62.7593,-0.542490
46.104,62.7593,-0.468477
46.136,62.7593,-0.468477
46.167,62.7593,-0.468477
46.199,62.7593,-0.468477
46.229,62.7593,-0.468477
46.260,62.7593,-0.468477
46.291,62.7593,-0.468477
46.322,62.7593,-0.422037
46.352,62.7593,-0.422037
46.384,62.7593,-0.422037
46.416,62.7593,-0.422037
46.446,62.7593,-0.422037
46.477,62.7593,-0.422037
46.508,62.7593,-0.422037
46.539,62.7593,-0.422037
46.570,62.7593,-0.422037
46.601,62.7593,-0.390653
46.633,62.7593,-0.390653
46.664,62.7593,-0.390653
46.695,62.7593,-0.390653
46.727,62.7593,-0.390653
46.758,62.7593,-0.390653
46.789,62.7593,-0.390653
46.821,62.7593,-0.390653
46.851,62.7593,-0.368219
46.882,62.7593,-0.368219
46.914,62.7593,-0.368219
46.945,62.7593,-0.368219
46.976,62.7593,-0.368219
47.007,62.7593,-0.368219
47.038,62.7593,-0.368219
47.069,62.7593,-0.368219
47.100,62.7593,-0.351516
47.130,62.7593,-0.351516
47.161,62.7593,-0.351516
47.192,62.7593,-0.351516
47.223,62.7593,-0.351516
47.253,62.7593,-0.351516
47.284,62.7593,-0.351516
47.315,62.7593,-0.351516
47.346,62.7593,-0.338680
47.377,62.7593,-0.338680
47.406,62.7593,-0.338680
47.440,62.7593,-0.338680
47.470,62.7593,-0.338680
47.502,62.7593,-0.338680
47.533,62.7593,-0.338680
47.564,62.7593,-0.338680
47.596,62.7593,-0.328526
47.626,62.7593,-0.328526
47.657,62.7593,-0.328526
47.688,62.7593,-0.328526
47.719,62.7593,-0.328526
47.750,62.7593,-0.328526
47.781,62.7593,-0.328526
47.812,62.7593,-0.328526
47.846,62.7593,-0.328526
47.874,62.7593,-0.328526
47.905,62.7593,-0.320301
47.936,62.7593,-0.320301
47.966,62.7593,-0.320301
47.998,62.7593,-0.320301
48.029,62.7593,-0.320301
48.060,62.7593,-0.320301
48.092,62.7593,-0.320301
48.122,62.7593,-0.313535
48.153,62.7593,-0.313535
48.184,62.7593,-0.313535
48.215,62.7593,-0.313535
48.247,62.7593,-0.313535
48.276,62.7593,-0.313535
48.307,62.7593,-0.313535
48.337,62.7593,-0.313535
48.369,62.7593,-0.307870
48.399,62.7593,-0.307870
48.430,62.7593,-0.307870
48.462,62.7593,-0.307870
48.492,62.7593,-0.307870
48.523,62.7593,-0.307870
48.555,62.7593,-0.307870
48.587,62.7593,-0.302986
48.618,62.7593,-0.302986
48.648,62.7593,-0.302986
48.679,62.7593,-0.302986
48.710,62.7593,-0.302986
48.741,62.7593,-0.302986
48.771,62.7593,-0.302986
48.802,62.7593,-0.302986
48.833,62.7593,-0.302986
48.865,62.7593,-0.298610
48.896,62.7593,-0.298610
48.927,62.7593,-0.298610
48.958,62.7593,-0.298610
48.989,62.7593,-0.298610
49.021,62.7593,-0.298610
49.051,62.7593,-0.298610
49.082,62.7593,-0.293717
49.115,62.7593,-0.293717
49.144,62.7593,-0.293717
49.176,62.7593,-0.293717
49.207,62.7593,-0.293717
49.241,62.7593,-0.293717
49.270,62.7593,-0.293717
49.302,62.7593,-0.293717
49.331,62.7593,-0.293717
49.363,62.7593,-0.288090
49.394,62.7588,-0.288090
49.425,62.7577,-0.288090
49.455,62.7557,-0.288090
49.487,62.7531,-0.288090
49.518,62.7497,-0.288090
49.549,62.7456,-0.288090
49.580,62.7407,-0.288090
49.611,62.7353,-0.267763
49.642,62.7289,-0.267763
49.674,62.7216,-0.267763
49.704,62.7142,-0.267763
49.734,62.7059,-0.267763
49.766,62.6966,-0.267763
49.800,62.6855,-0.267763
49.828,62.6760,-0.267763
49.860,62.6642,0.540589
49.890,62.6524,0.540589
49.921,62.6398,0.540589
49.952,62.6260,0.540589
49.983,62.6119,0.540589
50.013,62.5972,0.540589
50.045,62.5811,0.540589
50.075,62.5650,0.682140
50.106,62.5479,0.682140
50.136,62.5304,0.682140
50.168,62.5114,0.682140
50.200,62.4914,0.682140
50.231,62.4715,0.682140
50.261,62.4511,0.682140
50.295,62.4273,0.682140
50.323,62.4077,0.033040
50.354,62.3844,0.033040
50.385,62.3610,0.033040
50.417,62.3354,0.033040
50.446,62.3117,0.033040
50.477,62.2862,0.033040
50.508,62.2595,0.033040
50.540,62.2317,0.033040
50.569,62.2046,0.033040
50.600,62.1762,0.046704
50.631,62.1462,0.046704
50.661,62.1180,0.046704
50.694,62.0848,0.046704
50.725,62.0525,0.046704
50.756,62.0206,0.046704
50.788,61.9867,0.046704
50.818,61.9538,0.046704
50.848,61.9192,0.070973
50.879,61.8836,0.070973
50.911,61.8479,0.070973
50.943,61.8099,0.070973
50.972,61.7735,0.070973
51.005,61.7330,0.070973
51.034,61.6974,0.070973
51.065,61.6564,0.070973
51.097,61.6165,0.086359
51.128,61.5740,0.086359
51.159,61.5332,0.086359
51.189,61.4909,0.086359
51.220,61.4483,0.086359
51.252,61.4034,0.086359
51.282,61.3587,0.086359
51.313,61.3138,0.086359
51.344,61.2667,0.091488
51.375,61.2214,0.091488
51.405,61.1747,0.091488
51.436,61.1293,0.091488
51.468,61.0818,0.091488
51.498,61.0370,0.091488
51.529,60.9903,0.091488
51.560,60.9445,0.091488
51.591,60.8961,0.091488
51.621,60.8515,0.091403
51.653,60.8020,0.091403
51.684,60.7580,0.091403
51.715,60.7115,0.091403
51.745,60.6659,0.091403
51.776,60.6191,0.091403
51.808,60.5712,0.091403
51.839,60.5247,0.091403
51.871,60.4767,0.091742
51.902,60.4315,0.091742
51.933,60.3837,0.091742
51.964,60.3378,0.091742
51.995,60.2900,0.091742
52.026,60.2445,0.091742
52.057,60.1974,0.091742
52.088,60.1510,0.091742
52.119,60.1044,0.095581
52.150,60.0574,0.095581
52.181,60.0118,0.095581
52.213,59.9647,0.095581
52.242,59.9199,0.095581
52.273,59.8732,0.095581
52.305,59.8264,0.095581
52.336,59.7792,0.095581
52.366,59.7340,0.095581
52.399,59.6838,0.105142
52.427,59.6430,0.105142
52.458,59.5952,0.105142
52.488,59.5515,0.105142
52.520,59.5026,0.105142
52.552,59.4555,0.105142
52.586,59.4041,0.105142
52.614,59.3631,0.105142
52.644,59.3168,0.122429
52.676,59.2704,0.122429
52.706,59.2244,0.122429
52.737,59.1780,0.122429
52.768,59.1315,0.122429
52.799,59.0871,0.122429
52.835,59.0360,0.122429
52.876,58.9785,0.139208
52.906,58.9364,0.139208
52.938,58.8944,0.139208
52.970,58.8516,0.139208
53.000,58.8114,0.139208
53.032,58.7706,0.139208
53.063,58.7327,0.139208
53.093,58.6945,0.139208
53.127,58.6544,0.110534
53.155,58.6212,0.110534
53.185,58.5856,0.110534
53.217,58.5491,0.110534
53.248,58.5150,0.110534
53.278,58.4821,0.110534
53.310,58.4478,0.110534
53.342,58.4140,0.110534
53.374,58.3822,0.050063
53.405,58.3512,0.050063
53.436,58.3204,0.050063
53.467,58.2909,0.050063
53.498,58.2629,0.050063
53.529,58.2351,0.050063
53.559,58.2080,0.050063
53.590,58.1815,0.050063
53.622,58.1546,0.023037
53.652,58.1305,0.023037
53.683,58.1058,0.023037
53.716,58.0810,0.023037
53.749,58.0562,0.023037
53.777,58.0370,0.023037
53.809,58.0146,0.023037
53.840,57.9941,0.020976
53.873,57.9725,0.020976
53.900,57.9553,0.020976
53.931,57.9372,0.020976
53.963,57.9187,0.020976
53.993,57.9022,0.020976
54.026,57.8843,0.020976
54.055,57.8698,0.020976
54.087,57.8549,0.020976
54.118,57.8406,0.019978
54.148,57.8275,0.019978
54.183,57.8132,0.019978
54.210,57.8026,0.019978
54.242,57.7911,0.019978
54.273,57.7803,0.019978
54.303,57.7709,0.019978
54.335,57.7617,0.019310
54.365,57.7537,0.019310
54.399,57.7453,0.019310
54.427,57.7391,0.019310
54.459,57.7325,0.019310
54.489,57.7272,0.019310
54.521,57.7225,0.019310
54.552,57.7184,0.019310
54.582,57.7152,0.019310
54.614,57.7127,0.019310
54.644,57.7108,0.018858
54.676,57.7097,0.018858
54.709,57.7093,0.018858
54.738,57.7093,0.018858
54.769,57.7093,0.018858
54.800,57.7093,0.018858
54.833,57.7093,0.018501
54.862,57.7093,0.018501
54.893,57.7093,0.018501
54.923,57.7100,0.018501
54.954,57.7113,0.018501
54.986,57.7134,0.018501
55.018,57.7163,0.018501
55.048,57.7199,0.018501
55.079,57.7241,0.018501
55.111,57.7292,0.018322
55.142,57.7350,0.018322
55.173,57.7416,0.018322
55.205,57.7489,0.018322
55.235,57.7567,0.018322
55.267,57.7655,0.018322
55.297,57.7747,0.018322
55.328,57.7851,0.018322
55.360,57.7959,0.018322
55.391,57.8077,0.018077
55.426,57.8215,0.018077
55.454,57.8334,0.018077
55.487,57.8478,0.018077
55.516,57.8620,0.018077
55.547,57.8769,0.018077
55.577,57.8927,0.018077
55.609,57.9094,0.018077
55.640,57.9271,0.017692
55.671,57.9452,0.017692
55.705,57.9660,0.017692
55.733,57.9839,0.017692
55.763,58.0038,0.017692
55.795,58.0251,0.017692
55.828,58.0485,0.017692
55.856,58.0684,0.017692
55.887,58.0920,0.017287
55.918,58.1153,0.017287
55.951,58.1424,0.017287
55.980,58.1655,0.017287
56.010,58.1919,0.017287
56.041,58.2185,0.017287
56.073,58.2464,0.017287
56.104,58.2743,0.016619
56.135,58.3040,0.016619
56.167,58.3344,0.016619
56.198,58.3659,0.016619
56.230,58.3973,0.016619
56.264,58.4331,0.016619
56.291,58.4611,0.016619
56.322,58.4949,0.016619
56.353,58.5289,0.015649
56.385,58.5641,0.015649
56.416,58.6003,0.015649
56.447,58.6359,0.015649
56.478,58.6742,0.015649
56.509,58.7110,0.015649
56.539,58.7492,0.015649
56.570,58.7877,0.015649
56.601,58.8274,0.015649
56.631,58.8671,0.014181
56.663,58.9111,0.014181
56.694,58.9518,0.014181
56.725,58.9955,0.014181
56.756,59.0384,0.014181
56.786,59.0818,0.014181
56.818,59.1287,0.014181
56.848,59.1727,0.012074
56.879,59.2198,0.012074
56.910,59.2653,0.012074
56.941,59.3125,0.012074
56.971,59.3574,0.012074
57.003,59.4040,0.012074
57.033,59.4498,0.012074
57.064,59.4959,0.012074
57.095,59.5432,0.012074
57.127,59.5907,0.009279
57.155,59.6341,0.009279
57.187,59.6803,0.009279
57.218,59.7282,0.009279
57.250,59.7756,0.009279
57.281,59.8217,0.009279
57.312,59.8688,0.009279
57.344,59.9155,0.005750
57.374,59.9624,0.005750
57.405,60.0086,0.005750
57.437,60.0570,0.005750
57.468,60.1024,0.005750
57.499,60.1499,0.005750
57.530,60.1959,0.005750
57.561,60.2434,0.005750
57.593,60.2895,0.005750
57.626,60.3393,0.000640
57.655,60.3828,0.000640
57.686,60.4297,0.000640
57.718,60.4769,0.000640
57.748,60.5231,0.000640
57.780,60.5697,0.000640
57.811,60.6173,0.000640
57.842,60.6625,-0.007274
57.872,60.7095,-0.007274
57.903,60.7551,-0.007274
57.934,60.8010,-0.007274
57.965,60.8478,-0.007274
57.996,60.8938,-0.007274
58.027,60.9408,-0.007274
58.059,60.9894,-0.007274
58.089,61.0347,-0.007274
58.121,61.0832,-0.019310
58.152,61.1276,-0.019310
58.182,61.1747,-0.019310
58.213,61.2202,-0.019310
58.244,61.2668,-0.019310
58.275,61.3112,-0.019310
58.309,61.3611,-0.019310
58.338,61.4018,-0.038441
58.370,61.4470,-0.038441
58.401,61.4887,-0.038441
58.431,61.5299,-0.038441
58.462,61.5706,-0.038441
58.499,61.6188,-0.038441
58.539,61.6687,-0.038441
58.570,61.7080,-0.067265
58.601,61.7461,-0.067265
58.635,61.7865,-0.067265
58.663,61.8186,-0.067265
58.694,61.8550,-0.067265
58.725,61.8893,-0.067265
58.756,61.9239,-0.067265
58.787,61.9568,-0.067265
58.818,61.9895,-0.067265
58.848,62.0209,-0.108426
58.880,62.0530,-0.108426
58.911,62.0843,-0.108426
58.943,62.1143,-0.108426
58.974,62.1431,-0.108426
59.004,62.1708,-0.108426
59.035,62.1986,-0.108426
59.066,62.2258,-0.108426
59.098,62.2518,-0.169123
59.129,62.2784,-0.169123
59.160,62.3024,-0.169123
59.192,62.3272,-0.169123
59.223,62.3502,-0.169123
59.254,62.3730,-0.169123
59.284,62.3943,-0.169123
59.315,62.4157,-0.169123
59.347,62.4358,-0.281361
59.378,62.4560,-0.281361
59.408,62.4741,-0.281361
59.441,62.4933,-0.281361
59.470,62.5097,-0.281361
59.502,62.5264,-0.281361
59.534,62.5432,-0.281361
59.565,62.5580,-0.281361
59.596,62.5729,-0.281361
59.626,62.5861,-0.476467
59.658,62.5996,-0.476467
59.688,62.6114,-0.476467
59.720,62.6232,-0.476467
59.750,62.6343,-0.476467
59.781,62.6440,-0.476467
59.812,62.6533,-0.476467
59.843,62.6621,-0.476467
59.873,62.6698,-0.757555
59.907,62.6776,-0.757555
59.936,62.6836,-0.757555
59.967,62.6894,-0.757555
59.998,62.6945,-0.757555
60.030,62.6988,-0.757555
60.060,62.7023,-0.757555
60.091,62.7051,-1.065077
60.123,62.7072,-1.065077
60.154,62.7087,-1.065077
60.184,62.7094,-1.065077
60.215,62.7094,-1.065077
60.246,62.7094,-1.065077
60.278,62.7094,-1.065077
60.307,62.7094,-1.065077
60.339,62.7094,-1.065077
60.370,62.7094,-1.106417
60.402,62.7094,-1.106417
60.433,62.7094,-1.106417
60.464,62.7094,-1.106417
60.494,62.7094,-1.106417
60.525,62.7094,-1.106417
60.557,62.7094,-1.106417
60.587,62.7094,-1.106417
60.619,62.7094,-0.848807
60.649,62.7094,-0.848807
60.680,62.7094,-0.848807
60.711,62.7094,-0.848807
60.743,62.7094,-0.848807
60.774,62.7094,-0.848807
60.804,62.7094,-0.848807
60.837,62.7094,-0.848807
60.866,62.7094,-0.848807
60.892,62.7094,-0.625565
60.928,62.7094,-0.625565
60.960,62.7094,-0.625565
60.991,62.7094,-0.625565
61.023,62.7094,-0.625565
61.053,62.7094,-0.625565
61.086,62.7094,-0.625565
61.115,62.7094,-0.516442
61.146,62.7094,-0.516442
61.177,62.7094,-0.516442
61.208,62.7094,-0.516442
61.239,62.7094,-0.516442
61.270,62.7094,-0.516442
61.301,62.7094,-0.516442
61.332,62.7094,-0.516442
61.362,62.7094,-0.453035
61.393,62.7094,-0.453035
61.425,62.7094,-0.453035
61.456,62.7094,-0.453035
61.486,62.7094,-0.453035
61.518,62.7094,-0.453035
61.550,62.7094,-0.453035
61.580,62.7094,-0.453035
61.611,62.7094,-0.453035
61.644,62.7094,-0.412090
61.674,62.7094,-0.412090
61.707,62.7094,-0.412090
61.735,62.7094,-0.412090
61.769,62.7094,-0.412090
61.797,62.7094,-0.412090
61.829,62.7094,-0.412090
61.859,62.7094,-0.383916
61.890,62.7094,-0.383916
61.922,62.7094,-0.383916
61.952,62.7094,-0.383916
61.984,62.7094,-0.383916
62.015,62.7094,-0.383916
62.045,62.7094,-0.383916
62.075,62.7094,-0.383916
62.106,62.7094,-0.363467
62.139,62.7094,-0.363467
62.169,62.7094,-0.363467
62.200,62.7094,-0.363467
62.231,62.7094,-0.363467
62.262,62.7094,-0.363467
62.294,62.7094,-0.363467
62.325,62.7094,-0.363467
62.356,62.7094,-0.363467
62.387,62.7094,-0.348118
62.418,62.7094,-0.348118
62.449,62.7094,-0.348118
62.480,62.7094,-0.348118
62.511,62.7094,-0.348118
62.543,62.7094,-0.348118
62.572,62.7094,-0.348118
62.603,62.7094,-0.336205
62.634,62.7094,-0.336205
62.666,62.7094,-0.336205
62.697,62.7094,-0.336205
62.728,62.7094,-0.336205
62.759,62.7094,-0.336205
62.791,62.7094,-0.336205
62.821,62.7094,-0.336205
62.854,62.7094,-0.336205
62.883,62.7094,-0.336205
62.915,62.7094,-0.326691
62.945,62.7094,-0.326691
62.977,62.7094,-0.326691
63.009,62.7094,-0.326691
63.040,62.7094,-0.326691
63.071,62.7094,-0.326691
63.101,62.7094,-0.326691
63.133,62.7094,-0.318993
63.164,62.7094,-0.318993
63.194,62.7094,-0.318993
63.227,62.7094,-0.318993
63.257,62.7094,-0.318993
63.290,62.7094,-0.318993
63.319,62.7094,-0.318993
63.350,62.7094,-0.318993
63.380,62.7094,-0.312575
63.411,62.7094,-0.312575
63.443,62.7094,-0.312575
63.474,62.7094,-0.312575
63.505,62.7094,-0.312575
63.536,62.7094,-0.312575
63.567,62.7094,-0.312575
63.598,62.7094,-0.307146
63.631,62.7094,-0.307146
63.660,62.7094,-0.307146
63.691,62.7094,-0.307146
63.722,62.7094,-0.307146
63.753,62.7094,-0.307146
63.784,62.7094,-0.307146
63.816,62.7094,-0.307146
63.848,62.7094,-0.302393
63.879,62.7094,-0.302393
63.910,62.7094,-0.302393
63.941,62.7094,-0.302393
63.972,62.7094,-0.302393
64.003,62.7094,-0.302393
64.034,62.7094,-0.302393
64.065,62.7094,-0.302393
64.096,62.7094,-0.302393
64.128,62.7094,-0.297481
64.159,62.7094,-0.297481
64.190,62.7094,-0.297481
64.221,62.7094,-0.297481
64.251,62.7094,-0.297481
64.283,62.7094,-0.297481
64.314,62.7094,-0.297481
64.345,62.7094,-0.291910
64.375,62.7094,-0.291910
64.405,62.7094,-0.291910
64.437,62.7094,-0.291910
64.468,62.7094,-0.291910
64.499,62.7089,-0.291910
64.529,62.7077,-0.291910
64.559,62.7059,-0.291910
64.590,62.7034,-0.286894
64.621,62.6999,-0.286894
64.652,62.6958,-0.286894
64.683,62.6910,-0.286894
64.714,62.6855,-0.286894
64.746,62.6792,-0.286894
64.777,62.6723,-0.286894
64.808,62.6643,-0.286894
64.840,62.6555,-0.286894
64.870,62.6466,0.070220
64.902,62.6368,0.070220
64.932,62.6259,0.070220
64.963,62.6150,0.070220
64.995,62.6023,0.070220
65.026,62.5897,0.070220
65.057,62.5760,0.070220
65.087,62.5621,0.070220
65.118,62.5475,0.303654
65.150,62.5313,0.303654
65.180,62.5151,0.303654
65.211,62.4979,0.303654
65.242,62.4802,0.303654
65.272,62.4614,0.303654
65.305,62.4418,0.303654
65.335,62.4217,0.103797
65.366,62.4008,0.103797
65.398,62.3788,0.103797
65.428,62.3571,0.103797
65.459,62.3342,0.103797
65.491,62.3099,0.103797
65.521,62.2861,0.103797
65.558,62.2562,0.103797
65.599,62.2213,0.036964
65.630,62.1940,0.036964
65.661,62.1666,0.036964
65.693,62.1381,0.036964
65.723,62.1097,0.036964
65.754,62.0788,0.036964
65.785,62.0490,0.036964
65.816,62.0166,0.036964
65.848,61.9838,0.061243
65.879,61.9508,0.061243
65.911,61.9165,0.061243
65.941,61.8822,0.061243
65.973,61.8475,0.061243
66.003,61.8128,0.061243
66.034,61.7762,0.061243
66.065,61.7392,0.061243
66.096,61.7004,0.061243
66.126,61.6635,0.081343
66.158,61.6224,0.081343
66.189,61.5822,0.081343
66.225,61.5355,0.081343
66.250,61.5016,0.081343
66.285,61.4542,0.081343
66.313,61.4152,0.081343
66.343,61.3725,0.090274
66.374,61.3277,0.090274
66.405,61.2827,0.090274
66.436,61.2377,0.090274
66.468,61.1901,0.090274
66.499,61.1424,0.090274
66.529,61.0979,0.090274
66.560,61.0512,0.090274
66.592,61.0028,0.090274
66.623,60.9569,0.091667
66.654,60.9099,0.091667
66.685,60.8643,0.091667
66.717,60.8159,0.091667
66.747,60.7705,0.091667
66.779,60.7225,0.091667
66.810,60.6765,0.091667
66.841,60.6286,0.091667
66.872,60.5827,0.091290
66.904,60.5356,0.091290
66.935,60.4893,0.091290
66.966,60.4416,0.091290
66.997,60.3951,0.091290
67.029,60.3463,0.091290
67.060,60.3014,0.091290
67.090,60.2548,0.091290
67.122,60.2087,0.093285
67.153,60.1604,0.093285
67.182,60.1183,0.093285
67.217,60.0644,0.093285
67.243,60.0264,0.093285
67.275,59.9782,0.093285
67.306,59.9320,0.093285
67.340,59.8791,0.093285
67.368,59.8402,0.093285
67.398,59.7933,0.100155
67.430,59.7456,0.100155
67.461,59.6994,0.100155
67.492,59.6525,0.100155
67.524,59.6059,0.100155
67.554,59.5600,0.100155
67.586,59.5129,0.100155
67.617,59.4653,0.114421
67.647,59.4209,0.114421
67.678,59.3751,0.114421
67.709,59.3279,0.114421
67.740,59.2818,0.114421
67.771,59.2336,0.114421
67.802,59.1880,0.114421
67.833,59.1416,0.114421
67.865,59.0949,0.133693
67.896,59.0494,0.133693
67.926,59.0053,0.133693
67.958,58.9601,0.133693
67.987,58.9189,0.133693
68.019,58.8762,0.133693
68.050,58.8341,0.133693
68.082,58.7927,0.133693
68.113,58.7524,0.137458
68.144,58.7116,0.137458
68.175,58.6739,0.137458
68.207,58.6344,0.137458
68.237,58.5978,0.137458
68.268,58.5620,0.137458
68.299,58.5252,0.137458
68.330,58.4904,0.137458
68.361,58.4565,0.079941
68.392,58.4230,0.079941
68.424,58.3887,0.079941
68.455,58.3559,0.079941
68.486,58.3252,0.079941
68.517,58.2934,0.079941
68.549,58.2636,0.079941
68.581,58.2331,0.079941
68.611,58.2058,0.079941
68.642,58.1777,0.025389
68.673,58.1507,0.025389
68.705,58.1231,0.025389
68.735,58.0984,0.025389
68.765,58.0739,0.025389
68.799,58.0477,0.025389
68.828,58.0262,0.025389
68.858,58.0035,0.025389
68.889,57.9816,0.021606
68.920,57.9600,0.021606
68.951,57.9404,0.021606
68.981,57.9206,0.021606
69.012,57.9017,0.021606
69.043,57.8834,0.021606
69.074,57.8654,0.021606
69.105,57.8484,0.020402
69.136,57.8325,0.020402
69.167,57.8164,0.020402
69.197,57.8024,0.020402
69.229,57.7880,0.020402
69.259,57.7750,0.020402
69.289,57.7628,0.020402
69.321,57.7509,0.020402
69.355,57.7381,0.020402
69.383,57.7292,0.019611
69.415,57.7190,0.019611
69.445,57.7103,0.019611
69.476,57.7023,0.019611
69.506,57.6947,0.019611
69.537,57.6879,0.019611
69.568,57.6819,0.019611
69.599,57.6765,0.019047
69.630,57.6719,0.019047
69.662,57.6679,0.019047
69.692,57.6648,0.019047
69.724,57.6623,0.019047
69.754,57.6606,0.019047
69.785,57.6596,0.019047
69.816,57.6594,0.019047
69.849,57.6594,0.019047
69.879,57.6594,0.018670
69.910,57.6594,0.018670
69.940,57.6594,0.018670
69.971,57.6594,0.018670
70.002,57.6594,0.018670
70.034,57.6597,0.018670
70.065,57.6610,0.018670
70.096,57.6628,0.018670
70.128,57.6656,0.018520
70.158,57.6689,0.018520
70.188,57.6729,0.018520
70.219,57.6777,0.018520
70.251,57.6833,0.018520
70.281,57.6894,0.018520
70.313,57.6964,0.018520
70.345,57.7045,0.018266
70.376,57.7128,0.018266
70.407,57.7220,0.018266
70.438,57.7322,0.018266
70.469,57.7428,0.018266
70.500,57.7541,0.018266
70.531,57.7663,0.018266
70.563,57.7792,0.018266
70.594,57.7929,0.017880
70.624,57.8073,0.017880
70.655,57.8218,0.017880
70.686,57.8377,0.017880
70.717,57.8542,0.017880
70.748,57.8719,0.017880
70.780,57.8899,0.017880
70.811,57.9090,0.017880
70.843,57.9281,0.017880
70.874,57.9487,0.017532
70.905,57.9695,0.017532
70.937,57.9920,0.017532
70.969,58.0152,0.017532
71.000,58.0388,0.017532
71.032,58.0629,0.017532
71.064,58.0882,0.017532
71.095,58.1130,0.017014
71.126,58.1396,0.017014
71.156,58.1654,0.017014
71.188,58.1933,0.017014
71.217,58.2211,0.017014
71.249,58.2501,0.017014
71.280,58.2795,0.017014
71.311,58.3101,0.017014
71.342,58.3412,0.017014
71.374,58.3735,0.016195
71.405,58.4060,0.016195
71.437,58.4407,0.016195
71.468,58.4756,0.016195
71.498,58.5092,0.016195
71.529,58.5443,0.016195
71.560,58.5799,0.016195
71.591,58.6181,0.016195
71.622,58.6558,0.014972
71.652,58.6927,0.014972
71.684,58.7332,0.014972
71.715,58.7726,0.014972
71.747,58.8137,0.014972
71.777,58.8541,0.014972
71.807,58.8960,0.014972
71.838,58.9374,0.014972
71.869,58.9810,0.013175
71.901,59.0280,0.013175
71.931,59.0716,0.013175
71.963,59.1179,0.013175
71.994,59.1635,0.013175
72.026,59.2121,0.013175
72.055,59.2565,0.013175
72.086,59.3032,0.013175
72.117,59.3481,0.010634
72.148,59.3951,0.010634
72.178,59.4412,0.010634
72.208,59.4857,0.010634
72.241,59.5355,0.010634
72.277,59.5888,0.010634
72.303,59.6277,0.010634
72.334,59.6736,0.010634
72.365,59.7211,0.007557
72.398,59.7702,0.007557
72.427,59.8140,0.007557
72.458,59.8603,0.007557
72.488,59.9068,0.007557
72.519,59.9519,0.007557
72.550,59.9999,0.007557
72.581,60.0456,0.007557
72.612,60.0916,0.003463
72.643,60.1380,0.003463
72.674,60.1845,0.003463
72.705,60.2325,0.003463
72.736,60.2769,0.003463
72.767,60.3236,0.003463
72.798,60.3701,0.003463
72.829,60.4165,0.003463
72.860,60.4632,0.003463
72.891,60.5105,-0.003058
72.922,60.5562,-0.003058
72.954,60.6041,-0.003058
72.984,60.6487,-0.003058
73.016,60.6969,-0.003058
73.046,60.7430,-0.003058
73.077,60.7891,-0.003058
73.108,60.8349,-0.012911
73.138,60.8810,-0.012911
73.169,60.9280,-0.012911
73.200,60.9736,-0.012911
73.230,61.0187,-0.012911
73.261,61.0653,-0.012911
73.293,61.1121,-0.012911
73.323,61.1588,-0.012911
73.353,61.2028,-0.028194
73.384,61.2490,-0.028194
73.414,61.2921,-0.028194
73.446,61.3377,-0.028194
73.476,61.3792,-0.028194
73.507,61.4234,-0.028194
73.538,61.4650,-0.028194
73.570,61.5077,-0.028194
73.600,61.5463,-0.052171
73.632,61.5886,-0.052171
73.661,61.6246,-0.052171
73.692,61.6628,-0.052171
73.722,61.6998,-0.052171
73.753,61.7361,-0.052171
73.785,61.7737,-0.052171
73.815,61.8087,-0.052171
73.847,61.8440,-0.087187
73.878,61.8784,-0.087187
73.910,61.9119,-0.087187
73.941,61.9445,-0.087187
73.972,61.9764,-0.087187
74.002,62.0070,-0.087187
74.033,62.0370,-0.087187
74.064,62.0672,-0.087187
74.094,62.0957,-0.136912
74.125,62.1238,-0.136912
74.156,62.1514,-0.136912
74.186,62.1770,-0.136912
74.217,62.2027,-0.136912
74.248,62.2284,-0.136912
74.278,62.2524,-0.136912
74.308,62.2761,-0.136912
74.340,62.2993,-0.219347
74.371,62.3226,-0.219347
74.402,62.3441,-0.219347
74.434,62.3658,-0.219347
74.464,62.3853,-0.219347
74.495,62.4056,-0.219347
74.527,62.4247,-0.219347
74.558,62.4427,-0.219347
74.589,62.4601,-0.374260
74.620,62.4767,-0.374260
74.651,62.4927,-0.374260
74.683,62.5086,-0.374260
74.714,62.5227,-0.374260
74.745,62.5366,-0.374260
74.776,62.5496,-0.374260
74.807,62.5618,-0.374260
74.838,62.5734,-0.615656
74.868,62.5837,-0.615656
74.899,62.5938,-0.615656
74.931,62.6038,-0.615656
74.961,62.6119,-0.615656
74.991,62.6199,-0.615656
75.022,62.6270,-0.615656
75.054,62.6336,-0.615656
75.084,62.6393,-0.615656
75.116,62.6444,-0.932438
75.147,62.6486,-0.932438
75.178,62.6523,-0.932438
75.209,62.6552,-0.932438
75.242,62.6574,-0.932438
75.270,62.6586,-0.932438
75.303,62.6594,-0.932438
75.333,62.6594,-1.146929
75.367,62.6594,-1.146929
75.396,62.6594,-1.146929
75.428,62.6594,-1.146929
75.459,62.6594,-1.146929
75.489,62.6594,-1.146929
75.520,62.6594,-1.146929
75.551,62.6594,-1.146929
75.582,62.6594,-1.146929
75.614,62.6594,-1.146929
75.645,62.6594,-0.999581
75.676,62.6594,-0.999581
75.707,62.6594,-0.999581
75.739,62.6594,-0.999581
75.769,62.6594,-0.999581
75.801,62.6594,-0.999581
75.831,62.6594,-0.999581
75.863,62.6594,-0.714361
75.894,62.6594,-0.714361
75.926,62.6594,-0.714361
75.957,62.6594,-0.714361
75.988,62.6594,-0.714361
76.020,62.6594,-0.714361
76.051,62.6594,-0.714361
76.081,62.6594,-0.714361
76.113,62.6594,-0.562986
76.144,62.6594,-0.562986
76.169,62.6594,-0.562986
76.205,62.6594,-0.562986
76.237,62.6594,-0.562986
76.268,62.6594,-0.562986
76.300,62.6594,-0.562986
76.330,62.6594,-0.481567
76.361,62.6594,-0.481567
76.391,62.6594,-0.481567
76.423,62.6594,-0.481567
76.454,62.6594,-0.481567
76.485,62.6594,-0.481567
76.517,62.6594,-0.481567
76.548,62.6594,-0.481567
76.579,62.6594,-0.481567
76.610,62.6594,-0.431127
76.642,62.6594,-0.431127
76.673,62.6594,-0.431127
76.704,62.6594,-0.431127
76.735,62.6594,-0.431127
76.767,62.6594,-0.431127
76.797,62.6594,-0.431127
76.828,62.6594,-0.431127
76.859,62.6594,-0.397278
76.890,62.6594,-0.397278
76.921,62.6594,-0.397278
76.952,62.6594,-0.397278
76.982,62.6594,-0.397278
77.013,62.6594,-0.397278
77.045,62.6594,-0.397278
77.076,62.6594,-0.397278
77.107,62.6594,-0.373310
77.138,62.6594,-0.373310
77.169,62.6594,-0.373310
77.199,62.6594,-0.373310
77.231,62.6594,-0.373310
77.262,62.6594,-0.373310
77.293,62.6594,-0.373310
77.324,62.6594,-0.373310
77.354,62.6594,-0.355581
77.386,62.6594,-0.355581
77.416,62.6594,-0.355581
77.447,62.6594,-0.355581
77.478,62.6594,-0.355581
77.510,62.6594,-0.355581
77.540,62.6594,-0.355581
77.571,62.6594,-0.355581
77.602,62.6594,-0.342021
77.634,62.6594,-0.342021
77.664,62.6594,-0.342021
77.696,62.6594,-0.342021
77.726,62.6594,-0.342021
77.760,62.6594,-0.342021
77.788,62.6594,-0.342021
77.818,62.6594,-0.342021
77.849,62.6594,-0.342021
77.880,62.6594,-0.331406
77.917,62.6594,-0.331406
77.943,62.6594,-0.331406
77.974,62.6594,-0.331406
78.005,62.6594,-0.331406
78.036,62.6594,-0.331406
78.067,62.6594,-0.331406
78.097,62.6594,-0.322870
78.132,62.6594,-0.322870
78.160,62.6594,-0.322870
78.193,62.6594,-0.322870
78.222,62.6594,-0.322870
78.256,62.6594,-0.322870
78.285,62.6594,-0.322870
78.316,62.6594,-0.322870
78.347,62.6594,-0.315822
78.378,62.6594,-0.315822
78.407,62.6594,-0.315822
78.438,62.6594,-0.315822
78.470,62.6594,-0.315822
78.501,62.6594,-0.315822
78.532,62.6594,-0.315822
78.562,62.6594,-0.315822
78.594,62.6594,-0.309893
78.628,62.6594,-0.309893
78.658,62.6594,-0.309893
78.688,62.6594,-0.309893
78.719,62.6594,-0.309893
78.750,62.6594,-0.309893
78.782,62.6594,-0.309893
78.812,62.6594,-0.309893
78.844,62.6594,-0.309893
78.875,62.6594,-0.304925
78.906,62.6594,-0.304925
78.936,62.6594,-0.304925
78.967,62.6594,-0.304925
78.999,62.6594,-0.304925
79.030,62.6594,-0.304925
79.060,62.6594,-0.304925
79.090,62.6594,-0.299947
79.121,62.6594,-0.299947
79.152,62.6594,-0.299947
79.183,62.6594,-0.299947
79.214,62.6594,-0.299947
79.245,62.6594,-0.299947
79.276,62.6594,-0.299947
79.308,62.6594,-0.299947
79.339,62.6594,-0.294272
79.369,62.6594,-0.294272
79.401,62.6594,-0.294272
79.431,62.6594,-0.294272
79.462,62.6594,-0.294272
79.492,62.6594,-0.294272
79.523,62.6594,-0.294272
79.554,62.6591,-0.294272
79.585,62.6581,-0.288315
79.616,62.6563,-0.288315
79.647,62.6539,-0.288315
79.678,62.6507,-0.288315
79.710,62.6467,-0.288315
79.741,62.6419,-0.288315
79.773,62.6364,-0.288315
79.804,62.6302,-0.288315
79.835,62.6233,-0.154848
79.867,62.6156,-0.154848
79.898,62.6070,-0.154848
79.929,62.5980,-0.154848
79.960,62.5883,-0.154848
79.991,62.5778,-0.154848
80.023,62.5661,-0.154848
80.052,62.5548,-0.154848
80.084,62.5419,-0.154848
80.115,62.5283,-0.154848
80.146,62.5140,0.498543
80.178,62.4990,0.498543
80.209,62.4830,0.498543
80.241,62.4664,0.498543
80.271,62.4498,0.498543
80.302,62.4312,0.498543
80.333,62.4134,0.498543
80.365,62.3938,0.523161
80.401,62.3697,0.523161
80.427,62.3528,0.523161
80.458,62.3308,0.523161
80.489,62.3085,0.523161
80.521,62.2849,0.523161
80.551,62.2619,0.523161
80.586,62.2345,0.523161
80.614,62.2119,0.523161
80.645,62.1856,0.033595
80.676,62.1588,0.033595
80.710,62.1282,0.033595
80.738,62.1037,0.033595
80.769,62.0752,0.033595
80.801,62.0442,0.033595
80.832,62.0146,0.033595
80.863,61.9836,0.055879
80.894,61.9518,0.055879
80.926,61.9182,0.055879
80.956,61.8858,0.055879
80.987,61.8522,0.055879
81.018,61.8176,0.055879
81.049,61.7822,0.055879
81.080,61.7454,0.078671
81.110,61.7095,0.078671
81.142,61.6714,0.078671
81.173,61.6337,0.078671
81.204,61.5929,0.078671
81.235,61.5554,0.078671
81.265,61.5149,0.078671
81.296,61.4738,0.078671
81.328,61.4305,0.078671
81.358,61.3899,0.090707
81.389,61.3468,0.090707
81.420,61.3021,0.090707
81.451,61.2572,0.090707
81.483,61.2102,0.090707
81.515,61.1630,0.090707
81.547,61.1155,0.090707
81.577,61.0706,0.090707
81.608,61.0233,0.093530
81.640,60.9745,0.093530
81.671,60.9282,0.093530
81.701,60.8831,0.093530
81.732,60.8365,0.093530
81.763,60.7913,0.093530
81.794,60.7433,0.093530
81.825,60.6972,0.093530
81.856,60.6502,0.093530
81.888,60.6039,0.092824
81.918,60.5574,0.092824
81.949,60.5120,0.092824
81.979,60.4651,0.092824
82.012,60.4179,0.092824
82.044,60.3692,0.092824
82.074,60.3238,0.092824
82.105,60.2773,0.092824
82.136,60.2324,0.093859
82.167,60.1836,0.093859
82.197,60.1378,0.093859
82.229,60.0920,0.093859
82.260,60.0462,0.093859
82.291,59.9982,0.093859
82.322,59.9528,0.093859
82.353,59.9058,0.093859
82.387,59.8552,0.099722
82.415,59.8132,0.099722
82.449,59.7619,0.099722
82.476,59.7199,0.099722
82.508,59.6726,0.099722
82.539,59.6270,0.099722
82.570,59.5810,0.099722
82.601,59.5337,0.099722
82.632,59.4880,0.112351
82.660,59.4447,0.112351
82.694,59.3942,0.112351
82.726,59.3462,0.112351
82.758,59.2988,0.112351
82.788,59.2541,0.112351
82.819,59.2062,0.112351
82.850,59.1597,0.131877
82.883,59.1113,0.131877
82.912,59.0658,0.131877
82.943,59.0219,0.131877
82.974,58.9775,0.131877
83.004,58.9323,0.131877
83.035,58.8898,0.131877
83.067,58.8461,0.131877
83.098,58.8037,0.144873
83.130,58.7617,0.144873
83.162,58.7196,0.144873
83.192,58.6806,0.144873
83.223,58.6408,0.144873
83.254,58.6038,0.144873
83.286,58.5646,0.144873
83.317,58.5280,0.144873
83.348,58.4906,0.144873
83.380,58.4550,0.093737
83.411,58.4204,0.093737
83.441,58.3870,0.093737
83.474,58.3514,0.093737
83.504,58.3208,0.093737
83.535,58.2883,0.093737
83.566,58.2572,0.093737
83.603,58.2208,0.032014
83.629,58.1971,0.032014
83.660,58.1675,0.032014
83.691,58.1397,0.032014
83.721,58.1129,0.032014
83.751,58.0872,0.032014
83.782,58.0608,0.032014
83.813,58.0365,0.032014
83.844,58.0113,0.032014
83.875,57.9880,0.022331
83.906,57.9643,0.022331
83.938,57.9419,0.022331
83.968,57.9206,0.022331
83.998,57.9003,0.022331
84.029,57.8804,0.022331
84.059,57.8610,0.022331
84.091,57.8419,0.022331
84.121,57.8238,0.020712
84.152,57.8072,0.020712
84.183,57.7907,0.020712
84.212,57.7751,0.020712
84.243,57.7602,0.020712
84.276,57.7453,0.020712
84.306,57.7318,0.020712
84.337,57.7189,0.020712
84.368,57.7066,0.019903
84.399,57.6951,0.019903
84.430,57.6842,0.019903
84.461,57.6741,0.019903
84.492,57.6649,0.019903
84.524,57.6560,0.019903
84.556,57.6480,0.019903
84.586,57.6409,0.019903
84.617,57.6344,0.019282
84.648,57.6289,0.019282
84.678,57.6240,0.019282
84.709,57.6197,0.019282
84.741,57.6162,0.019282
84.771,57.6135,0.019282
84.803,57.6114,0.019282
84.834,57.6100,0.019282
84.865,57.6094,0.018783
84.896,57.6094,0.018783
84.927,57.6094,0.018783
84.957,57.6094,0.018783
84.989,57.6094,0.018783
85.020,57.6094,0.018783
85.052,57.6098,0.018783
85.083,57.6109,0.018783
85.114,57.6126,0.018595
85.145,57.6152,0.018595
85.176,57.6186,0.018595
85.207,57.6225,0.018595
85.238,57.6271,0.018595
85.269,57.6327,0.018595
85.300,57.6388,0.018595
85.332,57.6460,0.018595
85.362,57.6534,0.018595
85.396,57.6626,0.018313
85.423,57.6708,0.018313
85.455,57.6807,0.018313
85.486,57.6910,0.018313
85.517,57.7024,0.018313
85.548,57.7143,0.018313
85.579,57.7273,0.018313
85.610,57.7408,0.017946
85.643,57.7559,0.017946
85.674,57.7707,0.017946
85.705,57.7867,0.017946
85.736,57.8025,0.017946
85.767,57.8199,0.017946
85.798,57.8376,0.017946
85.829,57.8563,0.017946
85.859,57.8757,0.017635
85.891,57.8958,0.017635
85.921,57.9158,0.017635
85.953,57.9377,0.017635
85.987,57.9622,0.017635
86.014,57.9832,0.017635
86.046,58.0066,0.017635
86.076,58.0307,0.017635
86.107,58.0554,0.017127
86.138,58.0822,0.017127
86.169,58.1078,0.017127
86.200,58.1361,0.017127
86.231,58.1629,0.017127
86.263,58.1928,0.017127
86.294,58.2221,0.017127
86.324,58.2523,0.016374
86.356,58.2833,0.016374
86.386,58.3148,0.016374
86.418,58.3487,0.016374
86.450,58.3820,0.016374
86.480,58.4148,0.016374
86.510,58.4488,0.016374
86.542,58.4851,0.016374
86.573,58.5213,0.016374
86.605,58.5593,0.015235
86.636,58.5975,0.015235
86.668,58.6360,0.015235
86.698,58.6739,0.015235
86.731,58.7159,0.015235
86.760,58.7540,0.015235
86.793,58.7980,0.015235
86.823,58.8386,0.015235
86.854,58.8805,0.013438
86.884,58.9238,0.013438
86.918,58.9718,0.013438
86.948,59.0137,0.013438
86.979,59.0597,0.013438
87.009,59.1047,0.013438
87.040,59.1515,0.013438
87.071,59.1978,0.013438
87.101,59.2430,0.013438
87.131,59.2885,0.010878
87.163,59.3357,0.010878
87.193,59.3814,0.010878
87.225,59.4291,0.010878
87.257,59.4768,0.010878
87.288,59.5246,0.010878
87.319,59.5709,0.010878
87.351,59.6176,0.007820
87.381,59.6628,0.007820
87.411,59.7086,0.007820
87.443,59.7556,0.007820
87.474,59.8032,0.007820
87.505,59.8496,0.007820
87.536,59.8956,0.007820
87.567,59.9433,0.007820
87.599,59.9894,0.003821
87.630,60.0373,0.003821
87.661,60.0830,0.003821
87.692,60.1303,0.003821
87.723,60.1758,0.003821
87.754,60.2233,0.003821
87.786,60.2702,0.003821
87.816,60.3153,0.003821
87.848,60.3637,-0.002456
87.878,60.4100,-0.002456
87.908,60.4539,-0.002456
87.940,60.5009,-0.002456
87.971,60.5474,-0.002456
88.002,60.5951,-0.002456
88.033,60.6415,-0.002456
88.064,60.6876,-0.002456
88.095,60.7340,-0.002456
88.126,60.7808,-0.012055
88.158,60.8274,-0.012055
88.189,60.8753,-0.012055
88.220,60.9209,-0.012055
88.250,60.9678,-0.012055
88.281,61.0135,-0.012055
88.312,61.0603,-0.012055
88.343,61.1052,-0.026838
88.374,61.1531,-0.026838
88.405,61.1979,-0.026838
88.435,61.2423,-0.026838
88.466,61.2859,-0.026838
88.497,61.3305,-0.026838
88.529,61.3731,-0.026838
88.560,61.4150,-0.026838
88.590,61.4555,-0.050054
88.621,61.4965,-0.050054
88.653,61.5365,-0.050054
88.684,61.5768,-0.050054
88.715,61.6148,-0.050054
88.746,61.6527,-0.050054
88.778,61.6899,-0.050054
88.810,61.7275,-0.050054
88.840,61.7623,-0.084223
88.870,61.7967,-0.084223
88.901,61.8298,-0.084223
88.932,61.8635,-0.084223
88.963,61.8955,-0.084223
88.994,61.9275,-0.084223
89.025,61.9583,-0.084223
89.055,61.9888,-0.084223
89.087,62.0183,-0.132498
89.118,62.0486,-0.132498
89.149,62.0763,-0.132498
89.181,62.1045,-0.132498
89.212,62.1308,-0.132498
89.243,62.1570,-0.132498
89.273,62.1818,-0.132498
89.304,62.2064,-0.132498
89.335,62.2296,-0.210699
89.365,62.2526,-0.210699
89.397,62.2754,-0.210699
89.428,62.2973,-0.210699
89.459,62.3179,-0.210699
89.490,62.3385,-0.210699
89.521,62.3580,-0.210699
89.552,62.3770,-0.210699
89.584,62.3956,-0.358272
89.616,62.4129,-0.358272
89.648,62.4299,-0.358272
89.678,62.4458,-0.358272
89.709,62.4606,-0.358272
89.740,62.4752,-0.358272
89.771,62.4883,-0.358272
89.802,62.5014,-0.358272
89.835,62.5145,-0.358272
89.864,62.5249,-0.358272
89.895,62.5358,-0.591509
89.926,62.5458,-0.591509
89.957,62.5551,-0.591509
89.987,62.5633,-0.591509
90.021,62.5718,-0.591509
90.049,62.5781,-0.591509
90.082,62.5850,-0.591509
90.111,62.5902,-0.591509
90.145,62.5956,-0.902823
90.173,62.5993,-0.902823
90.205,62.6029,-0.902823
90.235,62.6055,-0.902823
90.266,62.6075,-0.902823
90.295,62.6088,-0.902823
90.327,62.6094,-1.140614
90.359,62.6094,-1.140614
90.391,62.6094,-1.140614
90.420,62.6094,-1.140614
90.451,62.6094,-1.140614
