Elapsed Time (s),Position (mm),Force (N)
-0.021,69.4093,-0.376105
0.010,69.4093,-0.376105
0.041,69.4093,-0.376105
0.072,69.4093,-0.376105
0.103,69.4093,-0.376105
0.135,69.4093,-0.376105
0.165,69.4093,-0.376105
0.196,69.4093,-0.290593
0.226,69.4093,-0.290593
0.257,69.4093,-0.290593
0.288,69.4093,-0.290593
0.319,69.4093,-0.290593
0.350,69.4093,-0.290593
0.380,69.4093,-0.290593
0.411,69.4093,-0.186410
0.441,69.4093,-0.186410
0.473,69.4093,-0.186410
0.505,69.4093,-0.186410
0.536,69.4093,-0.186410
0.566,69.4093,-0.186410
0.597,69.4093,-0.186410
0.627,69.4093,-0.186410
0.658,69.4093,-0.160908
0.690,69.4093,-0.160908
0.720,69.4093,-0.160908
0.752,69.4093,-0.160908
0.783,69.4093,-0.160908
0.814,69.4093,-0.160908
0.844,69.4093,-0.160908
0.874,69.4093,-0.160908
0.905,69.4093,-0.149503
0.936,69.4093,-0.149503
0.967,69.4093,-0.149503
0.997,69.4093,-0.149503
1.028,69.4093,-0.149503
1.058,69.4093,-0.149503
1.090,69.4093,-0.149503
1.121,69.4093,-0.149503
1.151,69.4093,-0.142022
1.182,69.4093,-0.142022
1.213,69.4093,-0.142022
1.244,69.4093,-0.142022
1.275,69.4093,-0.142022
1.306,69.4093,-0.142022
1.338,69.4093,-0.142022
1.369,69.4093,-0.142022
1.400,69.4093,-0.136611
1.431,69.4093,-0.136611
1.463,69.4093,-0.136611
1.493,69.4093,-0.136611
1.525,69.4093,-0.136611
1.556,69.4093,-0.136611
1.586,69.4093,-0.136611
1.617,69.4093,-0.136611
1.648,69.4093,-0.132282
1.678,69.4093,-0.132282
1.709,69.4093,-0.132282
1.740,69.4093,-0.132282
1.772,69.4093,-0.132282
1.802,69.4093,-0.132282
1.833,69.4093,-0.132282
1.865,69.4093,-0.132282
1.895,69.4093,-0.128725
1.926,69.4093,-0.128725
1.958,69.4093,-0.128725
1.989,69.4093,-0.128725
2.020,69.4093,-0.128725
2.051,69.4093,-0.128725
2.081,69.4093,-0.128725
2.112,69.4093,-0.128725
2.144,69.4093,-0.125902
2.174,69.4093,-0.125902
2.206,69.4093,-0.125902
2.236,69.4093,-0.125902
2.268,69.4093,-0.125902
2.298,69.4093,-0.125902
2.330,69.4093,-0.125902
2.360,69.4093,-0.125902
2.391,69.4093,-0.125902
2.422,69.4093,-0.123370
2.453,69.4093,-0.123370
2.484,69.4093,-0.123370
2.514,69.4093,-0.123370
2.546,69.4093,-0.123370
2.577,69.4093,-0.123370
2.609,69.4093,-0.123370
2.641,69.4093,-0.121140
2.672,69.4093,-0.121140
2.703,69.4093,-0.121140
2.735,69.4093,-0.121140
2.766,69.4093,-0.121140
2.797,69.4093,-0.121140
2.828,69.4093,-0.121140
2.859,69.4093,-0.121140
2.890,69.4093,-0.121140
2.921,69.4093,-0.119258
2.952,69.4093,-0.119258
2.984,69.4093,-0.119258
3.014,69.4093,-0.119258
3.047,69.4093,-0.119258
3.078,69.4093,-0.119258
3.107,69.4093,-0.119258
3.141,69.4093,-0.119258
3.169,69.4093,-0.119258
3.200,69.4093,-0.117489
3.231,69.4093,-0.117489
3.262,69.4093,-0.117489
3.292,69.4093,-0.117489
3.324,69.4093,-0.117489
3.355,69.4093,-0.117489
3.386,69.4093,-0.117489
3.418,69.4093,-0.117489
3.447,69.4093,-0.115945
3.478,69.4093,-0.115945
3.509,69.4093,-0.115945
3.540,69.4093,-0.115945
3.571,69.4093,-0.115945
3.603,69.4093,-0.115945
3.638,69.4093,-0.115945
3.664,69.4093,-0.114223
3.696,69.4093,-0.114223
3.727,69.4093,-0.114223
3.758,69.4093,-0.114223
3.789,69.4093,-0.114223
3.820,69.4093,-0.114223
3.851,69.4093,-0.114223
3.881,69.4093,-0.114223
3.912,69.4093,-0.112097
3.942,69.4093,-0.112097
3.973,69.4093,-0.112097
4.004,69.4093,-0.112097
4.035,69.4093,-0.112097
4.067,69.4093,-0.112097
4.099,69.4092,-0.112097
4.131,69.4085,-0.112097
4.161,69.4070,-0.110036
4.193,69.4049,-0.110036
4.224,69.4019,-0.110036
4.254,69.3984,-0.110036
4.285,69.3941,-0.110036
4.315,69.3893,-0.110036
4.346,69.3833,-0.110036
4.377,69.3769,-0.110036
4.408,69.3697,0.006521
4.439,69.3616,0.006521
4.469,69.3532,0.006521
4.509,69.3411,0.006521
4.546,69.3285,0.006521
4.577,69.3173,0.006521
4.610,69.3045,0.006521
4.640,69.2921,0.060556
4.671,69.2791,0.060556
4.701,69.2651,0.060556
4.732,69.2503,0.060556
4.764,69.2346,0.060556
4.795,69.2176,0.060556
4.827,69.2005,0.060556
4.858,69.1828,0.060556
4.888,69.1648,0.060556
4.919,69.1457,0.000574
4.949,69.1266,0.000574
4.980,69.1055,0.000574
5.011,69.0842,0.000574
5.041,69.0623,0.000574
5.072,69.0399,0.000574
5.106,69.0140,0.000574
5.134,68.9921,0.012139
5.165,68.9671,0.012139
5.197,68.9408,0.012139
5.227,68.9146,0.012139
5.258,68.8877,0.012139
5.289,68.8592,0.012139
5.319,68.8323,0.012139
5.350,68.8022,0.012139
5.382,68.7725,0.012139
5.413,68.7401,0.031205
5.445,68.7090,0.031205
5.475,68.6762,0.031205
5.507,68.6426,0.031205
5.539,68.6070,0.031205
5.570,68.5743,0.031205
5.601,68.5378,0.031205
5.632,68.5016,0.031205
5.663,68.4658,0.045913
5.693,68.4294,0.045913
5.724,68.3915,0.045913
5.756,68.3508,0.045913
5.787,68.3112,0.045913
5.818,68.2713,0.045913
5.849,68.2311,0.045913
5.879,68.1895,0.054401
5.910,68.1464,0.054401
5.942,68.1025,0.054401
5.973,68.0581,0.054401
6.004,68.0146,0.054401
6.034,67.9687,0.054401
6.066,67.9224,0.054401
6.098,67.8751,0.054401
6.128,67.8292,0.054401
6.160,67.7820,0.058928
6.190,67.7368,0.058928
6.221,67.6891,0.058928
6.253,67.6419,0.058928
6.285,67.5929,0.058928
6.317,67.5461,0.058928
6.348,67.4983,0.058928
6.378,67.4541,0.058928
6.416,67.3958,0.061440
6.457,67.3362,0.061440
6.488,67.2887,0.061440
6.520,67.2425,0.061440
6.551,67.1948,0.061440
6.587,67.1410,0.061440
6.627,67.0807,0.061440
6.658,67.0347,0.062071
6.689,66.9888,0.062071
6.719,66.9430,0.062071
6.749,66.8984,0.062071
6.779,66.8525,0.062071
6.811,66.8050,0.062071
6.843,66.7577,0.062071
6.874,66.7116,0.062071
6.907,66.6589,0.062071
6.935,66.6193,0.061516
6.966,66.5731,0.061516
6.997,66.5264,0.061516
7.028,66.4802,0.061516
7.059,66.4328,0.061516
7.090,66.3868,0.061516
7.121,66.3396,0.061516
7.152,66.2925,0.061516
7.183,66.2455,0.061516
7.215,66.1989,0.064659
7.246,66.1537,0.064659
7.277,66.1062,0.064659
7.308,66.0601,0.064659
7.338,66.0133,0.064659
7.369,65.9677,0.064659
7.400,65.9211,0.064659
7.431,65.8753,0.056707
7.462,65.8284,0.056707
7.494,65.7812,0.056707
7.525,65.7359,0.056707
7.557,65.6909,0.056707
7.587,65.6476,0.056707
7.618,65.6058,0.056707
7.649,65.5630,0.056707
7.681,65.5200,0.029313
7.712,65.4792,0.029313
7.743,65.4392,0.029313
7.780,65.3930,0.029313
7.806,65.3606,0.029313
7.837,65.3217,0.029313
7.868,65.2851,0.029313
7.900,65.2482,0.029313
7.931,65.2131,0.012591
7.961,65.1789,0.012591
7.992,65.1443,0.012591
8.023,65.1112,0.012591
8.054,65.0786,0.012591
8.085,65.0464,0.012591
8.117,65.0146,0.012591
8.148,64.9839,0.012591
8.179,64.9545,0.011490
8.210,64.9249,0.011490
8.240,64.8974,0.011490
8.271,64.8697,0.011490
8.303,64.8421,0.011490
8.334,64.8165,0.011490
8.365,64.7901,0.011490
8.397,64.7653,0.011085
8.427,64.7414,0.011085
8.459,64.7180,0.011085
8.490,64.6948,0.011085
8.521,64.6739,0.011085
8.553,64.6521,0.011085
8.586,64.6303,0.011085
8.615,64.6124,0.011085
8.645,64.5935,0.010897
8.675,64.5759,0.010897
8.706,64.5589,0.010897
8.737,64.5424,0.010897
8.771,64.5249,0.010897
8.800,64.5108,0.010897
8.833,64.4953,0.010897
8.860,64.4834,0.010897
8.893,64.4696,0.010690
8.923,64.4575,0.010690
8.954,64.4459,0.010690
8.985,64.4351,0.010690
9.016,64.4247,0.010690
9.047,64.4154,0.010690
9.081,64.4060,0.010690
9.110,64.3987,0.010690
9.140,64.3915,0.010690
9.172,64.3848,0.010690
9.203,64.3791,0.010511
9.234,64.3741,0.010511
9.265,64.3698,0.010511
9.297,64.3663,0.010511
9.328,64.3635,0.010511
9.359,64.3613,0.010511
9.390,64.3600,0.010511
9.420,64.3594,0.010361
9.453,64.3594,0.010361
9.482,64.3594,0.010361
9.514,64.3594,0.010361
9.544,64.3594,0.010361
9.576,64.3595,0.010361
9.607,64.3605,0.010361
9.637,64.3621,0.010361
9.668,64.3643,0.010304
9.699,64.3674,0.010304
9.731,64.3711,0.010304
9.762,64.3759,0.010304
9.793,64.3809,0.010304
9.825,64.3871,0.010304
9.856,64.3938,0.010304
9.886,64.4014,0.010304
9.918,64.4095,0.010304
9.950,64.4188,0.010144
9.980,64.4279,0.010144
10.011,64.4387,0.010144
10.042,64.4495,0.010144
10.073,64.4616,0.010144
10.104,64.4738,0.010144
10.136,64.4877,0.010144
10.166,64.5014,0.009881
10.196,64.5161,0.009881
10.226,64.5304,0.009881
10.257,64.5464,0.009881
10.287,64.5629,0.009881
10.319,64.5807,0.009881
10.351,64.6000,0.009881
10.382,64.6186,0.009881
10.411,64.6377,0.009664
10.442,64.6579,0.009664
10.473,64.6792,0.009664
10.504,64.7008,0.009664
10.534,64.7229,0.009664
10.566,64.7476,0.009664
10.595,64.7700,0.009664
10.626,64.7943,0.009664
10.657,64.8194,0.009363
10.688,64.8459,0.009363
10.719,64.8728,0.009363
10.750,64.9012,0.009363
10.781,64.9294,0.009363
10.812,64.9593,0.009363
10.843,64.9882,0.009363
10.874,65.0190,0.009363
10.905,65.0508,0.009015
10.937,65.0830,0.009015
10.968,65.1168,0.009015
10.999,65.1494,0.009015
11.030,65.1837,0.009015
11.061,65.2192,0.009015
11.093,65.2556,0.009015
11.124,65.2920,0.009015
11.154,65.3286,0.008648
11.185,65.3662,0.008648
11.217,65.4056,0.008648
11.248,65.4452,0.008648
11.279,65.4850,0.008648
11.310,65.5263,0.008648
11.341,65.5682,0.008648
11.372,65.6105,0.008648
11.404,65.6547,0.008055
11.436,65.6992,0.008055
11.466,65.7433,0.008055
11.498,65.7900,0.008055
11.527,65.8336,0.008055
11.558,65.8805,0.008055
11.589,65.9249,0.008055
11.620,65.9722,0.008055
11.650,66.0177,0.007255
11.681,66.0639,0.007255
11.712,66.1101,0.007255
11.742,66.1558,0.007255
11.774,66.2030,0.007255
11.809,66.2567,0.007255
11.837,66.2981,0.007255
11.868,66.3441,0.007255
11.899,66.3905,0.006277
11.929,66.4361,0.006277
11.960,66.4824,0.006277
11.991,66.5287,0.006277
12.022,66.5753,0.006277
12.053,66.6233,0.006277
12.084,66.6684,0.006277
12.115,66.7158,0.006277
12.146,66.7614,0.006277
12.177,66.8067,0.005091
12.208,66.8546,0.005091
12.239,66.9011,0.005091
12.270,66.9476,0.005091
12.301,66.9947,0.005091
12.334,67.0424,0.005091
12.363,67.0868,0.005091
12.394,67.1333,0.003491
12.428,67.1861,0.003491
12.455,67.2262,0.003491
12.486,67.2714,0.003491
12.517,67.3182,0.003491
12.548,67.3642,0.003491
12.579,67.4106,0.003491
12.610,67.4587,0.003491
12.641,67.5042,0.003491
12.673,67.5512,0.000753
12.703,67.5962,0.000753
12.734,67.6439,0.000753
12.765,67.6895,0.000753
12.796,67.7366,0.000753
12.825,67.7797,0.000753
12.855,67.8275,0.000753
12.885,67.8702,-0.004489
12.916,67.9156,-0.004489
12.946,67.9604,-0.004489
12.977,68.0048,-0.004489
13.008,68.0498,-0.004489
13.039,68.0921,-0.004489
13.070,68.1360,-0.004489
13.103,68.1782,-0.004489
13.133,68.2203,-0.004489
13.166,68.2619,-0.004489
13.194,68.2981,-0.014379
13.220,68.3305,-0.014379
13.257,68.3761,-0.014379
13.288,68.4134,-0.014379
13.319,68.4505,-0.014379
13.351,68.4869,-0.014379
13.382,68.5232,-0.030170
13.414,68.5579,-0.030170
13.444,68.5907,-0.030170
13.474,68.6233,-0.030170
13.505,68.6552,-0.030170
13.537,68.6874,-0.030170
13.567,68.7188,-0.030170
13.598,68.7479,-0.030170
13.628,68.7773,-0.030170
13.659,68.8050,-0.030170
13.690,68.8335,-0.052190
13.722,68.8614,-0.052190
13.753,68.8882,-0.052190
13.783,68.9133,-0.052190
13.814,68.9392,-0.052190
13.846,68.9631,-0.052190
13.877,68.9873,-0.052190
13.908,69.0101,-0.052190
13.940,69.0323,-0.080741
13.970,69.0539,-0.080741
14.001,69.0747,-0.080741
14.032,69.0944,-0.080741
14.062,69.1129,-0.080741
14.094,69.1319,-0.080741
14.124,69.1495,-0.080741
14.156,69.1671,-0.080741
14.186,69.1830,-0.120867
14.217,69.1989,-0.120867
14.248,69.2135,-0.120867
14.274,69.2254,-0.120867
14.309,69.2409,-0.120867
14.340,69.2537,-0.120867
14.371,69.2654,-0.120867
14.402,69.2769,-0.196743
14.433,69.2876,-0.196743
14.464,69.2971,-0.196743
14.495,69.3065,-0.196743
14.526,69.3150,-0.196743
14.557,69.3225,-0.196743
14.588,69.3296,-0.196743
14.619,69.3358,-0.196743
14.651,69.3414,-0.196743
14.682,69.3461,-0.309141
14.712,69.3501,-0.309141
14.743,69.3533,-0.309141
14.774,69.3560,-0.309141
14.805,69.3579,-0.309141
14.836,69.3590,-0.309141
14.868,69.3594,-0.309141
14.899,69.3594,-0.309141
14.929,69.3594,-0.376077
14.961,69.3594,-0.376077
14.991,69.3594,-0.376077
15.023,69.3594,-0.376077
15.053,69.3594,-0.376077
15.083,69.3594,-0.376077
15.115,69.3594,-0.376077
15.145,69.3594,-0.376077
15.176,69.3594,-0.294498
15.208,69.3594,-0.294498
15.239,69.3594,-0.294498
15.270,69.3594,-0.294498
15.301,69.3594,-0.294498
15.333,69.3594,-0.294498
15.364,69.3594,-0.294498
15.395,69.3594,-0.294498
15.426,69.3594,-0.187417
15.458,69.3594,-0.187417
15.491,69.3594,-0.187417
15.520,69.3594,-0.187417
15.551,69.3594,-0.187417
15.583,69.3594,-0.187417
15.614,69.3594,-0.187417
15.644,69.3594,-0.160786
15.674,69.3594,-0.160786
15.706,69.3594,-0.160786
15.736,69.3594,-0.160786
15.767,69.3594,-0.160786
15.799,69.3594,-0.160786
15.829,69.3594,-0.160786
15.860,69.3594,-0.160786
15.891,69.3594,-0.149136
15.923,69.3594,-0.149136
15.953,69.3594,-0.149136
15.985,69.3594,-0.149136
16.016,69.3594,-0.149136
16.047,69.3594,-0.149136
16.078,69.3594,-0.149136
16.110,69.3594,-0.149136
16.141,69.3594,-0.141730
16.172,69.3594,-0.141730
16.203,69.3594,-0.141730
16.234,69.3594,-0.141730
16.265,69.3594,-0.141730
16.296,69.3594,-0.141730
16.327,69.3594,-0.141730
16.358,69.3594,-0.141730
16.399,69.3594,-0.141730
16.435,69.3594,-0.136291
16.467,69.3594,-0.136291
16.499,69.3594,-0.136291
16.530,69.3594,-0.136291
16.562,69.3594,-0.136291
16.594,69.3594,-0.136291
16.624,69.3594,-0.136291
16.656,69.3594,-0.132018
16.687,69.3594,-0.132018
16.718,69.3594,-0.132018
16.750,69.3594,-0.132018
16.781,69.3594,-0.132018
16.811,69.3594,-0.132018
16.842,69.3594,-0.132018
16.872,69.3594,-0.132018
16.903,69.3594,-0.132018
16.933,69.3594,-0.128508
16.965,69.3594,-0.128508
16.997,69.3594,-0.128508
17.027,69.3594,-0.128508
17.058,69.3594,-0.128508
17.088,69.3594,-0.128508
17.121,69.3594,-0.128508
17.151,69.3594,-0.125572
17.183,69.3594,-0.125572
17.214,69.3594,-0.125572
17.246,69.3594,-0.125572
17.277,69.3594,-0.125572
17.308,69.3594,-0.125572
17.340,69.3594,-0.125572
17.372,69.3594,-0.125572
17.402,69.3594,-0.125572
17.433,69.3594,-0.123031
17.464,69.3594,-0.123031
17.495,69.3594,-0.123031
17.526,69.3594,-0.123031
17.556,69.3594,-0.123031
17.587,69.3594,-0.123031
17.622,69.3594,-0.123031
17.649,69.3594,-0.120829
17.679,69.3594,-0.120829
17.710,69.3594,-0.120829
17.741,69.3594,-0.120829
17.772,69.3594,-0.120829
17.802,69.3594,-0.120829
17.833,69.3594,-0.120829
17.864,69.3594,-0.120829
17.894,69.3594,-0.118976
17.925,69.3594,-0.118976
17.956,69.3594,-0.118976
17.987,69.3594,-0.118976
18.018,69.3594,-0.118976
18.050,69.3594,-0.118976
18.080,69.3594,-0.118976
18.112,69.3594,-0.118976
18.143,69.3594,-0.117282
18.174,69.3594,-0.117282
18.205,69.3594,-0.117282
18.236,69.3594,-0.117282
18.270,69.3594,-0.117282
18.297,69.3594,-0.117282
18.329,69.3594,-0.117282
18.359,69.3594,-0.117282
18.390,69.3594,-0.117282
18.422,69.3594,-0.115691
18.453,69.3594,-0.115691
18.484,69.3594,-0.115691
18.516,69.3594,-0.115691
18.546,69.3594,-0.115691
18.578,69.3594,-0.115691
18.608,69.3594,-0.115691
18.640,69.3594,-0.115691
18.671,69.3594,-0.114214
18.702,69.3594,-0.114214
18.733,69.3594,-0.114214
18.766,69.3594,-0.114214
18.795,69.3594,-0.114214
18.826,69.3594,-0.114214
18.858,69.3594,-0.114214
18.888,69.3594,-0.114214
18.919,69.3594,-0.112426
18.951,69.3594,-0.112426
18.982,69.3594,-0.112426
19.013,69.3594,-0.112426
19.044,69.3594,-0.112426
19.076,69.3594,-0.112426
19.107,69.3594,-0.112426
19.137,69.3594,-0.112426
19.168,69.3594,-0.110337
19.199,69.3594,-0.110337
19.230,69.3594,-0.110337
19.261,69.3587,-0.110337
19.292,69.3574,-0.110337
19.323,69.3553,-0.110337
19.354,69.3525,-0.110337
19.385,69.3491,-0.107034
19.416,69.3447,-0.107034
19.447,69.3398,-0.107034
19.478,69.3341,-0.107034
19.509,69.3275,-0.107034
19.541,69.3202,-0.107034
19.572,69.3122,-0.107034
19.604,69.3032,-0.107034
19.635,69.2941,-0.107034
19.665,69.2841,0.010389
19.695,69.2737,0.010389
19.726,69.2620,0.010389
19.756,69.2502,0.010389
19.787,69.2373,0.010389
19.818,69.2238,0.010389
19.848,69.2099,0.010389
19.879,69.1944,0.010389
19.910,69.1788,0.060528
19.940,69.1627,0.060528
19.971,69.1453,0.060528
20.002,69.1276,0.060528
20.033,69.1086,0.060528
20.064,69.0892,0.060528
20.096,69.0684,0.060528
20.126,69.0481,0.060528
20.157,69.0260,0.060528
20.188,69.0044,0.003237
20.219,68.9807,0.003237
20.249,68.9578,0.003237
20.282,68.9320,0.003237
20.312,68.9074,0.003237
20.343,68.8810,0.003237
20.374,68.8545,0.003237
20.405,68.8264,0.003237
20.436,68.7994,0.020778
20.468,68.7686,0.020778
20.499,68.7396,0.020778
20.530,68.7082,0.020778
20.560,68.6788,0.020778
20.592,68.6462,0.020778
20.623,68.6135,0.020778
20.654,68.5802,0.020778
20.686,68.5445,0.037980
20.716,68.5108,0.037980
20.747,68.4761,0.037980
20.778,68.4392,0.037980
20.809,68.4026,0.037980
20.839,68.3657,0.037980
20.870,68.3276,0.037980
20.901,68.2884,0.037980
20.933,68.2477,0.049292
20.963,68.2083,0.049292
20.994,68.1665,0.049292
21.025,68.1252,0.049292
21.055,68.0827,0.049292
21.086,68.0401,0.049292
21.117,67.9963,0.049292
21.148,67.9508,0.055267
21.178,67.9057,0.055267
21.208,67.8619,0.055267
21.239,67.8143,0.055267
21.270,67.7695,0.055267
21.301,67.7215,0.055267
21.332,67.6769,0.055267
21.363,67.6282,0.055267
21.395,67.5815,0.058843
21.426,67.5345,0.058843
21.456,67.4905,0.058843
21.487,67.4436,0.058843
21.518,67.3959,0.058843
21.549,67.3504,0.058843
21.580,67.3052,0.058843
21.611,67.2573,0.058843
21.641,67.2124,0.058843
21.671,67.1665,0.061120
21.703,67.1206,0.061120
21.733,67.0745,0.061120
21.764,67.0272,0.061120
21.795,66.9815,0.061120
21.826,66.9346,0.061120
21.858,66.8872,0.061120
21.888,66.8417,0.061120
21.919,66.7954,0.061102
21.951,66.7476,0.061102
21.981,66.7022,0.061102
22.012,66.6574,0.061102
22.043,66.6100,0.061102
22.075,66.5619,0.061102
22.105,66.5160,0.061102
22.136,66.4707,0.061215
22.167,66.4245,0.061215
22.198,66.3767,0.061215
22.230,66.3300,0.061215
22.261,66.2826,0.061215
22.292,66.2363,0.061215
22.323,66.1902,0.061215
22.354,66.1422,0.061215
22.385,66.0963,0.063878
22.417,66.0479,0.063878
22.446,66.0058,0.063878
22.478,65.9574,0.063878
22.507,65.9125,0.063878
22.538,65.8672,0.063878
22.570,65.8191,0.063878
22.602,65.7714,0.063878
22.632,65.7271,0.041133
22.664,65.6807,0.041133
22.694,65.6387,0.041133
22.724,65.5943,0.041133
22.755,65.5527,0.041133
22.786,65.5097,0.041133
22.817,65.4689,0.041133
22.849,65.4276,0.041133
22.879,65.3881,0.041133
22.910,65.3487,0.014436
22.941,65.3106,0.014436
22.973,65.2712,0.014436
23.004,65.2347,0.014436
23.035,65.1974,0.014436
23.066,65.1627,0.014436
23.096,65.1286,0.014436
23.128,65.0943,0.014436
23.157,65.0620,0.011866
23.188,65.0287,0.011866
23.219,64.9972,0.011866
23.251,64.9658,0.011866
23.286,64.9311,0.011866
23.312,64.9061,0.011866
23.343,64.8764,0.011866
23.374,64.8485,0.011866
23.408,64.8179,0.011866
23.436,64.7943,0.011866
23.467,64.7674,0.011321
23.497,64.7430,0.011321
23.529,64.7177,0.011321
23.559,64.6941,0.011321
23.591,64.6703,0.011321
23.621,64.6483,0.011321
23.652,64.6266,0.011321
23.683,64.6054,0.011010
23.718,64.5821,0.011010
23.744,64.5654,0.011010
23.775,64.5466,0.011010
23.807,64.5283,0.011010
23.837,64.5112,0.011010
23.867,64.4949,0.011010
23.898,64.4792,0.011010
23.928,64.4640,0.010756
23.960,64.4489,0.010756
23.990,64.4356,0.010756
24.021,64.4222,0.010756
24.052,64.4100,0.010756
24.082,64.3983,0.010756
24.113,64.3874,0.010756
24.145,64.3768,0.010756
24.176,64.3675,0.010587
24.207,64.3585,0.010587
24.239,64.3499,0.010587
24.269,64.3430,0.010587
24.301,64.3362,0.010587
24.332,64.3302,0.010587
24.363,64.3250,0.010587
24.395,64.3205,0.010587
24.426,64.3168,0.010464
24.458,64.3140,0.010464
24.488,64.3117,0.010464
24.519,64.3102,0.010464
24.551,64.3095,0.010464
24.582,64.3094,0.010464
24.612,64.3094,0.010464
24.643,64.3094,0.010370
24.674,64.3094,0.010370
24.706,64.3094,0.010370
24.738,64.3094,0.010370
24.768,64.3099,0.010370
24.799,64.3110,0.010370
24.829,64.3130,0.010370
24.860,64.3156,0.010370
24.891,64.3189,0.010370
24.922,64.3230,0.010323
24.953,64.3277,0.010323
24.983,64.3332,0.010323
25.015,64.3396,0.010323
25.046,64.3466,0.010323
25.076,64.3541,0.010323
25.107,64.3626,0.010323
25.138,64.3715,0.010323
25.168,64.3814,0.010182
25.201,64.3926,0.010182
25.232,64.4039,0.010182
25.262,64.4155,0.010182
25.293,64.4287,0.010182
25.324,64.4422,0.010182
25.355,64.4563,0.010182
25.386,64.4710,0.010182
25.417,64.4871,0.009853
25.448,64.5036,0.009853
25.480,64.5212,0.009853
25.511,64.5389,0.009853
25.542,64.5579,0.009853
25.573,64.5770,0.009853
25.604,64.5967,0.009853
25.635,64.6177,0.009853
25.666,64.6392,0.009561
25.697,64.6616,0.009561
25.728,64.6842,0.009561
25.757,64.7075,0.009561
25.788,64.7312,0.009561
25.819,64.7562,0.009561
25.852,64.7840,0.009561
25.879,64.8072,0.009326
25.910,64.8352,0.009326
25.940,64.8615,0.009326
25.972,64.8914,0.009326
26.002,64.9197,0.009326
26.033,64.9505,0.009326
26.065,64.9812,0.009326
26.095,65.0128,0.009326
26.125,65.0438,0.009326
26.156,65.0763,0.008996
26.187,65.1097,0.008996
26.218,65.1452,0.008996
26.249,65.1804,0.008996
26.280,65.2155,0.008996
26.311,65.2529,0.008996
26.342,65.2908,0.008996
26.373,65.3282,0.008996
26.404,65.3678,0.008996
26.436,65.4070,0.008498
26.467,65.4475,0.008498
26.498,65.4890,0.008498
26.530,65.5318,0.008498
26.560,65.5739,0.008498
26.592,65.6184,0.008498
26.623,65.6616,0.008498
26.654,65.7077,0.008498
26.685,65.7528,0.007811
26.716,65.7987,0.007811
26.747,65.8452,0.007811
26.778,65.8924,0.007811
26.810,65.9405,0.007811
26.841,65.9862,0.007811
26.872,66.0319,0.007811
26.902,66.0773,0.007811
26.933,66.1246,0.006964
26.964,66.1723,0.006964
26.996,66.2182,0.006964
27.026,66.2650,0.006964
27.058,66.3114,0.006964
27.088,66.3576,0.006964
27.119,66.4036,0.006964
27.150,66.4495,0.006964
27.182,66.4974,0.006023
27.213,66.5439,0.006023
27.244,66.5898,0.006023
27.274,66.6357,0.006023
27.305,66.6817,0.006023
27.336,66.7275,0.006023
27.367,66.7757,0.006023
27.398,66.8216,0.006023
27.430,66.8698,0.004771
27.460,66.9150,0.004771
27.491,66.9627,0.004771
27.523,67.0107,0.004771
27.553,67.0548,0.004771
27.584,67.1010,0.004771
27.616,67.1499,0.004771
27.647,67.1963,0.004771
27.679,67.2434,0.004771
27.710,67.2899,0.002880
27.741,67.3365,0.002880
27.773,67.3839,0.002880
27.804,67.4307,0.002880
27.835,67.4779,0.002880
27.865,67.5227,0.002880
27.897,67.5701,0.002880
27.929,67.6172,-0.000320
27.961,67.6661,-0.000320
27.992,67.7117,-0.000320
28.021,67.7566,-0.000320
28.054,67.8051,-0.000320
28.083,67.8497,-0.000320
28.114,67.8945,-0.000320
28.145,67.9402,-0.006559
28.175,67.9834,-0.006559
28.206,68.0265,-0.006559
28.237,68.0700,-0.006559
28.268,68.1106,-0.006559
28.299,68.1536,-0.006559
28.330,68.1933,-0.006559
28.361,68.2334,-0.006559
28.391,68.2712,-0.018011
28.422,68.3106,-0.018011
28.453,68.3473,-0.018011
28.485,68.3869,-0.018011
28.514,68.4201,-0.018011
28.546,68.4562,-0.018011
28.576,68.4900,-0.018011
28.607,68.5244,-0.018011
28.637,68.5577,-0.035665
28.668,68.5891,-0.035665
28.701,68.6239,-0.035665
28.730,68.6528,-0.035665
28.761,68.6834,-0.035665
28.792,68.7132,-0.035665
28.823,68.7416,-0.035665
28.854,68.7704,-0.035665
28.884,68.7974,-0.035665
28.915,68.8240,-0.059690
28.946,68.8507,-0.059690
28.976,68.8754,-0.059690
29.007,68.8997,-0.059690
29.037,68.9239,-0.059690
29.068,68.9466,-0.059690
29.099,68.9692,-0.059690
29.130,68.9911,-0.059690
29.162,69.0126,-0.090349
29.192,69.0329,-0.090349
29.223,69.0522,-0.090349
29.254,69.0716,-0.090349
29.285,69.0892,-0.090349
29.317,69.1075,-0.090349
29.347,69.1238,-0.090349
29.381,69.1416,-0.090349
29.409,69.1553,-0.138097
29.440,69.1701,-0.138097
29.471,69.1835,-0.138097
29.502,69.1969,-0.138097
29.536,69.2102,-0.138097
29.565,69.2212,-0.138097
29.596,69.2325,-0.138097
29.627,69.2428,-0.226499
29.659,69.2523,-0.226499
29.690,69.2610,-0.226499
29.720,69.2690,-0.226499
29.751,69.2761,-0.226499
29.782,69.2827,-0.226499
29.814,69.2888,-0.226499
29.844,69.2939,-0.226499
29.875,69.2982,-0.226499
29.907,69.3019,-0.226499
29.936,69.3048,-0.339574
29.968,69.3070,-0.339574
29.999,69.3085,-0.339574
30.030,69.3093,-0.339574
30.061,69.3094,-0.339574
30.092,69.3094,-0.339574
30.122,69.3094,-0.339574
30.153,69.3094,-0.339574
30.184,69.3094,-0.359552
30.215,69.3094,-0.359552
30.247,69.3094,-0.359552
30.277,69.3094,-0.359552
30.308,69.3094,-0.359552
30.339,69.3094,-0.359552
30.370,69.3094,-0.359552
30.402,69.3094,-0.359552
30.432,69.3094,-0.257572
30.463,69.3094,-0.257572
30.493,69.3094,-0.257572
30.525,69.3094,-0.257572
30.556,69.3094,-0.257572
30.586,69.3094,-0.257572
30.617,69.3094,-0.257572
30.649,69.3094,-0.257572
30.679,69.3094,-0.177442
30.710,69.3094,-0.177442
30.741,69.3094,-0.177442
30.772,69.3094,-0.177442
30.803,69.3094,-0.177442
30.835,69.3094,-0.177442
30.866,69.3094,-0.177442
30.897,69.3094,-0.177442
30.928,69.3094,-0.177442
30.959,69.3094,-0.157652
30.990,69.3094,-0.157652
31.020,69.3094,-0.157652
31.051,69.3094,-0.157652
31.083,69.3094,-0.157652
31.114,69.3094,-0.157652
31.144,69.3094,-0.157652
31.176,69.3094,-0.147461
31.207,69.3094,-0.147461
31.237,69.3094,-0.147461
31.267,69.3094,-0.147461
31.299,69.3094,-0.147461
31.329,69.3094,-0.147461
31.360,69.3094,-0.147461
31.390,69.3094,-0.147461
31.421,69.3094,-0.140619
31.452,69.3094,-0.140619
31.483,69.3094,-0.140619
31.515,69.3094,-0.140619
31.545,69.3094,-0.140619
31.576,69.3094,-0.140619
31.607,69.3094,-0.140619
31.638,69.3094,-0.140619
31.669,69.3094,-0.140619
31.700,69.3094,-0.135594
31.731,69.3094,-0.135594
31.765,69.3094,-0.135594
31.793,69.3094,-0.135594
31.825,69.3094,-0.135594
31.855,69.3094,-0.135594
31.886,69.3094,-0.135594
31.917,69.3094,-0.135594
31.948,69.3094,-0.131548
31.980,69.3094,-0.131548
32.011,69.3094,-0.131548
32.041,69.3094,-0.131548
32.073,69.3094,-0.131548
32.104,69.3094,-0.131548
32.135,69.3094,-0.131548
32.166,69.3094,-0.131548
32.196,69.3094,-0.128141
32.227,69.3094,-0.128141
32.258,69.3094,-0.128141
32.288,69.3094,-0.128141
32.319,69.3094,-0.128141
32.350,69.3094,-0.128141
32.381,69.3094,-0.128141
32.414,69.3094,-0.128141
32.443,69.3094,-0.125346
32.474,69.3094,-0.125346
32.504,69.3094,-0.125346
32.535,69.3094,-0.125346
32.566,69.3094,-0.125346
32.597,69.3094,-0.125346
32.628,69.3094,-0.125346
32.659,69.3094,-0.122937
32.692,69.3094,-0.122937
32.721,69.3094,-0.122937
32.752,69.3094,-0.122937
32.783,69.3094,-0.122937
32.815,69.3094,-0.122937
32.846,69.3094,-0.122937
32.877,69.3094,-0.122937
32.908,69.3094,-0.120763
32.940,69.3094,-0.120763
32.970,69.3094,-0.120763
33.002,69.3094,-0.120763
33.034,69.3094,-0.120763
33.065,69.3094,-0.120763
33.095,69.3094,-0.120763
33.126,69.3094,-0.120763
33.157,69.3094,-0.118900
33.190,69.3094,-0.118900
33.218,69.3094,-0.118900
33.249,69.3094,-0.118900
33.280,69.3094,-0.118900
33.310,69.3094,-0.118900
33.344,69.3094,-0.118900
33.373,69.3094,-0.118900
33.405,69.3094,-0.117263
33.434,69.3094,-0.117263
33.465,69.3094,-0.117263
33.496,69.3094,-0.117263
33.527,69.3094,-0.117263
33.558,69.3094,-0.117263
33.589,69.3094,-0.117263
33.620,69.3094,-0.117263
33.650,69.3094,-0.115785
33.681,69.3094,-0.115785
33.713,69.3094,-0.115785
33.744,69.3094,-0.115785
33.776,69.3094,-0.115785
33.807,69.3094,-0.115785
33.838,69.3094,-0.115785
33.869,69.3094,-0.115785
33.900,69.3094,-0.115785
33.931,69.3094,-0.114026
33.963,69.3094,-0.114026
33.995,69.3094,-0.114026
34.026,69.3094,-0.114026
34.056,69.3094,-0.114026
34.088,69.3094,-0.114026
34.118,69.3094,-0.114026
34.149,69.3094,-0.114026
34.180,69.3094,-0.114026
34.212,69.3094,-0.111833
34.243,69.3094,-0.111833
34.274,69.3094,-0.111833
34.305,69.3094,-0.111833
34.335,69.3090,-0.111833
34.366,69.3080,-0.111833
34.397,69.3063,-0.111833
34.427,69.3038,-0.109904
34.457,69.3007,-0.109904
34.489,69.2967,-0.109904
34.520,69.2921,-0.109904
34.550,69.2869,-0.109904
34.581,69.2809,-0.109904
34.612,69.2739,-0.109904
34.637,69.2678,-0.109904
34.673,69.2582,0.046403
34.704,69.2494,0.046403
34.735,69.2396,0.046403
34.765,69.2295,0.046403
34.796,69.2186,0.046403
34.827,69.2066,0.046403
34.858,69.1943,0.046403
34.889,69.1808,0.046403
34.919,69.1671,0.099364
34.950,69.1525,0.099364
34.982,69.1365,0.099364
35.013,69.1205,0.099364
35.044,69.1033,0.099364
35.075,69.0855,0.099364
35.106,69.0674,0.099364
35.138,69.0472,0.099364
35.169,69.0275,0.000461
35.200,69.0068,0.000461
35.232,68.9849,0.000461
35.263,68.9634,0.000461
35.293,68.9407,0.000461
35.324,68.9166,0.000461
35.356,68.8922,0.000461
35.387,68.8675,0.000461
35.418,68.8417,0.014106
35.449,68.8154,0.014106
35.483,68.7851,0.014106
35.511,68.7601,0.014106
35.544,68.7285,0.014106
35.573,68.7022,0.014106
35.606,68.6690,0.014106
35.635,68.6406,0.014106
35.669,68.6065,0.032626
35.697,68.5770,0.032626
35.730,68.5427,0.032626
35.760,68.5094,0.032626
35.791,68.4745,0.032626
35.821,68.4406,0.032626
35.853,68.4038,0.032626
35.885,68.3656,0.032626
35.914,68.3305,0.032626
35.949,68.2872,0.046261
35.976,68.2533,0.046261
36.009,68.2112,0.046261
36.038,68.1746,0.046261
36.068,68.1335,0.046261
36.100,68.0920,0.046261
36.131,68.0483,0.046261
36.162,68.0053,0.053818
36.193,67.9621,0.053818
36.224,67.9166,0.053818
36.258,67.8661,0.053818
36.286,67.8254,0.053818
36.316,67.7793,0.053818
36.347,67.7327,0.053818
36.380,67.6857,0.053818
36.410,67.6397,0.057855
36.441,67.5938,0.057855
36.471,67.5476,0.057855
36.502,67.5015,0.057855
36.532,67.4562,0.057855
36.563,67.4108,0.057855
36.593,67.3646,0.057855
36.629,67.3109,0.057855
36.656,67.2698,0.060471
36.687,67.2237,0.060471
36.718,67.1777,0.060471
36.749,67.1315,0.060471
36.780,67.0842,0.060471
36.811,67.0380,0.060471
36.845,66.9869,0.060471
36.873,66.9450,0.060471
36.903,66.8996,0.061478
36.935,66.8520,0.061478
36.966,66.8055,0.061478
36.997,66.7590,0.061478
37.028,66.7125,0.061478
37.058,66.6678,0.061478
37.089,66.6203,0.061478
37.120,66.5744,0.061478
37.152,66.5269,0.061478
37.183,66.4797,0.060688
37.214,66.4338,0.060688
37.245,66.3854,0.060688
37.278,66.3374,0.060688
37.309,66.2915,0.060688
37.340,66.2451,0.060688
37.370,66.1992,0.060688
37.400,66.1537,0.060688
37.431,66.1080,0.060688
37.463,66.0607,0.063125
37.494,66.0138,0.063125
37.526,65.9662,0.063125
37.556,65.9206,0.063125
37.587,65.8742,0.063125
37.618,65.8279,0.063125
37.649,65.7809,0.063125
37.680,65.7342,0.047231
37.711,65.6873,0.047231
37.742,65.6434,0.047231
37.773,65.5987,0.047231
37.803,65.5564,0.047231
37.834,65.5129,0.047231
37.865,65.4714,0.047231
37.895,65.4305,0.047231
37.926,65.3899,0.020515
37.957,65.3502,0.020515
37.988,65.3110,0.020515
38.019,65.2722,0.020515
38.050,65.2338,0.020515
38.081,65.1960,0.020515
38.112,65.1599,0.020515
38.144,65.1228,0.020515
38.174,65.0889,0.012328
38.206,65.0531,0.012328
38.236,65.0202,0.012328
38.268,64.9868,0.012328
38.300,64.9542,0.012328
38.330,64.9227,0.012328
38.361,64.8932,0.012328
38.391,64.8631,0.012328
38.422,64.8342,0.011490
38.453,64.8061,0.011490
38.484,64.7777,0.011490
38.515,64.7509,0.011490
38.546,64.7242,0.011490
38.577,64.6988,0.011490
38.609,64.6734,0.011490
38.640,64.6488,0.011490
38.671,64.6256,0.011123
38.702,64.6026,0.011123
38.734,64.5805,0.011123
38.765,64.5590,0.011123
38.796,64.5387,0.011123
38.827,64.5185,0.011123
38.858,64.4998,0.011123
38.889,64.4810,0.011123
38.920,64.4634,0.010916
38.952,64.4458,0.010916
38.983,64.4298,0.010916
39.014,64.4144,0.010916
39.046,64.3998,0.010916
39.076,64.3858,0.010916
39.106,64.3730,0.010916
39.137,64.3606,0.010916
39.168,64.3491,0.010728
39.198,64.3380,0.010728
39.229,64.3279,0.010728
39.261,64.3179,0.010728
39.291,64.3094,0.010728
39.322,64.3012,0.010728
39.353,64.2937,0.010728
39.384,64.2869,0.010728
39.415,64.2810,0.010596
39.447,64.2756,0.010596
39.478,64.2712,0.010596
39.509,64.2673,0.010596
39.540,64.2642,0.010596
39.571,64.2620,0.010596
39.602,64.2604,0.010596
39.633,64.2595,0.010596
39.664,64.2594,0.010596
39.696,64.2594,0.010483
39.726,64.2594,0.010483
39.757,64.2594,0.010483
39.787,64.2595,0.010483
39.819,64.2601,0.010483
39.850,64.2616,0.010483
39.881,64.2639,0.010483
39.912,64.2668,0.010342
39.944,64.2706,0.010342
39.975,64.2751,0.010342
40.007,64.2802,0.010342
40.037,64.2862,0.010342
40.068,64.2924,0.010342
40.100,64.2998,0.010342
40.131,64.3080,0.010342
40.162,64.3169,0.010173
40.192,64.3262,0.010173
40.224,64.3365,0.010173
40.257,64.3481,0.010173
40.286,64.3596,0.010173
40.318,64.3721,0.010173
40.348,64.3850,0.010173
40.379,64.3985,0.010173
40.410,64.4137,0.009956
40.440,64.4281,0.009956
40.471,64.4443,0.009956
40.502,64.4612,0.009956
40.533,64.4790,0.009956
40.564,64.4968,0.009956
40.596,64.5164,0.009956
40.626,64.5351,0.009956
40.657,64.5554,0.009730
40.687,64.5758,0.009730
40.719,64.5984,0.009730
40.748,64.6204,0.009730
40.780,64.6435,0.009730
40.811,64.6681,0.009730
40.841,64.6920,0.009730
40.872,64.7168,0.009730
40.903,64.7435,0.009495
40.933,64.7694,0.009495
40.965,64.7983,0.009495
40.995,64.8251,0.009495
41.026,64.8542,0.009495
41.058,64.8846,0.009495
41.091,64.9173,0.009495
41.120,64.9470,0.009495
41.152,64.9801,0.009495
41.182,65.0115,0.009175
41.217,65.0505,0.009175
41.244,65.0789,0.009175
41.274,65.1134,0.009175
41.305,65.1486,0.009175
41.336,65.1847,0.009175
41.367,65.2213,0.009175
41.401,65.2641,0.008648
41.429,65.2976,0.008648
41.460,65.3377,0.008648
41.490,65.3759,0.008648
41.521,65.4163,0.008648
41.552,65.4587,0.008648
41.583,65.5007,0.008648
41.614,65.5439,0.008648
41.647,65.5889,0.007971
41.677,65.6315,0.007971
41.708,65.6779,0.007971
41.739,65.7239,0.007971
41.770,65.7710,0.007971
41.801,65.8156,0.007971
41.832,65.8626,0.007971
41.862,65.9080,0.007971
41.893,65.9555,0.007971
41.925,66.0014,0.007190
41.955,66.0483,0.007190
41.986,66.0931,0.007190
42.018,66.1412,0.007190
42.047,66.1859,0.007190
42.079,66.2327,0.007190
42.109,66.2796,0.007190
42.140,66.3251,0.007190
42.171,66.3715,0.006296
42.202,66.4185,0.006296
42.233,66.4638,0.006296
42.264,66.5109,0.006296
42.294,66.5561,0.006296
42.325,66.6033,0.006296
42.356,66.6491,0.006296
42.388,66.6974,0.006296
42.419,66.7431,0.005119
42.452,66.7925,0.005119
42.481,66.8362,0.005119
42.513,66.8847,0.005119
42.544,66.9307,0.005119
42.575,66.9772,0.005119
42.606,67.0240,0.005119
42.637,67.0704,0.005119
42.667,67.1158,0.003312
42.697,67.1609,0.003312
42.728,67.2071,0.003312
42.759,67.2543,0.003312
42.790,67.3011,0.003312
42.821,67.3475,0.003312
42.852,67.3922,0.003312
42.883,67.4397,0.003312
42.914,67.4846,0.003312
42.945,67.5315,0.000358
42.975,67.5783,0.000358
43.006,67.6240,0.000358
43.037,67.6705,0.000358
43.069,67.7177,0.000358
43.098,67.7621,0.000358
43.129,67.8083,0.000358
43.161,67.8545,-0.005232
43.191,67.8996,-0.005232
43.222,67.9426,-0.005232
43.254,67.9873,-0.005232
43.285,68.0301,-0.005232
43.316,68.0719,-0.005232
43.347,68.1147,-0.005232
43.379,68.1547,-0.015668
43.410,68.1945,-0.015668
43.441,68.2339,-0.015668
43.472,68.2722,-0.015668
43.503,68.3091,-0.015668
43.534,68.3468,-0.015668
43.565,68.3826,-0.015668
43.596,68.4183,-0.015668
43.627,68.4525,-0.015668
43.659,68.4875,-0.015668
43.690,68.5205,-0.032325
43.721,68.5531,-0.032325
43.752,68.5848,-0.032325
43.784,68.6167,-0.032325
43.815,68.6473,-0.032325
43.846,68.6761,-0.032325
43.877,68.7053,-0.032325
43.908,68.7334,-0.032325
43.939,68.7603,-0.055465
43.971,68.7882,-0.055465
44.002,68.8134,-0.055465
44.032,68.8382,-0.055465
44.066,68.8646,-0.055465
44.093,68.8858,-0.055465
44.124,68.9082,-0.055465
44.155,68.9306,-0.084863
44.190,68.9549,-0.084863
44.217,68.9725,-0.084863
44.250,68.9944,-0.084863
44.278,69.0114,-0.084863
44.309,69.0306,-0.084863
44.340,69.0478,-0.084863
44.371,69.0652,-0.084863
44.401,69.0811,-0.127981
44.432,69.0968,-0.127981
44.463,69.1117,-0.127981
44.495,69.1263,-0.127981
44.525,69.1397,-0.127981
44.557,69.1530,-0.127981
44.588,69.1650,-0.127981
44.619,69.1763,-0.127981
44.650,69.1868,-0.209616
44.681,69.1970,-0.209616
44.712,69.2061,-0.209616
44.744,69.2148,-0.209616
44.776,69.2228,-0.209616
44.807,69.2298,-0.209616
44.838,69.2360,-0.209616
44.869,69.2414,-0.209616
44.900,69.2461,-0.323350
44.933,69.2505,-0.323350
44.962,69.2534,-0.323350
44.994,69.2562,-0.323350
45.024,69.2579,-0.323350
45.055,69.2590,-0.323350
45.086,69.2594,-0.323350
45.118,69.2594,-0.323350
45.148,69.2594,-0.372228
45.179,69.2594,-0.372228
45.210,69.2594,-0.372228
45.241,69.2594,-0.372228
45.272,69.2594,-0.372228
45.306,69.2594,-0.372228
45.335,69.2594,-0.372228
45.366,69.2594,-0.372228
45.397,69.2594,-0.282039
45.428,69.2594,-0.282039
45.459,69.2594,-0.282039
45.490,69.2594,-0.282039
45.521,69.2594,-0.282039
45.552,69.2594,-0.282039
45.583,69.2594,-0.282039
45.614,69.2594,-0.282039
45.646,69.2594,-0.184801
45.677,69.2594,-0.184801
45.708,69.2594,-0.184801
45.739,69.2594,-0.184801
45.770,69.2594,-0.184801
45.801,69.2594,-0.184801
45.832,69.2594,-0.184801
45.864,69.2594,-0.184801
45.895,69.2594,-0.160635
45.925,69.2594,-0.160635
45.956,69.2594,-0.160635
45.987,69.2594,-0.160635
46.018,69.2594,-0.160635
46.049,69.2594,-0.160635
46.081,69.2594,-0.160635
46.111,69.2594,-0.160635
46.143,69.2594,-0.160635
46.177,69.2594,-0.149409
46.205,69.2594,-0.149409
46.236,69.2594,-0.149409
46.267,69.2594,-0.149409
46.298,69.2594,-0.149409
46.329,69.2594,-0.149409
46.361,69.2594,-0.149409
46.391,69.2594,-0.149409
46.422,69.2594,-0.149409
46.453,69.2594,-0.142078
46.484,69.2594,-0.142078
46.515,69.2594,-0.142078
46.546,69.2594,-0.142078
46.577,69.2594,-0.142078
46.608,69.2594,-0.142078
46.640,69.2594,-0.142078
46.671,69.2594,-0.142078
46.703,69.2594,-0.136676
46.732,69.2594,-0.136676
46.764,69.2594,-0.136676
46.794,69.2594,-0.136676
46.825,69.2594,-0.136676
46.856,69.2594,-0.136676
46.887,69.2594,-0.136676
46.919,69.2594,-0.136676
46.949,69.2594,-0.132479
46.980,69.2594,-0.132479
47.011,69.2594,-0.132479
47.043,69.2594,-0.132479
47.075,69.2594,-0.132479
47.105,69.2594,-0.132479
47.136,69.2594,-0.132479
47.167,69.2594,-0.129035
47.198,69.2594,-0.129035
47.229,69.2594,-0.129035
47.259,69.2594,-0.129035
47.290,69.2594,-0.129035
47.321,69.2594,-0.129035
47.352,69.2594,-0.129035
47.382,69.2594,-0.129035
47.413,69.2594,-0.126137
47.444,69.2594,-0.126137
47.475,69.2594,-0.126137
47.506,69.2594,-0.126137
47.537,69.2594,-0.126137
47.569,69.2594,-0.126137
47.600,69.2594,-0.126137
47.632,69.2594,-0.126137
47.663,69.2594,-0.123568
47.693,69.2594,-0.123568
47.727,69.2594,-0.123568
47.754,69.2594,-0.123568
47.787,69.2594,-0.123568
47.819,69.2594,-0.123568
47.849,69.2594,-0.123568
47.880,69.2594,-0.121413
47.911,69.2594,-0.121413
47.943,69.2594,-0.121413
47.974,69.2594,-0.121413
48.005,69.2594,-0.121413
48.037,69.2594,-0.121413
48.067,69.2594,-0.121413
48.097,69.2594,-0.121413
48.128,69.2594,-0.121413
48.160,69.2594,-0.119540
48.191,69.2594,-0.119540
48.221,69.2594,-0.119540
48.253,69.2594,-0.119540
48.285,69.2594,-0.119540
48.317,69.2594,-0.119540
48.348,69.2594,-0.119540
48.379,69.2594,-0.119540
48.410,69.2594,-0.117809
48.442,69.2594,-0.117809
48.473,69.2594,-0.117809
48.504,69.2594,-0.117809
48.535,69.2594,-0.117809
48.566,69.2594,-0.117809
48.598,69.2594,-0.117809
48.629,69.2594,-0.116218
48.660,69.2594,-0.116218
48.691,69.2594,-0.116218
48.721,69.2594,-0.116218
48.752,69.2594,-0.116218
48.783,69.2594,-0.116218
48.822,69.2594,-0.116218
48.862,69.2594,-0.116218
48.893,69.2594,-0.116218
48.924,69.2594,-0.114364
48.955,69.2594,-0.114364
48.985,69.2594,-0.114364
49.020,69.2594,-0.114364
49.047,69.2594,-0.114364
49.079,69.2594,-0.114364
49.110,69.2594,-0.114364
49.140,69.2594,-0.112275
49.175,69.2594,-0.112275
49.203,69.2594,-0.112275
49.234,69.2594,-0.112275
49.266,69.2594,-0.112275
49.297,69.2594,-0.112275
49.327,69.2594,-0.112275
49.358,69.2594,-0.112275
49.389,69.2594,-0.110139
49.420,69.2593,-0.110139
49.450,69.2584,-0.110139
49.482,69.2568,-0.110139
49.513,69.2544,-0.110139
49.544,69.2515,-0.110139
49.576,69.2475,-0.110139
49.606,69.2430,-0.110139
49.638,69.2376,-0.081174
49.670,69.2314,-0.081174
49.701,69.2247,-0.081174
49.731,69.2174,-0.081174
49.763,69.2090,-0.081174
49.794,69.2001,-0.081174
49.825,69.1906,-0.081174
49.855,69.1801,-0.081174
49.887,69.1690,-0.081174
49.918,69.1575,-0.017419
49.949,69.1444,-0.017419
49.980,69.1312,-0.017419
50.012,69.1168,-0.017419
50.042,69.1021,-0.017419
50.073,69.0870,-0.017419
50.105,69.0705,-0.017419
50.135,69.0538,-0.017419
50.166,69.0363,0.008545
50.197,69.0178,0.008545
50.231,68.9970,0.008545
50.260,68.9786,0.008545
50.290,68.9583,0.008545
50.321,68.9374,0.008545
50.352,68.9151,0.008545
50.377,68.8963,0.008545
50.413,68.8686,0.008545
50.444,68.8457,0.007999
50.475,68.8211,0.007999
50.505,68.7958,0.007999
50.536,68.7695,0.007999
50.567,68.7427,0.007999
50.598,68.7152,0.007999
50.629,68.6864,0.007999
50.659,68.6581,0.026961
50.689,68.6281,0.026961
50.721,68.5980,0.026961
50.757,68.5592,0.026961
50.783,68.5340,0.026961
50.815,68.4998,0.026961
50.846,68.4666,0.026961
50.883,68.4256,0.026961
50.924,68.3786,0.043184
50.956,68.3410,0.043184
50.986,68.3055,0.043184
51.017,68.2673,0.043184
51.049,68.2279,0.043184
51.079,68.1899,0.043184
51.110,68.1504,0.043184
51.140,68.1107,0.053244
51.171,68.0696,0.053244
51.202,68.0291,0.053244
51.233,67.9862,0.053244
51.264,67.9423,0.053244
51.295,67.8977,0.053244
51.326,67.8530,0.053244
51.357,67.8067,0.053244
51.387,67.7623,0.053244
51.419,67.7142,0.058410
51.451,67.6674,0.058410
51.481,67.6206,0.058410
51.513,67.5732,0.058410
51.544,67.5278,0.058410
51.575,67.4814,0.058410
51.605,67.4345,0.058410
51.636,67.3889,0.058410
51.668,67.3422,0.061196
51.698,67.2961,0.061196
51.729,67.2492,0.061196
51.760,67.2019,0.061196
51.791,67.1563,0.061196
51.823,67.1085,0.061196
51.854,67.0621,0.061196
51.885,67.0154,0.061196
51.916,66.9699,0.062494
51.948,66.9212,0.062494
51.978,66.8765,0.062494
52.009,66.8285,0.062494
52.041,66.7825,0.062494
52.071,66.7358,0.062494
52.102,66.6898,0.062494
52.133,66.6430,0.062494
52.165,66.5964,0.061535
52.196,66.5495,0.061535
52.227,66.5030,0.061535
52.258,66.4555,0.061535
52.289,66.4097,0.061535
52.321,66.3623,0.061535
52.352,66.3152,0.061535
52.383,66.2678,0.061535
52.414,66.2213,0.063520
52.445,66.1763,0.063520
52.476,66.1297,0.063520
52.507,66.0818,0.063520
52.537,66.0371,0.063520
52.569,65.9892,0.063520
52.600,65.9441,0.063520
52.632,65.8958,0.063520
52.662,65.8505,0.065402
52.693,65.8031,0.065402
52.724,65.7571,0.065402
52.754,65.7108,0.065402
52.785,65.6656,0.065402
52.817,65.6182,0.065402
52.848,65.5744,0.065402
52.879,65.5291,0.065402
52.910,65.4870,0.039467
52.945,65.4372,0.039467
52.973,65.4002,0.039467
53.004,65.3585,0.039467
53.035,65.3186,0.039467
53.066,65.2786,0.039467
53.097,65.2389,0.039467
53.128,65.2010,0.039467
53.158,65.1640,0.013429
53.189,65.1277,0.013429
53.220,65.0916,0.013429
53.256,65.0499,0.013429
53.282,65.0214,0.013429
53.313,64.9872,0.013429
53.343,64.9550,0.013429
53.375,64.9213,0.013429
53.406,64.8897,0.011725
53.438,64.8574,0.011725
53.468,64.8280,0.011725
53.499,64.7989,0.011725
53.530,64.7693,0.011725
53.562,64.7401,0.011725
53.592,64.7137,0.011725
53.623,64.6870,0.011725
53.654,64.6614,0.011274
53.685,64.6363,0.011274
53.716,64.6114,0.011274
53.746,64.5882,0.011274
53.777,64.5651,0.011274
53.809,64.5423,0.011274
53.840,64.5202,0.011274
53.871,64.4998,0.011274
53.902,64.4797,0.010973
53.933,64.4599,0.010973
53.964,64.4412,0.010973
53.997,64.4224,0.010973
54.027,64.4055,0.010973
54.062,64.3863,0.010973
54.088,64.3735,0.010973
54.120,64.3579,0.010973
54.151,64.3439,0.010794
54.183,64.3295,0.010794
54.213,64.3173,0.010794
54.244,64.3049,0.010794
54.274,64.2937,0.010794
54.306,64.2828,0.010794
54.335,64.2732,0.010794
54.367,64.2640,0.010794
54.398,64.2554,0.010709
54.429,64.2475,0.010709
54.460,64.2404,0.010709
54.490,64.2341,0.010709
54.521,64.2288,0.010709
54.552,64.2237,0.010709
54.582,64.2196,0.010709
54.613,64.2160,0.010709
54.645,64.2133,0.010558
54.677,64.2112,0.010558
54.708,64.2099,0.010558
54.739,64.2093,0.010558
54.770,64.2093,0.010558
54.801,64.2093,0.010558
54.832,64.2093,0.010558
54.864,64.2093,0.010558
54.894,64.2093,0.010436
54.925,64.2098,0.010436
54.956,64.2109,0.010436
54.989,64.2130,0.010436
55.020,64.2156,0.010436
55.050,64.2190,0.010436
55.081,64.2231,0.010436
55.115,64.2285,0.010436
55.143,64.2334,0.010276
55.174,64.2397,0.010276
55.204,64.2466,0.010276
55.235,64.2542,0.010276
55.265,64.2626,0.010276
55.296,64.2717,0.010276
55.327,64.2815,0.010276
55.358,64.2921,0.010276
55.389,64.3033,0.010050
55.420,64.3156,0.010050
55.452,64.3285,0.010050
55.482,64.3420,0.010050
55.514,64.3563,0.010050
55.545,64.3718,0.010050
55.577,64.3874,0.010050
55.607,64.4036,0.010050
55.637,64.4205,0.009853
55.668,64.4384,0.009853
55.699,64.4565,0.009853
55.731,64.4768,0.009853
55.761,64.4964,0.009853
55.793,64.5176,0.009853
55.826,64.5406,0.009853
55.855,64.5619,0.009853
55.886,64.5846,0.009853
55.918,64.6090,0.009853
55.948,64.6332,0.009636
55.979,64.6574,0.009636
56.010,64.6837,0.009636
56.040,64.7103,0.009636
56.071,64.7370,0.009636
56.105,64.7680,0.009636
56.134,64.7946,0.009636
56.164,64.8240,0.009636
56.195,64.8537,0.009307
56.227,64.8863,0.009307
56.258,64.9175,0.009307
56.289,64.9503,0.009307
56.326,64.9901,0.009307
56.365,65.0333,0.009307
56.395,65.0668,0.009307
56.426,65.1019,0.008865
56.456,65.1375,0.008865
56.486,65.1733,0.008865
56.517,65.2114,0.008865
56.548,65.2491,0.008865
56.579,65.2894,0.008865
56.611,65.3293,0.008865
56.643,65.3719,0.008865
56.674,65.4133,0.008356
56.704,65.4555,0.008356
56.735,65.4976,0.008356
56.767,65.5442,0.008356
56.798,65.5861,0.008356
56.830,65.6331,0.008356
56.859,65.6761,0.008356
56.890,65.7220,0.008356
56.920,65.7693,0.007651
56.952,65.8151,0.007651
56.983,65.8629,0.007651
57.014,65.9097,0.007651
57.047,65.9579,0.007651
57.077,66.0025,0.007651
57.108,66.0508,0.007651
57.138,66.0953,0.007651
57.170,66.1433,0.007651
57.201,66.1896,0.006785
57.232,66.2367,0.006785
57.263,66.2826,0.006785
57.294,66.3280,0.006785
57.325,66.3752,0.006785
57.356,66.4216,0.006785
57.387,66.4689,0.006785
57.418,66.5140,0.005750
57.448,66.5602,0.005750
57.480,66.6082,0.005750
57.511,66.6544,0.005750
57.543,66.7015,0.005750
57.573,66.7484,0.005750
57.604,66.7938,0.005750
57.635,66.8403,0.005750
57.665,66.8856,0.004244
57.697,66.9338,0.004244
57.728,66.9789,0.004244
57.760,67.0281,0.004244
57.790,67.0726,0.004244
57.821,67.1193,0.004244
57.852,67.1664,0.004244
57.883,67.2123,0.004244
57.914,67.2590,0.001901
57.946,67.3062,0.001901
57.977,67.3535,0.001901
58.008,67.4004,0.001901
58.038,67.4452,0.001901
58.069,67.4921,0.001901
58.100,67.5381,0.001901
58.131,67.5843,0.001901
58.161,67.6291,-0.002268
58.193,67.6780,-0.002268
58.224,67.7242,-0.002268
58.256,67.7714,-0.002268
58.289,67.8200,-0.002268
58.318,67.8620,-0.002268
58.349,67.9053,-0.002268
58.381,67.9503,-0.010361
58.411,67.9910,-0.010361
58.442,68.0326,-0.010361
58.472,68.0732,-0.010361
58.503,68.1128,-0.010361
58.534,68.1532,-0.010361
58.564,68.1908,-0.010361
58.596,68.2300,-0.010361
58.627,68.2663,-0.010361
58.658,68.3045,-0.010361
58.690,68.3403,-0.024072
58.722,68.3770,-0.024072
58.751,68.4092,-0.024072
58.783,68.4436,-0.024072
58.813,68.4757,-0.024072
58.845,68.5091,-0.024072
58.875,68.5398,-0.024072
58.908,68.5721,-0.024072
58.937,68.6008,-0.044116
58.968,68.6302,-0.044116
58.999,68.6593,-0.044116
59.030,68.6862,-0.044116
59.060,68.7131,-0.044116
59.091,68.7397,-0.044116
59.122,68.7650,-0.044116
59.153,68.7898,-0.070531
59.183,68.8139,-0.070531
59.214,68.8380,-0.070531
59.245,68.8602,-0.070531
59.276,68.8827,-0.070531
59.307,68.9038,-0.070531
59.338,68.9247,-0.070531
59.370,68.9451,-0.070531
59.400,68.9640,-0.070531
59.430,68.9821,-0.104775
59.462,69.0002,-0.104775
59.492,69.0167,-0.104775
59.523,69.0333,-0.104775
59.554,69.0492,-0.104775
59.585,69.0641,-0.104775
59.617,69.0785,-0.104775
59.647,69.0915,-0.104775
59.679,69.1044,-0.104775
59.710,69.1166,-0.165679
59.741,69.1278,-0.165679
59.772,69.1384,-0.165679
59.803,69.1482,-0.165679
59.835,69.1576,-0.165679
59.867,69.1659,-0.165679
59.898,69.1737,-0.165679
59.930,69.1805,-0.268365
59.961,69.1868,-0.268365
59.992,69.1921,-0.268365
60.022,69.1966,-0.268365
60.052,69.2004,-0.268365
60.086,69.2040,-0.268365
60.113,69.2061,-0.268365
60.145,69.2079,-0.268365
60.175,69.2089,-0.368021
60.207,69.2093,-0.368021
60.237,69.2093,-0.368021
60.268,69.2093,-0.368021
60.299,69.2093,-0.368021
60.331,69.2093,-0.368021
60.362,69.2093,-0.368021
60.392,69.2093,-0.368021
60.423,69.2093,-0.326446
60.455,69.2093,-0.326446
60.486,69.2093,-0.326446
60.517,69.2093,-0.326446
60.548,69.2093,-0.326446
60.583,69.2093,-0.326446
60.609,69.2093,-0.326446
60.641,69.2093,-0.326446
60.672,69.2093,-0.211668
60.703,69.2093,-0.211668
60.734,69.2093,-0.211668
60.765,69.2093,-0.211668
60.796,69.2093,-0.211668
60.822,69.2093,-0.211668
60.857,69.2093,-0.211668
60.889,69.2093,-0.211668
60.919,69.2093,-0.167345
60.951,69.2093,-0.167345
60.981,69.2093,-0.167345
61.013,69.2093,-0.167345
61.044,69.2093,-0.167345
61.075,69.2093,-0.167345
61.106,69.2093,-0.167345
61.137,69.2093,-0.167345
61.167,69.2093,-0.152796
61.199,69.2093,-0.152796
61.230,69.2093,-0.152796
61.262,69.2093,-0.152796
61.293,69.2093,-0.152796
61.324,69.2093,-0.152796
61.355,69.2093,-0.152796
61.386,69.2093,-0.144318
61.416,69.2093,-0.144318
61.447,69.2093,-0.144318
61.477,69.2093,-0.144318
61.509,69.2093,-0.144318
61.542,69.2093,-0.144318
61.570,69.2093,-0.144318
61.604,69.2093,-0.144318
61.631,69.2093,-0.144318
61.663,69.2093,-0.138229
61.694,69.2093,-0.138229
61.726,69.2093,-0.138229
61.756,69.2093,-0.138229
61.787,69.2093,-0.138229
61.818,69.2093,-0.138229
61.849,69.2093,-0.138229
61.880,69.2093,-0.138229
61.911,69.2093,-0.133609
61.942,69.2093,-0.133609
61.973,69.2093,-0.133609
62.004,69.2093,-0.133609
62.035,69.2093,-0.133609
62.068,69.2093,-0.133609
62.098,69.2093,-0.133609
62.130,69.2093,-0.133609
62.159,69.2093,-0.129948
62.191,69.2093,-0.129948
62.221,69.2093,-0.129948
62.252,69.2093,-0.129948
62.282,69.2093,-0.129948
62.314,69.2093,-0.129948
62.344,69.2093,-0.129948
62.376,69.2093,-0.129948
62.406,69.2093,-0.129948
62.437,69.2093,-0.126786
62.469,69.2093,-0.126786
62.499,69.2093,-0.126786
62.530,69.2093,-0.126786
62.562,69.2093,-0.126786
62.592,69.2093,-0.126786
62.623,69.2093,-0.126786
62.653,69.2093,-0.124123
62.685,69.2093,-0.124123
62.715,69.2093,-0.124123
62.748,69.2093,-0.124123
62.776,69.2093,-0.124123
62.807,69.2093,-0.124123
62.838,69.2093,-0.124123
62.869,69.2093,-0.124123
62.900,69.2093,-0.121846
62.931,69.2093,-0.121846
62.962,69.2093,-0.121846
62.994,69.2093,-0.121846
63.024,69.2093,-0.121846
63.056,69.2093,-0.121846
63.086,69.2093,-0.121846
63.117,69.2093,-0.121846
63.148,69.2093,-0.119841
63.180,69.2093,-0.119841
63.210,69.2093,-0.119841
63.242,69.2093,-0.119841
63.273,69.2093,-0.119841
63.304,69.2093,-0.119841
63.335,69.2093,-0.119841
63.367,69.2093,-0.119841
63.397,69.2093,-0.118044
63.428,69.2093,-0.118044
63.460,69.2093,-0.118044
63.490,69.2093,-0.118044
63.521,69.2093,-0.118044
63.552,69.2093,-0.118044
63.583,69.2093,-0.118044
63.614,69.2093,-0.118044
63.645,69.2093,-0.118044
63.676,69.2093,-0.116454
63.708,69.2093,-0.116454
63.739,69.2093,-0.116454
63.772,69.2093,-0.116454
63.801,69.2093,-0.116454
63.835,69.2093,-0.116454
63.863,69.2093,-0.116454
63.895,69.2093,-0.116454
63.925,69.2093,-0.115014
63.956,69.2093,-0.115014
63.989,69.2093,-0.115014
64.019,69.2093,-0.115014
64.050,69.2093,-0.115014
64.081,69.2093,-0.115014
64.112,69.2093,-0.115014
64.144,69.2093,-0.115014
64.174,69.2093,-0.113132
64.206,69.2093,-0.113132
64.236,69.2093,-0.113132
64.267,69.2093,-0.113132
64.298,69.2093,-0.113132
64.330,69.2093,-0.113132
64.361,69.2093,-0.113132
64.392,69.2093,-0.113132
64.424,69.2093,-0.110958
64.454,69.2093,-0.110958
64.485,69.2093,-0.110958
64.516,69.2088,-0.110958
64.547,69.2077,-0.110958
64.579,69.2057,-0.110958
64.606,69.2033,-0.110958
64.640,69.1996,-0.107956
64.674,69.1950,-0.107956
64.702,69.1908,-0.107956
64.733,69.1851,-0.107956
64.764,69.1789,-0.107956
64.798,69.1711,-0.107956
64.826,69.1643,-0.107956
64.857,69.1558,-0.107956
64.888,69.1463,0.029050
64.919,69.1367,0.029050
64.950,69.1257,0.029050
64.980,69.1149,0.029050
65.012,69.1024,0.029050
65.043,69.0897,0.029050
65.075,69.0755,0.029050
65.106,69.0615,0.029050
65.137,69.0463,0.029050
65.167,69.0313,0.079753
65.198,69.0143,0.079753
65.229,68.9975,0.079753
65.261,68.9787,0.079753
65.292,68.9605,0.079753
65.322,68.9417,0.079753
65.353,68.9214,0.079753
65.384,68.9007,0.002814
65.415,68.8788,0.002814
65.446,68.8566,0.002814
65.477,68.8334,0.002814
65.509,68.8096,0.002814
65.540,68.7849,0.002814
65.571,68.7601,0.002814
65.601,68.7345,0.002814
65.632,68.7076,0.002814
65.663,68.6803,0.020129
65.694,68.6524,0.020129
65.725,68.6237,0.020129
65.756,68.5940,0.020129
65.786,68.5641,0.020129
65.817,68.5330,0.020129
65.849,68.5004,0.020129
65.880,68.4686,0.037500
65.911,68.4349,0.037500
65.942,68.4014,0.037500
65.973,68.3664,0.037500
66.004,68.3312,0.037500
66.036,68.2941,0.037500
66.066,68.2584,0.037500
66.096,68.2212,0.037500
66.127,68.1836,0.037500
66.159,68.1427,0.037500
66.190,68.1044,0.049132
66.221,68.0625,0.049132
66.252,68.0225,0.049132
66.283,67.9784,0.049132
66.312,67.9403,0.049132
66.343,67.8975,0.049132
66.374,67.8527,0.049132
66.405,67.8072,0.049132
66.436,67.7613,0.055474
66.467,67.7158,0.055474
66.499,67.6678,0.055474
66.530,67.6212,0.055474
66.562,67.5729,0.055474
66.593,67.5267,0.055474
66.624,67.4790,0.055474
66.656,67.4335,0.055474
66.687,67.3857,0.059116
66.718,67.3400,0.059116
66.750,67.2915,0.059116
66.781,67.2456,0.059116
66.812,67.1986,0.059116
66.843,67.1517,0.059116
66.874,67.1057,0.059116
66.905,67.0593,0.059116
66.936,67.0125,0.061280
66.968,66.9646,0.061280
66.998,66.9204,0.061280
67.029,66.8738,0.061280
67.059,66.8294,0.061280
67.089,66.7822,0.061280
67.120,66.7369,0.061280
67.152,66.6884,0.061280
67.182,66.6436,0.061111
67.213,66.5971,0.061111
67.244,66.5517,0.061111
67.275,66.5050,0.061111
67.307,66.4565,0.061111
67.339,66.4085,0.061111
67.369,66.3626,0.061111
67.400,66.3163,0.061111
67.431,66.2709,0.061309
67.462,66.2243,0.061309
67.493,66.1768,0.061309
67.524,66.1305,0.061309
67.554,66.0859,0.061309
67.589,66.0323,0.061309
67.617,65.9915,0.061309
67.648,65.9438,0.061309
67.680,65.8975,0.064348
67.710,65.8514,0.064348
67.740,65.8065,0.064348
67.773,65.7576,0.064348
67.805,65.7091,0.064348
67.835,65.6637,0.064348
67.866,65.6173,0.064348
67.898,65.5713,0.041989
67.928,65.5265,0.041989
67.959,65.4829,0.041989
67.990,65.4381,0.041989
68.022,65.3956,0.041989
68.053,65.3530,0.041989
68.084,65.3117,0.041989
68.115,65.2712,0.041989
68.146,65.2319,0.041989
68.177,65.1922,0.015038
68.209,65.1532,0.015038
68.241,65.1144,0.015038
68.270,65.0792,0.015038
68.303,65.0410,0.015038
68.333,65.0063,0.015038
68.363,64.9719,0.015038
68.394,64.9389,0.012017
68.425,64.9051,0.012017
68.456,64.8726,0.012017
68.488,64.8401,0.012017
68.519,64.8096,0.012017
68.550,64.7781,0.012017
68.581,64.7493,0.012017
68.612,64.7194,0.012017
68.643,64.6915,0.011405
68.675,64.6633,0.011405
68.705,64.6377,0.011405
68.737,64.6109,0.011405
68.768,64.5858,0.011405
68.800,64.5604,0.011405
68.830,64.5376,0.011405
68.861,64.5138,0.011405
68.891,64.4923,0.011076
68.922,64.4702,0.011076
68.953,64.4500,0.011076
68.985,64.4288,0.011076
69.015,64.4101,0.011076
69.047,64.3907,0.011076
69.078,64.3728,0.011076
69.109,64.3554,0.011076
69.140,64.3394,0.011076
69.171,64.3231,0.011076
69.201,64.3088,0.010897
69.234,64.2935,0.010897
69.264,64.2801,0.010897
69.295,64.2670,0.010897
69.326,64.2548,0.010897
69.357,64.2434,0.010897
69.388,64.2329,0.010897
69.419,64.2229,0.010897
69.450,64.2135,0.010794
69.480,64.2053,0.010794
69.510,64.1978,0.010794
69.541,64.1908,0.010794
69.572,64.1844,0.010794
69.602,64.1787,0.010794
69.633,64.1738,0.010794
69.665,64.1696,0.010794
69.696,64.1660,0.010615
69.727,64.1633,0.010615
69.759,64.1612,0.010615
69.789,64.1599,0.010615
69.823,64.1593,0.010615
69.851,64.1593,0.010615
69.883,64.1593,0.010615
69.913,64.1593,0.010615
69.944,64.1593,0.010417
69.974,64.1593,0.010417
70.009,64.1597,0.010417
70.036,64.1607,0.010417
70.067,64.1624,0.010417
70.098,64.1649,0.010417
70.129,64.1681,0.010417
70.159,64.1718,0.010342
70.190,64.1765,0.010342
70.221,64.1818,0.010342
70.252,64.1881,0.010342
70.284,64.1950,0.010342
70.315,64.2025,0.010342
70.346,64.2109,0.010342
70.377,64.2198,0.010342
70.408,64.2296,0.010201
70.440,64.2403,0.010201
70.470,64.2513,0.010201
70.501,64.2632,0.010201
70.532,64.2756,0.010201
70.563,64.2895,0.010201
70.593,64.3031,0.010201
70.627,64.3195,0.010201
70.656,64.3338,0.009947
70.687,64.3501,0.009947
70.717,64.3667,0.009947
70.748,64.3845,0.009947
70.779,64.4028,0.009947
70.810,64.4216,0.009947
70.841,64.4416,0.009947
70.873,64.4629,0.009947
70.903,64.4841,0.009712
70.934,64.5058,0.009712
70.965,64.5295,0.009712
70.996,64.5527,0.009712
71.028,64.5774,0.009712
71.059,64.6023,0.009712
71.091,64.6287,0.009712
71.122,64.6564,0.009712
71.153,64.6828,0.009429
71.184,64.7108,0.009429
71.214,64.7386,0.009429
71.244,64.7673,0.009429
71.275,64.7973,0.009429
71.307,64.8290,0.009429
71.337,64.8597,0.009429
71.367,64.8915,0.009429
71.399,64.9243,0.009034
71.430,64.9581,0.009034
71.462,64.9935,0.009034
71.494,65.0298,0.009034
71.524,65.0663,0.009034
71.555,65.1015,0.009034
71.586,65.1390,0.009034
71.617,65.1770,0.009034
71.649,65.2174,0.008526
71.679,65.2558,0.008526
71.709,65.2949,0.008526
71.740,65.3354,0.008526
71.773,65.3807,0.008526
71.802,65.4203,0.008526
71.833,65.4632,0.008526
71.864,65.5071,0.008526
71.897,65.5557,0.007924
71.926,65.5966,0.007924
71.957,65.6435,0.007924
71.988,65.6903,0.007924
72.020,65.7380,0.007924
72.051,65.7846,0.007924
72.082,65.8303,0.007924
72.113,65.8768,0.007924
72.144,65.9234,0.007924
72.175,65.9699,0.007114
72.205,66.0156,0.007114
72.236,66.0607,0.007114
72.267,66.1091,0.007114
72.298,66.1555,0.007114
72.330,66.2033,0.007114
72.361,66.2500,0.007114
72.393,66.2975,0.007114
72.425,66.3442,0.006154
72.454,66.3890,0.006154
72.486,66.4366,0.006154
72.517,66.4825,0.006154
72.548,66.5299,0.006154
72.585,66.5846,0.006154
72.610,66.6230,0.006154
72.641,66.6695,0.006154
72.672,66.7153,0.006154
72.702,66.7611,0.004884
72.733,66.8065,0.004884
72.765,66.8552,0.004884
72.795,66.9000,0.004884
72.826,66.9476,0.004884
72.858,66.9939,0.004884
72.888,67.0402,0.004884
72.920,67.0871,0.002908
72.951,67.1338,0.002908
72.981,67.1800,0.002908
73.017,67.2327,0.002908
73.044,67.2733,0.002908
73.075,67.3205,0.002908
73.106,67.3661,0.002908
73.140,67.4186,0.002908
73.167,67.4586,0.002908
73.197,67.5045,-0.000367
73.228,67.5495,-0.000367
73.259,67.5976,-0.000367
73.289,67.6411,-0.000367
73.320,67.6883,-0.000367
73.351,67.7334,-0.000367
73.382,67.7799,-0.000367
73.414,67.8244,-0.000367
73.445,67.8681,-0.006719
73.477,67.9126,-0.006719
73.508,67.9548,-0.006719
73.539,67.9975,-0.006719
73.570,68.0375,-0.006719
73.600,68.0763,-0.006719
73.631,68.1158,-0.006719
73.662,68.1541,-0.006719
73.696,68.1957,-0.018313
73.725,68.2300,-0.018313
73.756,68.2666,-0.018313
73.787,68.3026,-0.018313
73.818,68.3369,-0.018313
73.849,68.3713,-0.018313
73.881,68.4054,-0.018313
73.912,68.4394,-0.036202
73.943,68.4707,-0.036202
73.974,68.5022,-0.036202
74.005,68.5327,-0.036202
74.035,68.5611,-0.036202
74.066,68.5908,-0.036202
74.096,68.6182,-0.036202
74.130,68.6490,-0.036202
74.159,68.6736,-0.060537
74.192,68.7018,-0.060537
74.220,68.7249,-0.060537
74.254,68.7516,-0.060537
74.286,68.7762,-0.060537
74.313,68.7963,-0.060537
74.344,68.8197,-0.060537
74.376,68.8419,-0.060537
74.406,68.8626,-0.060537
74.437,68.8827,-0.091300
74.468,68.9020,-0.091300
74.498,68.9204,-0.091300
74.528,68.9384,-0.091300
74.558,68.9560,-0.091300
74.589,68.9727,-0.091300
74.620,68.9888,-0.091300
74.651,69.0037,-0.091300
74.682,69.0187,-0.139735
74.713,69.0327,-0.139735
74.745,69.0462,-0.139735
74.776,69.0587,-0.139735
74.807,69.0706,-0.139735
74.837,69.0811,-0.139735
74.868,69.0912,-0.139735
74.899,69.1009,-0.139735
74.930,69.1097,-0.228569
74.961,69.1180,-0.228569
74.992,69.1252,-0.228569
75.023,69.1319,-0.228569
75.053,69.1377,-0.228569
75.084,69.1429,-0.228569
75.115,69.1474,-0.228569
75.146,69.1513,-0.228569
75.177,69.1544,-0.340477
75.208,69.1566,-0.340477
75.239,69.1583,-0.340477
75.271,69.1592,-0.340477
75.302,69.1593,-0.340477
75.334,69.1593,-0.340477
75.364,69.1593,-0.340477
75.396,69.1593,-0.340477
75.427,69.1593,-0.356494
75.457,69.1593,-0.356494
75.488,69.1593,-0.356494
75.519,69.1593,-0.356494
75.551,69.1593,-0.356494
75.582,69.1593,-0.356494
75.613,69.1593,-0.356494
75.645,69.1593,-0.356494
75.675,69.1593,-0.254730
75.707,69.1593,-0.254730
75.737,69.1593,-0.254730
75.768,69.1593,-0.254730
75.800,69.1593,-0.254730
75.831,69.1593,-0.254730
75.862,69.1593,-0.254730
75.894,69.1593,-0.254730
75.925,69.1593,-0.177442
75.955,69.1593,-0.177442
75.987,69.1593,-0.177442
76.018,69.1593,-0.177442
76.049,69.1593,-0.177442
76.081,69.1593,-0.177442
76.113,69.1593,-0.177442
76.144,69.1593,-0.157201
76.175,69.1593,-0.157201
76.207,69.1593,-0.157201
76.238,69.1593,-0.157201
76.269,69.1593,-0.157201
76.301,69.1593,-0.157201
76.332,69.1593,-0.157201
76.364,69.1593,-0.157201
76.393,69.1593,-0.147131
76.424,69.1593,-0.147131
76.455,69.1593,-0.147131
76.488,69.1593,-0.147131
76.518,69.1593,-0.147131
76.549,69.1593,-0.147131
76.580,69.1593,-0.147131
76.614,69.1593,-0.147131
76.642,69.1593,-0.140384
76.673,69.1593,-0.140384
76.704,69.1593,-0.140384
76.735,69.1593,-0.140384
76.766,69.1593,-0.140384
76.797,69.1593,-0.140384
76.831,69.1593,-0.140384
76.859,69.1593,-0.140384
76.890,69.1593,-0.140384
76.920,69.1593,-0.140384
76.951,69.1593,-0.135274
76.982,69.1593,-0.135274
77.014,69.1593,-0.135274
77.043,69.1593,-0.135274
77.074,69.1593,-0.135274
77.105,69.1593,-0.135274
77.136,69.1593,-0.135274
77.168,69.1593,-0.131265
77.199,69.1593,-0.131265
77.230,69.1593,-0.131265
77.262,69.1593,-0.131265
77.293,69.1593,-0.131265
77.323,69.1593,-0.131265
77.354,69.1593,-0.131265
77.386,69.1593,-0.131265
77.417,69.1593,-0.128000
77.448,69.1593,-0.128000
77.479,69.1593,-0.128000
77.510,69.1593,-0.128000
77.541,69.1593,-0.128000
77.572,69.1593,-0.128000
77.603,69.1593,-0.128000
77.634,69.1593,-0.128000
77.665,69.1593,-0.125168
77.696,69.1593,-0.125168
77.727,69.1593,-0.125168
77.758,69.1593,-0.125168
77.788,69.1593,-0.125168
77.819,69.1593,-0.125168
77.850,69.1593,-0.125168
77.882,69.1593,-0.125168
77.912,69.1593,-0.125168
77.943,69.1593,-0.122730
77.974,69.1593,-0.122730
78.005,69.1593,-0.122730
78.036,69.1593,-0.122730
78.067,69.1593,-0.122730
78.098,69.1593,-0.122730
78.130,69.1593,-0.122730
78.161,69.1593,-0.120679
78.192,69.1593,-0.120679
78.223,69.1593,-0.120679
78.254,69.1593,-0.120679
78.285,69.1593,-0.120679
78.315,69.1593,-0.120679
78.347,69.1593,-0.120679
78.377,69.1593,-0.120679
78.409,69.1593,-0.118816
78.439,69.1593,-0.118816
78.471,69.1593,-0.118816
78.503,69.1593,-0.118816
78.533,69.1593,-0.118816
78.563,69.1593,-0.118816
78.594,69.1593,-0.118816
78.625,69.1593,-0.118816
78.657,69.1593,-0.117103
78.688,69.1593,-0.117103
78.720,69.1593,-0.117103
78.751,69.1593,-0.117103
78.782,69.1593,-0.117103
78.812,69.1593,-0.117103
78.843,69.1593,-0.117103
78.874,69.1593,-0.117103
78.906,69.1593,-0.115607
78.937,69.1593,-0.115607
78.967,69.1593,-0.115607
78.999,69.1593,-0.115607
79.030,69.1593,-0.115607
79.062,69.1593,-0.115607
79.093,69.1593,-0.115607
79.124,69.1593,-0.115607
79.155,69.1593,-0.113969
79.187,69.1593,-0.113969
79.217,69.1593,-0.113969
79.248,69.1593,-0.113969
79.280,69.1593,-0.113969
79.310,69.1593,-0.113969
79.341,69.1593,-0.113969
79.371,69.1593,-0.113969
79.403,69.1593,-0.111984
79.434,69.1593,-0.111984
79.465,69.1593,-0.111984
79.496,69.1593,-0.111984
79.527,69.1593,-0.111984
79.557,69.1593,-0.111984
79.589,69.1592,-0.111984
79.620,69.1584,-0.111984
79.650,69.1570,-0.111984
79.681,69.1548,-0.111984
79.712,69.1519,-0.110036
79.743,69.1483,-0.110036
79.776,69.1436,-0.110036
79.806,69.1386,-0.110036
79.837,69.1326,-0.110036
79.868,69.1262,-0.110036
79.898,69.1190,-0.110036
79.930,69.1108,0.013720
79.960,69.1023,0.013720
79.991,69.0925,0.013720
80.022,69.0824,0.013720
80.052,69.0719,0.013720
80.083,69.0603,0.013720
80.114,69.0481,0.013720
80.146,69.0347,0.067557
80.177,69.0209,0.067557
80.208,69.0060,0.067557
80.239,68.9905,0.067557
80.271,68.9743,0.067557
80.302,68.9574,0.067557
80.332,68.9400,0.067557
80.365,68.9207,0.067557
80.395,68.9026,0.000781
80.426,68.8825,0.000781
80.456,68.8634,0.000781
80.488,68.8417,0.000781
80.517,68.8215,0.000781
80.547,68.7994,0.000781
80.578,68.7762,0.000781
80.615,68.7477,0.000781
80.656,68.7146,0.012949
80.686,68.6895,0.012949
80.720,68.6604,0.012949
80.748,68.6354,0.012949
80.780,68.6074,0.012949
80.811,68.5781,0.012949
80.842,68.5487,0.012949
80.872,68.5192,0.012949
80.903,68.4885,0.031487
80.934,68.4567,0.031487
80.965,68.4237,0.031487
80.995,68.3920,0.031487
81.026,68.3595,0.031487
81.057,68.3246,0.031487
81.087,68.2895,0.031487
81.118,68.2539,0.031487
81.149,68.2172,0.045396
81.181,68.1783,0.045396
81.213,68.1392,0.045396
81.244,68.1010,0.045396
81.278,68.0565,0.045396
81.307,68.0202,0.045396
81.339,67.9777,0.045396
81.370,67.9358,0.045396
81.400,67.8945,0.053338
81.431,67.8521,0.053338
81.462,67.8071,0.053338
81.493,67.7634,0.053338
81.523,67.7187,0.053338
81.553,67.6723,0.053338
81.584,67.6270,0.053338
81.615,67.5795,0.053338
81.646,67.5332,0.053338
81.677,67.4881,0.053338
81.707,67.4430,0.057648
81.738,67.3959,0.057648
81.770,67.3481,0.057648
81.800,67.3022,0.057648
81.830,67.2584,0.057648
81.862,67.2104,0.057648
81.893,67.1632,0.057648
81.924,67.1175,0.060424
81.955,67.0700,0.060424
81.986,67.0241,0.060424
82.018,66.9764,0.060424
82.048,66.9320,0.060424
82.079,66.8848,0.060424
82.110,66.8386,0.060424
82.141,66.7918,0.060424
82.171,66.7464,0.061544
82.202,66.7004,0.061544
82.233,66.6535,0.061544
82.264,66.6063,0.061544
82.294,66.5615,0.061544
82.325,66.5146,0.061544
82.355,66.4715,0.061544
82.386,66.4255,0.061544
82.416,66.3783,0.060528
82.447,66.3311,0.060528
82.478,66.2861,0.060528
82.509,66.2393,0.060528
82.540,66.1929,0.060528
82.572,66.1447,0.060528
82.603,66.0982,0.060528
82.634,66.0510,0.060528
82.666,66.0043,0.062711
82.697,65.9564,0.062711
82.729,65.9103,0.062711
82.760,65.8623,0.062711
82.792,65.8158,0.062711
82.823,65.7685,0.062711
82.855,65.7205,0.062711
82.885,65.6766,0.062711
82.915,65.6306,0.062711
82.945,65.5855,0.049009
82.977,65.5377,0.049009
83.008,65.4939,0.049009
83.040,65.4480,0.049009
83.070,65.4044,0.049009
83.101,65.3612,0.049009
83.132,65.3191,0.049009
83.163,65.2780,0.049009
83.195,65.2355,0.022623
83.227,65.1952,0.022623
83.257,65.1552,0.022623
83.288,65.1175,0.022623
83.319,65.0786,0.022623
83.350,65.0417,0.022623
83.381,65.0058,0.022623
83.412,64.9707,0.012488
83.443,64.9340,0.012488
83.475,64.9003,0.012488
83.503,64.8691,0.012488
83.537,64.8333,0.012488
83.570,64.7980,0.012488
83.598,64.7700,0.012488
83.630,64.7399,0.012488
83.660,64.7096,0.011594
83.692,64.6801,0.011594
83.723,64.6517,0.011594
83.754,64.6233,0.011594
83.786,64.5962,0.011594
83.818,64.5690,0.011594
83.849,64.5435,0.011594
83.880,64.5185,0.011594
83.911,64.4945,0.011594
83.942,64.4707,0.011227
83.972,64.4493,0.011227
84.004,64.4266,0.011227
84.034,64.4060,0.011227
84.065,64.3861,0.011227
84.097,64.3658,0.011227
84.128,64.3470,0.011227
84.159,64.3285,0.011020
84.191,64.3109,0.011020
84.221,64.2940,0.011020
84.252,64.2781,0.011020
84.283,64.2629,0.011020
84.314,64.2485,0.011020
84.347,64.2338,0.011020
84.378,64.2205,0.011020
84.408,64.2083,0.010850
84.440,64.1964,0.010850
84.471,64.1856,0.010850
84.502,64.1754,0.010850
84.533,64.1661,0.010850
84.566,64.1567,0.010850
84.595,64.1493,0.010850
84.628,64.1416,0.010850
84.657,64.1355,0.010671
84.688,64.1297,0.010671
84.719,64.1246,0.010671
84.750,64.1202,0.010671
84.781,64.1166,0.010671
84.813,64.1137,0.010671
84.845,64.1114,0.010671
84.876,64.1101,0.010671
84.906,64.1095,0.010502
84.939,64.1093,0.010502
84.968,64.1093,0.010502
84.999,64.1093,0.010502
85.030,64.1093,0.010502
85.061,64.1093,0.010502
85.092,64.1093,0.010502
85.123,64.1096,0.010502
85.154,64.1106,0.010436
85.186,64.1124,0.010436
85.218,64.1148,0.010436
85.249,64.1181,0.010436
85.279,64.1220,0.010436
85.311,64.1268,0.010436
85.342,64.1321,0.010436
85.374,64.1386,0.010436
85.405,64.1454,0.010314
85.436,64.1530,0.010314
85.467,64.1613,0.010314
85.497,64.1701,0.010314
85.529,64.1798,0.010314
85.560,64.1903,0.010314
85.591,64.2017,0.010314
85.621,64.2133,0.010314
85.652,64.2263,0.010314
85.683,64.2394,0.010126
85.714,64.2536,0.010126
85.744,64.2681,0.010126
85.777,64.2852,0.010126
85.806,64.2998,0.010126
85.837,64.3171,0.010126
85.868,64.3344,0.010126
85.899,64.3529,0.010126
85.930,64.3718,0.009947
85.961,64.3925,0.009947
85.992,64.4126,0.009947
86.024,64.4343,0.009947
86.053,64.4561,0.009947
86.085,64.4785,0.009947
86.116,64.5029,0.009947
86.147,64.5268,0.009947
86.177,64.5513,0.009947
86.209,64.5779,0.009655
86.240,64.6044,0.009655
86.272,64.6322,0.009655
86.303,64.6602,0.009655
86.334,64.6894,0.009655
86.366,64.7185,0.009655
86.396,64.7493,0.009655
86.427,64.7795,0.009354
86.459,64.8120,0.009354
86.490,64.8438,0.009354
86.522,64.8780,0.009354
86.552,64.9109,0.009354
86.585,64.9475,0.009354
86.613,64.9800,0.009354
86.645,65.0167,0.009354
86.676,65.0529,0.008893
86.706,65.0894,0.008893
86.737,65.1279,0.008893
86.768,65.1659,0.008893
86.799,65.2071,0.008893
86.830,65.2465,0.008893
86.860,65.2871,0.008893
86.892,65.3287,0.008893
86.922,65.3713,0.008309
86.953,65.4141,0.008309
86.984,65.4582,0.008309
87.016,65.5048,0.008309
87.047,65.5497,0.008309
87.079,65.5962,0.008309
87.108,65.6415,0.008309
87.140,65.6879,0.008309
87.170,65.7337,0.007547
87.202,65.7817,0.007547
87.233,65.8278,0.007547
87.265,65.8753,0.007547
87.295,65.9216,0.007547
87.327,65.9677,0.007547
87.358,66.0161,0.007547
87.389,66.0620,0.007547
87.419,66.1077,0.006672
87.453,66.1570,0.006672
87.481,66.2007,0.006672
87.513,66.2471,0.006672
87.544,66.2955,0.006672
87.575,66.3413,0.006672
87.606,66.3892,0.006672
87.636,66.4325,0.005571
87.667,66.4792,0.005571
87.699,66.5267,0.005571
87.729,66.5726,0.005571
87.760,66.6187,0.005571
87.791,66.6642,0.005571
87.822,66.7105,0.005571
87.853,66.7583,0.005571
87.884,66.8044,0.005571
87.915,66.8510,0.004018
87.946,66.8977,0.004018
87.977,66.9433,0.004018
88.008,66.9903,0.004018
88.039,67.0373,0.004018
88.073,67.0889,0.004018
88.101,67.1304,0.004018
88.132,67.1759,0.004018
88.163,67.2238,0.001572
88.194,67.2701,0.001572
88.225,67.3156,0.001572
88.256,67.3623,0.001572
88.287,67.4093,0.001572
88.320,67.4577,0.001572
88.350,67.5047,0.001572
88.382,67.5517,-0.003021
88.412,67.5961,-0.003021
88.444,67.6445,-0.003021
88.475,67.6903,-0.003021
88.506,67.7366,-0.003021
88.537,67.7808,-0.003021
88.569,67.8247,-0.003021
88.601,67.8690,-0.003021
88.631,67.9106,-0.003021
88.663,67.9517,-0.011914
88.694,67.9942,-0.011914
88.726,68.0338,-0.011914
88.758,68.0749,-0.011914
88.789,68.1127,-0.011914
88.820,68.1504,-0.011914
88.851,68.1883,-0.011914
88.882,68.2239,-0.011914
88.913,68.2592,-0.026669
88.943,68.2936,-0.026669
88.976,68.3291,-0.026669
89.007,68.3620,-0.026669
89.038,68.3958,-0.026669
89.070,68.4276,-0.026669
89.100,68.4582,-0.026669
89.131,68.4893,-0.026669
89.162,68.5187,-0.026669
89.193,68.5481,-0.047946
89.225,68.5764,-0.047946
89.255,68.6034,-0.047946
89.286,68.6302,-0.047946
89.318,68.6570,-0.047946
89.349,68.6824,-0.047946
89.381,68.7076,-0.047946
89.411,68.7307,-0.047946
89.442,68.7535,-0.075631
89.473,68.7762,-0.075631
89.505,68.7988,-0.075631
89.535,68.8182,-0.075631
89.566,68.8385,-0.075631
89.597,68.8583,-0.075631
89.628,68.8769,-0.075631
89.658,68.8946,-0.075631
89.689,68.9116,-0.112285
89.720,68.9284,-0.112285
89.751,68.9439,-0.112285
89.781,68.9589,-0.112285
89.812,68.9733,-0.112285
89.844,68.9873,-0.112285
89.874,69.0001,-0.112285
89.906,69.0126,-0.112285
89.937,69.0240,-0.180087
89.968,69.0349,-0.180087
89.999,69.0451,-0.180087
90.030,69.0543,-0.180087
90.061,69.0628,-0.180087
90.092,69.0706,-0.180087
90.124,69.0782,-0.180087
90.153,69.0840,-0.287318
90.184,69.0897,-0.287318
90.215,69.0947,-0.287318
90.246,69.0989,-0.287318
90.277,69.1025,-0.287318
90.308,69.1052,-0.287318
90.339,69.1073,-0.287318
90.370,69.1087,-0.287318
90.401,69.1093,-0.372520
90.436,69.1093,-0.372520
90.462,69.1093,-0.372520
90.495,69.1093,-0.372520
90.526,69.1093,-0.372520
