Elapsed Time (s),Position (mm),Force (N)
-0.021,53.2001,-0.000264
0.000,53.2001,-0.000264
0.017,53.2001,-0.000264
0.041,53.2001,-0.000264
0.072,53.2001,0.000433
0.102,53.2001,0.000433
0.136,53.2001,0.000433
0.163,53.2001,0.000433
0.197,53.2001,0.000433
0.225,53.2001,0.000433
0.243,53.2001,0.000433
0.272,53.2001,0.000433
0.288,53.2001,0.000433
0.306,53.2001,0.000433
0.333,53.2001,0.000433
0.366,53.2001,0.001073
0.383,53.2001,0.001073
0.412,53.2001,0.001073
0.431,53.2001,0.001073
0.458,53.2001,0.001073
0.477,53.2001,0.001073
0.496,53.2001,0.001073
0.521,53.2001,0.001073
0.549,53.2001,0.001073
0.567,53.2001,0.001073
0.598,53.2001,0.001271
0.614,53.2001,0.001271
0.629,53.2001,0.001271
0.660,53.2001,0.001271
0.691,53.2001,0.001271
0.721,53.2001,0.001271
0.738,53.2001,0.001271
0.768,53.2001,0.001271
0.798,53.2001,0.001271
0.814,53.2001,0.001271
0.845,53.2001,0.001346
0.862,53.2001,0.001346
0.892,53.2001,0.001346
0.921,53.2001,0.001346
0.938,53.2001,0.001346
0.953,53.2001,0.001346
0.970,53.2001,0.001346
0.985,53.2001,0.001346
1.003,53.2001,0.001346
1.031,53.2001,0.001346
1.050,53.2001,0.001346
1.066,53.2001,0.001346
1.081,53.2001,0.001478
1.097,53.2001,0.001478
1.115,53.2001,0.001478
1.140,53.2001,0.001478
1.161,53.2001,0.001478
1.178,53.2001,0.001478
1.194,53.2001,0.001478
1.210,53.2001,0.001478
1.226,53.2001,0.001478
1.242,53.2001,0.001478
1.265,53.2001,0.001478
1.281,53.2001,0.001478
1.311,53.2001,0.001478
1.342,53.2001,0.001553
1.358,53.2001,0.001553
1.373,53.2001,0.001553
1.405,53.2001,0.001553
1.420,53.2001,0.001553
1.443,53.2001,0.001553
1.459,53.2001,0.001553
1.475,53.2001,0.001553
1.491,53.2001,0.001553
1.507,53.2001,0.001553
1.523,53.2001,0.001553
1.539,53.2001,0.001553
1.555,53.2001,0.001553
1.571,53.2001,0.001516
1.587,53.2001,0.001516
1.603,53.2001,0.001516
1.619,53.2001,0.001516
1.635,53.2001,0.001516
1.651,53.2001,0.001516
1.667,53.2001,0.001516
1.683,53.2001,0.001516
1.699,53.2001,0.001516
1.715,53.2001,0.001516
1.731,53.2001,0.001516
1.748,53.2001,0.001516
1.763,53.2001,0.001516
1.779,53.2001,0.001516
1.795,53.2001,0.001516
1.811,53.2001,0.001516
1.827,53.2001,0.001506
1.843,53.2001,0.001506
1.859,53.2001,0.001506
1.875,53.2001,0.001506
1.891,53.2001,0.001506
1.907,53.2001,0.001506
1.924,53.2001,0.001506
1.946,53.2001,0.001506
1.961,53.2001,0.001506
1.985,53.2001,0.001506
2.001,53.2001,0.001506
2.018,53.2001,0.001506
2.033,53.2001,0.001506
2.050,53.2001,0.001506
2.070,53.2001,0.001544
2.086,53.2001,0.001544
2.116,53.2001,0.001544
2.132,53.2001,0.001544
2.163,53.2001,0.001544
2.178,53.2001,0.001544
2.194,53.2001,0.001544
2.225,53.2001,0.001544
2.241,53.2001,0.001544
2.257,53.2001,0.001544
2.273,53.2001,0.001544
2.289,53.2001,0.001544
2.305,53.2001,0.001544
2.321,53.2001,0.001553
2.337,53.2001,0.001553
2.353,53.2001,0.001553
2.369,53.2001,0.001553
2.385,53.2001,0.001553
2.401,53.2001,0.001553
2.417,53.2001,0.001553
2.433,53.2001,0.001553
2.449,53.2001,0.001553
2.466,53.2001,0.001553
2.483,53.2001,0.001553
2.502,53.2001,0.001553
2.520,53.2001,0.001553
2.535,53.2001,0.001553
2.551,53.2001,0.001553
2.572,53.2001,0.001553
2.588,53.2001,0.001553
2.604,53.2001,0.001544
2.620,53.2001,0.001544
2.636,53.2001,0.001544
2.652,53.2001,0.001544
2.668,53.2001,0.001544
2.684,53.2001,0.001544
2.701,53.2001,0.001544
2.721,53.2001,0.001544
2.751,53.2001,0.001544
2.766,53.2001,0.001544
2.782,53.2001,0.001544
2.798,53.2001,0.001544
2.829,53.2001,0.001610
2.860,53.2001,0.001610
2.883,53.2001,0.001610
2.906,53.2001,0.001610
2.924,53.2001,0.001610
2.940,53.2001,0.001610
2.956,53.2001,0.001610
2.971,53.2001,0.001610
2.987,53.2001,0.001610
3.005,53.2001,0.001610
3.030,53.2001,0.001610
3.046,53.2001,0.001610
3.062,53.2001,0.001647
3.077,53.2001,0.001647
3.108,53.2001,0.001647
3.129,53.2001,0.001647
3.145,53.2001,0.001647
3.161,53.2001,0.001647
3.176,53.2001,0.001647
3.193,53.2001,0.001647
3.209,53.2001,0.001647
3.224,53.2001,0.001647
3.241,53.2001,0.001647
3.257,53.2001,0.001647
3.272,53.2001,0.001647
3.289,53.2001,0.001647
3.305,53.2001,0.001647
3.321,53.2001,0.001647
3.336,53.2001,0.001628
3.353,53.2001,0.001628
3.369,53.2001,0.001628
3.384,53.2001,0.001628
3.401,53.2001,0.001628
3.417,53.2001,0.001628
3.434,53.2001,0.001628
3.463,53.2001,0.001628
3.481,53.2001,0.001628
3.497,53.2001,0.001628
3.514,53.2001,0.001628
3.529,53.2001,0.001628
3.544,53.2001,0.001628
3.561,53.2001,0.001628
3.577,53.2001,0.001628
3.593,53.2001,0.001591
3.608,53.2001,0.001591
3.625,53.2001,0.001591
3.641,53.2001,0.001591
3.656,53.2001,0.001591
3.680,53.2001,0.001591
3.696,53.2001,0.001591
3.727,53.2001,0.001591
3.744,53.2001,0.001591
3.760,53.2001,0.001591
3.776,53.2001,0.001591
3.791,53.2001,0.001591
3.808,53.2001,0.001591
3.823,53.2001,0.001591
3.839,53.2001,0.001384
3.855,53.2001,0.001384
3.873,53.2001,0.001384
3.896,53.2001,0.001384
3.927,53.2001,0.001384
3.959,53.2001,0.001384
3.989,53.2001,0.001384
4.009,53.2001,0.001384
4.036,53.2001,0.001384
4.067,53.2001,0.001384
4.099,53.2001,0.001111
4.128,53.1996,0.001111
4.144,53.1991,0.001111
4.159,53.1985,0.001111
4.177,53.1975,0.001111
4.206,53.1953,0.001111
4.236,53.1924,0.001111
4.253,53.1906,0.001111
4.268,53.1886,0.001111
4.284,53.1863,0.001111
4.300,53.1840,0.001111
4.316,53.1814,0.001111
4.332,53.1786,0.001139
4.348,53.1755,0.001139
4.365,53.1722,0.001139
4.381,53.1688,0.001139
4.406,53.1630,0.001139
4.428,53.1577,0.001139
4.444,53.1537,0.001139
4.460,53.1493,0.001139
4.476,53.1447,0.001139
4.492,53.1398,0.001139
4.508,53.1351,0.001139
4.524,53.1299,0.001139
4.540,53.1246,0.001139
4.559,53.1181,0.001139
4.576,53.1122,0.001139
4.592,53.1060,0.004857
4.608,53.0996,0.004857
4.639,53.0876,0.004857
4.669,53.0747,0.004857
4.700,53.0608,0.004857
4.716,53.0535,0.004857
4.734,53.0447,0.004857
4.763,53.0304,0.004857
4.793,53.0148,0.004857
4.810,53.0059,0.004857
4.825,52.9973,0.009404
4.841,52.9888,0.009404
4.860,52.9775,0.009404
4.890,52.9594,0.009404
4.917,52.9432,0.009404
4.937,52.9308,0.009404
4.953,52.9207,0.009404
4.969,52.9103,0.009404
4.985,52.8992,0.009404
5.001,52.8883,0.009404
5.017,52.8775,0.009404
5.033,52.8661,0.009404
5.049,52.8543,0.009404
5.065,52.8430,0.009404
5.081,52.8314,0.009319
5.097,52.8190,0.009319
5.113,52.8067,0.009319
5.129,52.7944,0.009319
5.145,52.7820,0.009319
5.161,52.7687,0.009319
5.182,52.7519,0.009319
5.198,52.7384,0.009319
5.227,52.7138,0.009319
5.258,52.6866,0.009319
5.274,52.6714,0.009319
5.291,52.6576,0.009319
5.321,52.6297,0.009319
5.351,52.6007,0.010957
5.369,52.5847,0.010957
5.399,52.5556,0.010957
5.416,52.5378,0.010957
5.433,52.5217,0.010957
5.448,52.5059,0.010957
5.464,52.4892,0.010957
5.481,52.4718,0.010957
5.508,52.4426,0.010957
5.528,52.4216,0.010957
5.544,52.4033,0.010957
5.560,52.3869,0.010957
5.576,52.3683,0.010844
5.592,52.3507,0.010844
5.609,52.3312,0.010844
5.624,52.3137,0.010844
5.640,52.2951,0.010844
5.656,52.2767,0.010844
5.672,52.2570,0.010844
5.688,52.2381,0.010844
5.704,52.2191,0.010844
5.720,52.1991,0.010844
5.737,52.1777,0.010844
5.756,52.1530,0.010844
5.787,52.1146,0.010844
5.817,52.0762,0.005158
5.832,52.0557,0.005158
5.848,52.0359,0.005158
5.863,52.0143,0.005158
5.879,51.9929,0.005158
5.907,51.9539,0.005158
5.923,51.9327,0.005158
5.939,51.9105,0.005158
5.956,51.8881,0.005158
5.972,51.8637,0.005158
5.987,51.8429,0.005158
6.003,51.8192,0.005158
6.020,51.7962,0.005158
6.042,51.7625,0.005158
6.065,51.7289,0.005158
6.084,51.7005,0.002325
6.100,51.6750,0.002325
6.116,51.6517,0.002325
6.131,51.6280,0.002325
6.148,51.6031,0.002325
6.164,51.5773,0.002325
6.179,51.5532,0.002325
6.196,51.5276,0.002325
6.212,51.5020,0.002325
6.228,51.4754,0.002325
6.244,51.4498,0.002325
6.259,51.4250,0.002325
6.276,51.3982,0.002325
6.293,51.3695,0.002325
6.312,51.3374,0.002504
6.327,51.3106,0.002504
6.358,51.2591,0.002504
6.373,51.2317,0.002504
6.390,51.2036,0.002504
6.406,51.1754,0.002504
6.436,51.1241,0.002504
6.465,51.0700,0.002504
6.482,51.0415,0.002504
6.497,51.0133,0.002504
6.514,50.9826,0.002504
6.532,50.9480,0.002504
6.560,50.8972,0.002739
6.578,50.8646,0.002739
6.593,50.8341,0.002739
6.609,50.8046,0.002739
6.626,50.7727,0.002739
6.641,50.7433,0.002739
6.659,50.7092,0.002739
6.685,50.6577,0.002739
6.706,50.6179,0.002739
6.722,50.5848,0.002739
6.738,50.5524,0.002739
6.762,50.5046,0.002739
6.778,50.4706,0.002739
6.808,50.4095,0.002739
6.839,50.3478,0.003040
6.870,50.2818,0.003040
6.885,50.2508,0.003040
6.902,50.2134,0.003040
6.932,50.1510,0.003040
6.962,50.0864,0.003040
6.977,50.0555,0.003040
6.993,50.0220,0.003040
7.021,49.9631,0.003040
7.038,49.9282,0.003040
7.070,49.8642,0.003276
7.087,49.8293,0.003276
7.116,49.7702,0.003276
7.133,49.7379,0.003276
7.153,49.6967,0.003276
7.178,49.6493,0.003276
7.197,49.6120,0.003276
7.214,49.5799,0.003276
7.230,49.5492,0.003276
7.245,49.5202,0.003276
7.261,49.4903,0.003276
7.277,49.4602,0.003276
7.294,49.4287,0.003276
7.309,49.4005,0.003455
7.325,49.3706,0.003455
7.343,49.3393,0.003455
7.363,49.3019,0.003455
7.394,49.2456,0.003455
7.410,49.2175,0.003455
7.441,49.1641,0.003455
7.473,49.1073,0.003455
7.502,49.0588,0.003455
7.517,49.0327,0.003455
7.533,49.0062,0.003455
7.549,48.9790,0.003455
7.577,48.9333,0.003803
7.593,48.9067,0.003803
7.609,48.8814,0.003803
7.626,48.8541,0.003803
7.641,48.8293,0.003803
7.658,48.8032,0.003803
7.673,48.7789,0.003803
7.689,48.7544,0.003803
7.705,48.7279,0.003803
7.721,48.7054,0.003803
7.737,48.6806,0.003803
7.753,48.6559,0.003803
7.769,48.6323,0.003803
7.785,48.6075,0.003803
7.801,48.5848,0.004245
7.818,48.5591,0.004245
7.833,48.5364,0.004245
7.849,48.5141,0.004245
7.865,48.4920,0.004245
7.881,48.4689,0.004245
7.898,48.4447,0.004245
7.913,48.4236,0.004245
7.929,48.4026,0.004245
7.946,48.3784,0.004245
7.962,48.3572,0.004245
7.977,48.3369,0.004245
7.993,48.3158,0.004245
8.009,48.2950,0.004245
8.025,48.2735,0.004245
8.041,48.2531,0.004245
8.057,48.2323,0.004556
8.073,48.2121,0.004556
8.090,48.1899,0.004556
8.106,48.1693,0.004556
8.135,48.1350,0.004556
8.151,48.1153,0.004556
8.167,48.0960,0.004556
8.183,48.0772,0.004556
8.199,48.0577,0.004556
8.215,48.0399,0.004556
8.231,48.0213,0.004556
8.247,48.0027,0.004556
8.263,47.9849,0.004556
8.279,47.9666,0.004556
8.295,47.9493,0.004556
8.311,47.9315,0.004744
8.328,47.9129,0.004744
8.354,47.8841,0.004744
8.375,47.8629,0.004744
8.392,47.8459,0.004744
8.409,47.8279,0.004744
8.431,47.8064,0.004744
8.461,47.7761,0.004744
8.492,47.7472,0.004744
8.523,47.7174,0.004744
8.554,47.6900,0.004904
8.584,47.6625,0.004904
8.615,47.6354,0.004904
8.631,47.6221,0.004904
8.646,47.6091,0.004904
8.676,47.5852,0.004904
8.693,47.5713,0.004904
8.723,47.5475,0.004904
8.739,47.5350,0.004904
8.756,47.5222,0.004904
8.786,47.5000,0.004904
8.806,47.4862,0.004904
8.832,47.4670,0.004980
8.851,47.4542,0.004980
8.869,47.4426,0.004980
8.884,47.4321,0.004980
8.900,47.4220,0.004980
8.915,47.4124,0.004980
8.932,47.4020,0.004980
8.947,47.3926,0.004980
8.963,47.3830,0.004980
8.979,47.3736,0.004980
8.997,47.3634,0.004980
9.018,47.3513,0.004980
9.034,47.3428,0.004980
9.050,47.3347,0.004980
9.080,47.3189,0.004951
9.096,47.3104,0.004951
9.112,47.3030,0.004951
9.129,47.2947,0.004951
9.159,47.2807,0.004951
9.190,47.2676,0.004951
9.213,47.2584,0.004951
9.228,47.2524,0.004951
9.243,47.2464,0.004951
9.259,47.2404,0.004951
9.276,47.2346,0.004951
9.291,47.2290,0.004951
9.307,47.2235,0.004838
9.324,47.2182,0.004838
9.339,47.2134,0.004838
9.356,47.2083,0.004838
9.371,47.2037,0.004838
9.388,47.1991,0.004838
9.403,47.1950,0.004838
9.419,47.1909,0.004838
9.435,47.1871,0.004838
9.451,47.1834,0.004838
9.468,47.1799,0.004838
9.484,47.1765,0.004838
9.500,47.1732,0.004838
9.516,47.1705,0.004838
9.531,47.1678,0.004838
9.547,47.1654,0.004490
9.564,47.1629,0.004490
9.580,47.1608,0.004490
9.596,47.1588,0.004490
9.611,47.1572,0.004490
9.629,47.1554,0.004490
9.654,47.1535,0.004490
9.675,47.1521,0.004490
9.692,47.1512,0.004490
9.708,47.1507,0.004490
9.723,47.1504,0.004490
9.747,47.1501,0.004490
9.764,47.1501,0.004490
9.779,47.1501,0.004490
9.795,47.1501,0.004490
9.812,47.1501,0.004490
9.828,47.1501,0.004490
9.843,47.1501,0.003775
9.859,47.1501,0.003775
9.878,47.1501,0.003775
9.902,47.1502,0.003775
9.923,47.1507,0.003775
9.940,47.1514,0.003775
9.955,47.1521,0.003775
9.971,47.1531,0.003775
9.988,47.1545,0.003775
10.011,47.1564,0.003775
10.027,47.1582,0.003775
10.042,47.1598,0.003775
10.074,47.1641,0.003775
10.104,47.1687,0.003106
10.119,47.1714,0.003106
10.150,47.1774,0.003106
10.180,47.1838,0.003106
10.196,47.1874,0.003106
10.211,47.1913,0.003106
10.227,47.1953,0.003106
10.244,47.1997,0.003106
10.259,47.2041,0.003106
10.275,47.2087,0.003106
10.302,47.2171,0.003106
10.318,47.2222,0.003106
10.334,47.2275,0.002871
10.350,47.2332,0.002871
10.366,47.2388,0.002871
10.383,47.2451,0.002871
10.410,47.2558,0.002871
10.431,47.2645,0.002871
10.457,47.2756,0.002871
10.478,47.2847,0.002871
10.495,47.2926,0.002871
10.511,47.3001,0.002871
10.535,47.3116,0.002871
10.565,47.3272,0.002871
10.595,47.3428,0.002805
10.626,47.3600,0.002805
10.656,47.3771,0.002805
10.687,47.3959,0.002805
10.718,47.4152,0.002805
10.736,47.4261,0.002805
10.765,47.4452,0.002805
10.782,47.4569,0.002805
10.798,47.4681,0.002805
10.815,47.4795,0.002805
10.830,47.4903,0.002805
10.858,47.5107,0.002805
10.874,47.5229,0.002805
10.890,47.5347,0.002805
10.906,47.5470,0.002805
10.925,47.5620,0.002805
10.952,47.5839,0.002805
10.970,47.5981,0.002805
10.987,47.6126,0.002805
11.013,47.6347,0.002805
11.034,47.6523,0.002805
11.050,47.6668,0.002805
11.066,47.6804,0.002805
11.082,47.6949,0.002843
11.098,47.7098,0.002843
11.115,47.7261,0.002843
11.136,47.7460,0.002843
11.167,47.7758,0.002843
11.184,47.7921,0.002843
11.204,47.8119,0.002843
11.229,47.8372,0.002843
11.261,47.8701,0.002843
11.291,47.9019,0.002843
11.307,47.9193,0.002843
11.338,47.9520,0.002871
11.354,47.9708,0.002871
11.370,47.9881,0.002871
11.386,48.0060,0.002871
11.414,48.0394,0.002871
11.430,48.0575,0.002871
11.446,48.0763,0.002871
11.462,48.0950,0.002871
11.478,48.1140,0.002871
11.495,48.1345,0.002871
11.515,48.1602,0.002871
11.539,48.1889,0.002871
11.558,48.2131,0.002871
11.574,48.2349,0.002824
11.590,48.2544,0.002824
11.607,48.2762,0.002824
11.632,48.3091,0.002824
11.663,48.3510,0.002824
11.695,48.3944,0.002824
11.725,48.4364,0.002824
11.755,48.4785,0.002824
11.771,48.5013,0.002824
11.802,48.5453,0.002824
11.818,48.5686,0.002815
11.851,48.6177,0.002815
11.879,48.6599,0.002815
11.895,48.6840,0.002815
11.911,48.7088,0.002815
11.941,48.7567,0.002815
11.973,48.8050,0.002815
11.989,48.8321,0.002815
12.005,48.8559,0.002815
12.020,48.8811,0.002815
12.039,48.9110,0.002815
12.065,48.9559,0.002890
12.085,48.9873,0.002890
12.102,49.0156,0.002890
12.117,49.0405,0.002890
12.133,49.0681,0.002890
12.148,49.0947,0.002890
12.164,49.1222,0.002890
12.181,49.1504,0.002890
12.196,49.1774,0.002890
12.212,49.2061,0.002890
12.228,49.2354,0.002890
12.244,49.2625,0.002890
12.260,49.2913,0.002890
12.277,49.3209,0.002890
12.293,49.3510,0.002890
12.313,49.3866,0.002852
12.343,49.4433,0.002852
12.374,49.5010,0.002852
12.390,49.5311,0.002852
12.406,49.5631,0.002852
12.435,49.6181,0.002852
12.452,49.6509,0.002852
12.469,49.6847,0.002852
12.485,49.7155,0.002852
12.512,49.7692,0.002852
12.533,49.8109,0.002852
12.549,49.8428,0.002852
12.575,49.8949,0.002852
12.606,49.9592,0.002852
12.636,50.0219,0.002852
12.666,50.0861,0.002852
12.697,50.1505,0.002852
12.729,50.2172,0.002852
12.745,50.2523,0.002852
12.760,50.2828,0.002852
12.790,50.3456,0.002852
12.821,50.4093,0.003040
12.838,50.4431,0.003040
12.853,50.4723,0.003040
12.875,50.5172,0.003040
12.899,50.5653,0.003040
12.917,50.6001,0.003040
12.933,50.6305,0.003040
12.949,50.6637,0.003040
12.965,50.6958,0.003040
12.981,50.7237,0.003040
12.996,50.7535,0.003040
13.012,50.7836,0.003040
13.028,50.8144,0.003040
13.057,50.8692,0.003040
13.075,50.9012,0.003040
13.101,50.9493,0.003172
13.121,50.9853,0.003172
13.137,51.0142,0.003172
13.153,51.0428,0.003172
13.169,51.0720,0.003172
13.185,51.1000,0.003172
13.201,51.1277,0.003172
13.217,51.1558,0.003172
13.234,51.1843,0.003172
13.249,51.2105,0.003172
13.265,51.2385,0.003172
13.281,51.2656,0.003172
13.297,51.2924,0.003172
13.313,51.3192,0.002965
13.330,51.3473,0.002965
13.345,51.3719,0.002965
13.361,51.3982,0.002965
13.378,51.4263,0.002965
13.393,51.4504,0.002965
13.409,51.4756,0.002965
13.425,51.5010,0.002965
13.441,51.5263,0.002965
13.457,51.5510,0.002965
13.476,51.5800,0.002965
13.505,51.6243,0.002965
13.521,51.6489,0.002965
13.537,51.6742,0.002965
13.554,51.6984,0.002965
13.583,51.7407,0.002598
13.602,51.7691,0.002598
13.629,51.8076,0.002598
13.649,51.8353,0.002598
13.666,51.8604,0.002598
13.682,51.8824,0.002598
13.706,51.9148,0.002598
13.737,51.9573,0.002598
13.767,51.9972,0.002598
13.797,52.0374,0.002598
13.812,52.0562,0.002372
13.828,52.0767,0.002372
13.859,52.1165,0.002372
13.875,52.1347,0.002372
13.906,52.1733,0.002372
13.929,52.2018,0.002372
13.952,52.2286,0.002372
13.969,52.2488,0.002372
13.985,52.2666,0.002372
14.001,52.2849,0.002372
14.017,52.3040,0.002372
14.033,52.3224,0.002372
14.049,52.3394,0.002231
14.065,52.3570,0.002231
14.081,52.3742,0.002231
14.097,52.3912,0.002231
14.113,52.4091,0.002231
14.139,52.4360,0.002231
14.154,52.4512,0.002231
14.171,52.4687,0.002231
14.201,52.4992,0.002231
14.221,52.5187,0.002231
14.247,52.5440,0.002231
14.266,52.5627,0.002231
14.282,52.5768,0.002231
14.299,52.5924,0.002099
14.314,52.6060,0.002099
14.330,52.6210,0.002099
14.346,52.6353,0.002099
14.362,52.6488,0.002099
14.378,52.6632,0.002099
14.395,52.6773,0.002099
14.417,52.6961,0.002099
14.449,52.7221,0.002099
14.478,52.7454,0.002099
14.509,52.7686,0.002099
14.524,52.7807,0.002099
14.539,52.7913,0.002099
14.555,52.8031,0.001958
14.571,52.8151,0.001958
14.603,52.8366,0.001958
14.633,52.8575,0.001958
14.649,52.8682,0.001958
14.677,52.8861,0.001958
14.693,52.8965,0.001958
14.710,52.9062,0.001958
14.725,52.9156,0.001958
14.742,52.9258,0.001958
14.763,52.9382,0.001958
14.790,52.9524,0.001958
14.805,52.9609,0.001958
14.822,52.9697,0.001958
14.838,52.9777,0.001760
14.854,52.9858,0.001760
14.870,52.9941,0.001760
14.885,53.0013,0.001760
14.901,53.0087,0.001760
14.917,53.0161,0.001760
14.934,53.0237,0.001760
14.950,53.0303,0.001760
14.966,53.0370,0.001760
14.981,53.0433,0.001760
14.999,53.0505,0.001760
15.022,53.0591,0.001760
15.053,53.0702,0.001760
15.084,53.0805,0.001760
15.100,53.0859,0.001337
15.131,53.0951,0.001337
15.162,53.1036,0.001337
15.177,53.1075,0.001337
15.200,53.1132,0.001337
15.216,53.1170,0.001337
15.232,53.1204,0.001337
15.249,53.1240,0.001337
15.265,53.1269,0.001337
15.280,53.1297,0.001337
15.297,53.1325,0.001337
15.312,53.1350,0.001337
15.328,53.1372,0.000518
15.345,53.1395,0.000518
15.361,53.1414,0.000518
15.391,53.1445,0.000518
15.408,53.1460,0.000518
15.425,53.1473,0.000518
15.440,53.1481,0.000518
15.456,53.1489,0.000518
15.473,53.1495,0.000518
15.490,53.1499,0.000518
15.516,53.1501,0.000518
15.537,53.1501,0.000518
15.554,53.1501,0.000518
15.579,53.1501,-0.000104
15.602,53.1501,-0.000104
15.617,53.1501,-0.000104
15.633,53.1501,-0.000104
15.648,53.1501,-0.000104
15.665,53.1501,-0.000104
15.681,53.1501,-0.000104
15.696,53.1501,-0.000104
15.712,53.1501,-0.000104
15.737,53.1501,-0.000104
15.765,53.1501,-0.000104
15.783,53.1501,-0.000104
15.800,53.1501,-0.000104
15.826,53.1501,0.000292
15.847,53.1501,0.000292
15.863,53.1501,0.000292
15.880,53.1501,0.000292
15.895,53.1501,0.000292
15.911,53.1501,0.000292
15.929,53.1501,0.000292
15.944,53.1501,0.000292
15.959,53.1501,0.000292
15.975,53.1501,0.000292
15.992,53.1501,0.000292
16.007,53.1501,0.000292
16.023,53.1501,0.000292
16.040,53.1501,0.000292
16.055,53.1501,0.000292
16.071,53.1501,0.001017
16.087,53.1501,0.001017
16.103,53.1501,0.001017
16.119,53.1501,0.001017
16.135,53.1501,0.001017
16.151,53.1501,0.001017
16.168,53.1501,0.001017
16.183,53.1501,0.001017
16.199,53.1501,0.001017
16.215,53.1501,0.001017
16.232,53.1501,0.001017
16.247,53.1501,0.001017
16.263,53.1501,0.001017
16.290,53.1501,0.001017
16.306,53.1501,0.001017
16.322,53.1501,0.001290
16.338,53.1501,0.001290
16.354,53.1501,0.001290
16.370,53.1501,0.001290
16.386,53.1501,0.001290
16.402,53.1501,0.001290
16.419,53.1501,0.001290
16.446,53.1501,0.001290
16.466,53.1501,0.001290
16.484,53.1501,0.001290
16.508,53.1501,0.001290
16.539,53.1501,0.001290
16.569,53.1501,0.001290
16.600,53.1501,0.001393
16.615,53.1501,0.001393
16.631,53.1501,0.001393
16.646,53.1501,0.001393
16.677,53.1501,0.001393
16.707,53.1501,0.001393
16.738,53.1501,0.001393
16.754,53.1501,0.001393
16.770,53.1501,0.001393
16.786,53.1501,0.001393
16.802,53.1501,0.001393
16.818,53.1501,0.001393
16.846,53.1501,0.001497
16.861,53.1501,0.001497
16.878,53.1501,0.001497
16.894,53.1501,0.001497
16.910,53.1501,0.001497
16.926,53.1501,0.001497
16.942,53.1501,0.001497
16.962,53.1501,0.001497
16.986,53.1501,0.001497
17.006,53.1501,0.001497
17.022,53.1501,0.001497
17.039,53.1501,0.001497
17.063,53.1501,0.001497
17.094,53.1501,0.001525
17.124,53.1501,0.001525
17.140,53.1501,0.001525
17.170,53.1501,0.001525
17.186,53.1501,0.001525
17.217,53.1501,0.001525
17.248,53.1501,0.001525
17.279,53.1501,0.001525
17.310,53.1501,0.001516
17.326,53.1501,0.001516
17.342,53.1501,0.001516
17.357,53.1501,0.001516
17.374,53.1501,0.001516
17.402,53.1501,0.001516
17.418,53.1501,0.001516
17.434,53.1501,0.001516
17.450,53.1501,0.001516
17.465,53.1501,0.001516
17.483,53.1501,0.001516
17.511,53.1501,0.001516
17.530,53.1501,0.001516
17.546,53.1501,0.001516
17.561,53.1501,0.001581
17.578,53.1501,0.001581
17.594,53.1501,0.001581
17.609,53.1501,0.001581
17.625,53.1501,0.001581
17.641,53.1501,0.001581
17.658,53.1501,0.001581
17.673,53.1501,0.001581
17.689,53.1501,0.001581
17.706,53.1501,0.001581
17.722,53.1501,0.001581
17.738,53.1501,0.001581
17.753,53.1501,0.001581
17.769,53.1501,0.001581
17.786,53.1501,0.001581
17.801,53.1501,0.001591
17.818,53.1501,0.001591
17.834,53.1501,0.001591
17.849,53.1501,0.001591
17.866,53.1501,0.001591
17.882,53.1501,0.001591
17.897,53.1501,0.001591
17.914,53.1501,0.001591
17.930,53.1501,0.001591
17.960,53.1501,0.001591
17.975,53.1501,0.001591
17.992,53.1501,0.001591
18.008,53.1501,0.001591
18.024,53.1501,0.001591
18.039,53.1501,0.001591
18.055,53.1501,0.001600
18.072,53.1501,0.001600
18.089,53.1501,0.001600
18.117,53.1501,0.001600
18.136,53.1501,0.001600
18.153,53.1501,0.001600
18.178,53.1501,0.001600
18.200,53.1501,0.001600
18.215,53.1501,0.001600
18.231,53.1501,0.001600
18.247,53.1501,0.001600
18.263,53.1501,0.001600
18.281,53.1501,0.001600
18.302,53.1501,0.001600
18.317,53.1501,0.001628
18.333,53.1501,0.001628
18.349,53.1501,0.001628
18.381,53.1501,0.001628
18.396,53.1501,0.001628
18.412,53.1501,0.001628
18.428,53.1501,0.001628
18.459,53.1501,0.001628
18.490,53.1501,0.001628
18.522,53.1501,0.001628
18.551,53.1501,0.001628
18.567,53.1501,0.001628
18.584,53.1501,0.001628
18.599,53.1501,0.001628
18.616,53.1501,0.001628
18.631,53.1501,0.001628
18.648,53.1501,0.001628
18.664,53.1501,0.001628
18.680,53.1501,0.001628
18.695,53.1501,0.001628
18.712,53.1501,0.001628
18.728,53.1501,0.001628
18.753,53.1501,0.001628
18.768,53.1501,0.001628
18.799,53.1501,0.001628
18.829,53.1501,0.001610
18.859,53.1501,0.001610
18.875,53.1501,0.001610
18.906,53.1501,0.001610
18.936,53.1501,0.001610
18.952,53.1501,0.001610
18.968,53.1501,0.001610
18.983,53.1501,0.001610
19.001,53.1501,0.001610
19.017,53.1501,0.001610
19.044,53.1501,0.001610
19.063,53.1501,0.001610
19.079,53.1501,0.001610
19.095,53.1501,0.001619
19.111,53.1501,0.001619
19.128,53.1501,0.001619
19.143,53.1501,0.001619
19.159,53.1501,0.001619
19.175,53.1501,0.001619
19.192,53.1501,0.001619
19.207,53.1501,0.001619
19.223,53.1501,0.001619
19.239,53.1501,0.001619
19.256,53.1501,0.001619
19.271,53.1501,0.001619
19.287,53.1501,0.001619
19.303,53.1501,0.001619
19.319,53.1501,0.001619
19.335,53.1501,0.001534
19.351,53.1501,0.001534
19.371,53.1501,0.001534
19.398,53.1501,0.001534
19.415,53.1501,0.001534
19.431,53.1501,0.001534
19.447,53.1501,0.001534
19.463,53.1501,0.001534
19.479,53.1501,0.001534
19.495,53.1501,0.001534
19.511,53.1501,0.001534
19.527,53.1501,0.001534
19.543,53.1501,0.001534
19.559,53.1501,0.001534
19.575,53.1501,0.001534
19.591,53.1501,0.001534
19.615,53.1501,0.001318
19.631,53.1501,0.001318
19.647,53.1501,0.001318
19.663,53.1501,0.001318
19.679,53.1501,0.001318
19.697,53.1501,0.001318
19.720,53.1501,0.001318
19.751,53.1501,0.001318
19.782,53.1501,0.001318
19.798,53.1499,0.001318
19.829,53.1490,0.001083
19.860,53.1474,0.001083
19.891,53.1450,0.001083
19.925,53.1414,0.001083
19.952,53.1381,0.001083
19.982,53.1337,0.001083
20.000,53.1310,0.001083
20.029,53.1257,0.001083
20.047,53.1220,0.001083
20.062,53.1187,0.001779
20.078,53.1151,0.001779
20.096,53.1111,0.001779
20.111,53.1072,0.001779
20.127,53.1030,0.001779
20.153,53.0959,0.001779
20.170,53.0911,0.001779
20.186,53.0862,0.001779
20.202,53.0812,0.001779
20.218,53.0757,0.001779
20.233,53.0705,0.001779
20.250,53.0647,0.001779
20.265,53.0590,0.001779
20.282,53.0526,0.001779
20.298,53.0464,0.001779
20.314,53.0400,0.006552
20.329,53.0337,0.006552
20.346,53.0267,0.006552
20.362,53.0196,0.006552
20.377,53.0128,0.006552
20.393,53.0051,0.006552
20.410,52.9976,0.006552
20.425,52.9899,0.006552
20.441,52.9819,0.006552
20.457,52.9738,0.006552
20.473,52.9653,0.006552
20.489,52.9570,0.006552
20.505,52.9480,0.006552
20.521,52.9393,0.006552
20.537,52.9300,0.006552
20.554,52.9202,0.009630
20.569,52.9113,0.009630
20.587,52.9007,0.009630
20.616,52.8822,0.009630
20.633,52.8713,0.009630
20.649,52.8606,0.009630
20.665,52.8499,0.009630
20.681,52.8391,0.009630
20.708,52.8201,0.009630
20.724,52.8091,0.009630
20.740,52.7975,0.009630
20.756,52.7857,0.009630
20.773,52.7730,0.009630
20.789,52.7606,0.009630
20.804,52.7492,0.009244
20.820,52.7359,0.009244
20.836,52.7235,0.009244
20.852,52.7110,0.009244
20.868,52.6976,0.009244
20.884,52.6843,0.009244
20.900,52.6703,0.009244
20.916,52.6573,0.009244
20.933,52.6426,0.009244
20.957,52.6213,0.009244
20.987,52.5933,0.009244
21.017,52.5656,0.009244
21.049,52.5353,0.009244
21.064,52.5209,0.012717
21.094,52.4907,0.012717
21.124,52.4598,0.012717
21.141,52.4429,0.012717
21.156,52.4279,0.012717
21.172,52.4116,0.012717
21.188,52.3944,0.012717
21.204,52.3765,0.012717
21.220,52.3596,0.012717
21.235,52.3425,0.012717
21.262,52.3130,0.012717
21.278,52.2945,0.012717
21.294,52.2769,0.012717
21.310,52.2575,0.015466
21.327,52.2378,0.015466
21.356,52.2022,0.015466
21.374,52.1821,0.015466
21.390,52.1623,0.015466
21.405,52.1432,0.015466
21.422,52.1228,0.015466
21.438,52.1034,0.015466
21.454,52.0822,0.015466
21.469,52.0628,0.015466
21.486,52.0409,0.015466
21.503,52.0196,0.015466
21.518,51.9983,0.015466
21.537,51.9749,0.015466
21.556,51.9483,0.015466
21.586,51.9077,0.008745
21.616,51.8657,0.008745
21.647,51.8217,0.008745
21.678,51.7797,0.008745
21.695,51.7545,0.008745
21.724,51.7113,0.008745
21.742,51.6858,0.008745
21.757,51.6620,0.008745
21.774,51.6370,0.008745
21.789,51.6136,0.008745
21.817,51.5709,0.002372
21.834,51.5453,0.002372
21.849,51.5208,0.002372
21.865,51.4956,0.002372
21.885,51.4645,0.002372
21.911,51.4235,0.002372
21.930,51.3923,0.002372
21.945,51.3663,0.002372
21.961,51.3406,0.002372
21.977,51.3137,0.002372
21.993,51.2870,0.002372
22.010,51.2585,0.002372
22.035,51.2167,0.002372
22.051,51.1901,0.002372
22.067,51.1612,0.002560
22.098,51.1072,0.002560
22.128,51.0534,0.002560
22.159,50.9994,0.002560
22.190,50.9409,0.002560
22.222,50.8838,0.002560
22.253,50.8244,0.002560
22.283,50.7685,0.002560
22.313,50.7107,0.002560
22.330,50.6787,0.002560
22.359,50.6219,0.002796
22.376,50.5900,0.002796
22.392,50.5573,0.002796
22.407,50.5257,0.002796
22.423,50.4949,0.002796
22.440,50.4609,0.002796
22.456,50.4302,0.002796
22.472,50.3963,0.002796
22.488,50.3636,0.002796
22.503,50.3321,0.002796
22.519,50.2991,0.002796
22.535,50.2656,0.002796
22.552,50.2316,0.002796
22.567,50.1985,0.002796
22.583,50.1650,0.003135
22.599,50.1300,0.003135
22.616,50.0953,0.003135
22.632,50.0619,0.003135
22.648,50.0282,0.003135
22.663,49.9953,0.003135
22.679,49.9616,0.003135
22.695,49.9290,0.003135
22.711,49.8960,0.003135
22.728,49.8605,0.003135
22.744,49.8291,0.003135
22.760,49.7963,0.003135
22.775,49.7653,0.003135
22.791,49.7336,0.003135
22.807,49.7012,0.003135
22.824,49.6669,0.003351
22.839,49.6380,0.003351
22.855,49.6068,0.003351
22.871,49.5759,0.003351
22.887,49.5456,0.003351
22.917,49.4871,0.003351
22.934,49.4570,0.003351
22.950,49.4268,0.003351
22.965,49.3977,0.003351
22.982,49.3672,0.003351
22.998,49.3369,0.003351
23.013,49.3086,0.003351
23.030,49.2780,0.003351
23.045,49.2498,0.003351
23.062,49.2203,0.003351
23.078,49.1918,0.003586
23.093,49.1652,0.003586
23.109,49.1362,0.003586
23.126,49.1077,0.003586
23.141,49.0814,0.003586
23.157,49.0536,0.003586
23.173,49.0260,0.003586
23.189,48.9991,0.003586
23.205,48.9720,0.003586
23.221,48.9445,0.003586
23.237,48.9182,0.003586
23.253,48.8904,0.003586
23.269,48.8659,0.003586
23.287,48.8365,0.003586
23.317,48.7872,0.004010
23.333,48.7620,0.004010
23.351,48.7346,0.004010
23.380,48.6885,0.004010
23.397,48.6625,0.004010
23.413,48.6384,0.004010
23.429,48.6136,0.004010
23.445,48.5898,0.004010
23.472,48.5487,0.004010
23.488,48.5253,0.004010
23.504,48.5026,0.004010
23.520,48.4794,0.004010
23.536,48.4557,0.004010
23.552,48.4336,0.004010
23.568,48.4108,0.004339
23.584,48.3877,0.004339
23.601,48.3647,0.004339
23.628,48.3260,0.004339
23.648,48.3008,0.004339
23.664,48.2785,0.004339
23.680,48.2573,0.004339
23.696,48.2369,0.004339
23.712,48.2158,0.004339
23.728,48.1944,0.004339
23.744,48.1745,0.004339
23.760,48.1540,0.004339
23.776,48.1341,0.004339
23.793,48.1134,0.004339
23.813,48.0887,0.004622
23.828,48.0690,0.004622
23.859,48.0320,0.004622
23.875,48.0136,0.004622
23.906,47.9771,0.004622
23.922,47.9591,0.004622
23.938,47.9411,0.004622
23.969,47.9067,0.004622
23.993,47.8807,0.004622
24.009,47.8626,0.004622
24.025,47.8458,0.004622
24.041,47.8285,0.004622
24.057,47.8124,0.004622
24.073,47.7963,0.004820
24.090,47.7784,0.004820
24.111,47.7572,0.004820
24.139,47.7302,0.004820
24.169,47.7000,0.004820
24.185,47.6856,0.004820
24.201,47.6711,0.004820
24.219,47.6541,0.004820
24.247,47.6285,0.004820
24.265,47.6130,0.004820
24.283,47.5967,0.004820
24.308,47.5751,0.004961
24.329,47.5583,0.004961
24.345,47.5446,0.004961
24.361,47.5315,0.004961
24.385,47.5115,0.004961
24.416,47.4873,0.004961
24.432,47.4765,0.004961
24.462,47.4534,0.004961
24.478,47.4418,0.004961
24.494,47.4312,0.004961
24.525,47.4094,0.004961
24.556,47.3885,0.005036
24.587,47.3680,0.005036
24.618,47.3487,0.005036
24.633,47.3399,0.005036
24.650,47.3296,0.005036
24.679,47.3127,0.005036
24.697,47.3028,0.005036
24.714,47.2939,0.005036
24.741,47.2793,0.005036
24.761,47.2692,0.005036
24.776,47.2611,0.005036
24.793,47.2531,0.005036
24.809,47.2454,0.004998
24.825,47.2382,0.004998
24.842,47.2305,0.004998
24.865,47.2202,0.004998
24.896,47.2075,0.004998
24.911,47.2013,0.004998
24.927,47.1955,0.004998
24.957,47.1840,0.004998
24.988,47.1736,0.004998
25.019,47.1636,0.004998
25.050,47.1542,0.004998
25.078,47.1466,0.004772
25.093,47.1427,0.004772
25.109,47.1386,0.004772
25.125,47.1349,0.004772
25.142,47.1310,0.004772
25.158,47.1279,0.004772
25.173,47.1247,0.004772
25.189,47.1217,0.004772
25.205,47.1190,0.004772
25.222,47.1163,0.004772
25.237,47.1139,0.004772
25.253,47.1117,0.004772
25.269,47.1097,0.004772
25.285,47.1078,0.004772
25.302,47.1061,0.004321
25.317,47.1047,0.004321
25.334,47.1034,0.004321
25.350,47.1024,0.004321
25.366,47.1015,0.004321
25.381,47.1009,0.004321
25.397,47.1004,0.004321
25.413,47.1001,0.004321
25.429,47.1000,0.004321
25.446,47.1000,0.004321
25.461,47.1000,0.004321
25.477,47.1000,0.004321
25.494,47.1000,0.004321
25.509,47.1000,0.004321
25.526,47.1000,0.004321
25.541,47.1000,0.004321
25.557,47.1000,0.003511
25.575,47.1000,0.003511
25.605,47.1000,0.003511
25.636,47.1001,0.003511
25.653,47.1005,0.003511
25.669,47.1010,0.003511
25.685,47.1016,0.003511
25.700,47.1025,0.003511
25.716,47.1036,0.003511
25.732,47.1048,0.003511
25.748,47.1063,0.003511
25.764,47.1081,0.003511
25.780,47.1099,0.003511
25.796,47.1119,0.002946
25.813,47.1144,0.002946
25.838,47.1181,0.002946
25.869,47.1236,0.002946
25.899,47.1299,0.002946
25.930,47.1366,0.002946
25.945,47.1406,0.002946
25.962,47.1445,0.002946
25.992,47.1528,0.002946
26.022,47.1615,0.002946
26.053,47.1714,0.002946
26.068,47.1765,0.002946
26.084,47.1819,0.002909
26.100,47.1876,0.002909
26.116,47.1940,0.002909
26.132,47.2000,0.002909
26.148,47.2059,0.002909
26.176,47.2180,0.002909
26.201,47.2285,0.002909
26.224,47.2385,0.002909
26.240,47.2461,0.002909
26.256,47.2538,0.002909
26.272,47.2619,0.002909
26.288,47.2695,0.002909
26.305,47.2782,0.002909
26.332,47.2929,0.002909
26.352,47.3037,0.002909
26.369,47.3130,0.002909
26.384,47.3223,0.002909
26.400,47.3313,0.002909
26.416,47.3405,0.002909
26.432,47.3505,0.002909
26.448,47.3606,0.002909
26.464,47.3706,0.002909
26.480,47.3809,0.002909
26.496,47.3913,0.002909
26.512,47.4020,0.002909
26.528,47.4127,0.002909
26.544,47.4242,0.002909
26.560,47.4354,0.002909
26.576,47.4467,0.002909
26.592,47.4583,0.002909
26.609,47.4711,0.002909
26.624,47.4832,0.002909
26.640,47.4948,0.002909
26.656,47.5073,0.002909
26.672,47.5203,0.002909
26.688,47.5330,0.002909
26.705,47.5462,0.002909
26.735,47.5720,0.002909
26.751,47.5854,0.002909
26.767,47.5990,0.002909
26.783,47.6127,0.002909
26.799,47.6271,0.002909
26.815,47.6415,0.002909
26.831,47.6563,0.002909
26.847,47.6708,0.002909
26.866,47.6887,0.002909
26.890,47.7117,0.002909
26.911,47.7322,0.002909
26.927,47.7484,0.002909
26.944,47.7644,0.002909
26.959,47.7804,0.002909
26.975,47.7959,0.002909
26.992,47.8136,0.002909
27.007,47.8298,0.002909
27.023,47.8470,0.002909
27.039,47.8631,0.002909
27.055,47.8810,0.002909
27.071,47.8977,0.002909
27.087,47.9153,0.002928
27.103,47.9339,0.002928
27.119,47.9520,0.002928
27.135,47.9700,0.002928
27.151,47.9886,0.002928
27.167,48.0071,0.002928
27.182,48.0256,0.002928
27.199,48.0446,0.002928
27.215,48.0638,0.002928
27.232,48.0850,0.002928
27.257,48.1155,0.002928
27.273,48.1351,0.002928
27.289,48.1557,0.002928
27.305,48.1762,0.002928
27.322,48.1971,0.002928
27.337,48.2167,0.002918
27.352,48.2376,0.002918
27.369,48.2595,0.002918
27.385,48.2808,0.002918
27.400,48.3014,0.002918
27.418,48.3249,0.002918
27.447,48.3649,0.002918
27.465,48.3899,0.002918
27.482,48.4134,0.002918
27.509,48.4526,0.002918
27.529,48.4809,0.002918
27.545,48.5041,0.002918
27.560,48.5269,0.002918
27.576,48.5507,0.002937
27.593,48.5751,0.002937
27.609,48.5997,0.002937
27.624,48.6226,0.002937
27.640,48.6468,0.002937
27.657,48.6721,0.002937
27.673,48.6971,0.002937
27.689,48.7217,0.002937
27.705,48.7467,0.002937
27.720,48.7717,0.002937
27.737,48.7983,0.002937
27.753,48.8236,0.002937
27.769,48.8490,0.002937
27.784,48.8753,0.002937
27.801,48.9024,0.002937
27.816,48.9281,0.002890
27.832,48.9545,0.002890
27.849,48.9832,0.002890
27.871,49.0213,0.002890
27.894,49.0596,0.002890
27.914,49.0931,0.002890
27.941,49.1427,0.002890
27.960,49.1752,0.002890
27.977,49.2047,0.002890
27.993,49.2345,0.002890
28.009,49.2629,0.002890
28.024,49.2903,0.002890
28.041,49.3224,0.002890
28.057,49.3492,0.002890
28.072,49.3784,0.002862
28.089,49.4087,0.002862
28.105,49.4396,0.002862
28.120,49.4681,0.002862
28.136,49.4985,0.002862
28.152,49.5293,0.002862
28.169,49.5619,0.002862
28.185,49.5916,0.002862
28.200,49.6223,0.002862
28.216,49.6535,0.002862
28.233,49.6858,0.002862
28.249,49.7181,0.002862
28.265,49.7496,0.002862
28.281,49.7836,0.002862
28.311,49.8434,0.002862
28.341,49.9054,0.002862
28.358,49.9398,0.002862
28.373,49.9714,0.002862
28.389,50.0050,0.002862
28.407,50.0421,0.002862
28.436,50.1042,0.002862
28.453,50.1406,0.002862
28.470,50.1762,0.002862
28.486,50.2088,0.002862
28.501,50.2413,0.002862
28.517,50.2749,0.002862
28.534,50.3089,0.002862
28.549,50.3401,0.002862
28.566,50.3741,0.003059
28.581,50.4051,0.003059
28.601,50.4459,0.003059
28.623,50.4894,0.003059
28.656,50.5533,0.003059
28.685,50.6119,0.003059
28.716,50.6728,0.003059
28.748,50.7309,0.003059
28.779,50.7906,0.003059
28.795,50.8198,0.003059
28.825,50.8750,0.003238
28.841,50.9055,0.003238
28.864,50.9471,0.003238
28.880,50.9750,0.003238
28.896,51.0034,0.003238
28.912,51.0320,0.003238
28.928,51.0601,0.003238
28.944,51.0895,0.003238
28.960,51.1163,0.003238
28.976,51.1437,0.003238
28.992,51.1710,0.003238
29.008,51.1982,0.003238
29.024,51.2256,0.003238
29.040,51.2528,0.003238
29.056,51.2789,0.003069
29.072,51.3058,0.003069
29.088,51.3319,0.003069
29.104,51.3576,0.003069
29.120,51.3832,0.003069
29.136,51.4091,0.003069
29.153,51.4367,0.003069
29.184,51.4867,0.003069
29.200,51.5100,0.003069
29.216,51.5356,0.003069
29.237,51.5688,0.003069
29.262,51.6054,0.003069
29.281,51.6334,0.003069
29.296,51.6563,0.003069
29.312,51.6790,0.002730
29.328,51.7026,0.002730
29.344,51.7266,0.002730
29.360,51.7483,0.002730
29.376,51.7711,0.002730
29.401,51.8072,0.002730
29.417,51.8289,0.002730
29.433,51.8510,0.002730
29.449,51.8727,0.002730
29.466,51.8957,0.002730
29.482,51.9173,0.002730
29.497,51.9375,0.002730
29.513,51.9588,0.002730
29.529,51.9801,0.002730
29.545,51.9999,0.002730
29.561,52.0215,0.002447
29.577,52.0410,0.002447
29.593,52.0618,0.002447
29.609,52.0810,0.002447
29.625,52.1006,0.002447
29.641,52.1208,0.002447
29.658,52.1418,0.002447
29.679,52.1679,0.002447
29.695,52.1853,0.002447
29.727,52.2222,0.002447
29.757,52.2574,0.002447
29.788,52.2913,0.002447
29.804,52.3096,0.002269
29.820,52.3262,0.002269
29.837,52.3450,0.002269
29.868,52.3778,0.002269
29.883,52.3933,0.002269
29.915,52.4258,0.002269
29.945,52.4562,0.002269
29.960,52.4712,0.002269
29.977,52.4867,0.002269
29.993,52.5020,0.002269
30.009,52.5171,0.002269
30.026,52.5335,0.002269
30.051,52.5563,0.002269
30.082,52.5846,0.002099
30.098,52.5983,0.002099
30.113,52.6112,0.002099
30.129,52.6254,0.002099
30.145,52.6389,0.002099
30.176,52.6637,0.002099
30.206,52.6888,0.002099
30.239,52.7132,0.002099
30.268,52.7363,0.002099
30.285,52.7480,0.002099
30.315,52.7694,0.001939
30.346,52.7909,0.001939
30.361,52.8012,0.001939
30.392,52.8216,0.001939
30.408,52.8321,0.001939
30.424,52.8423,0.001939
30.440,52.8522,0.001939
30.462,52.8656,0.001939
30.487,52.8804,0.001939
30.503,52.8892,0.001939
30.519,52.8979,0.001939
30.534,52.9064,0.001939
30.551,52.9152,0.001939
30.567,52.9234,0.001760
30.583,52.9317,0.001760
30.599,52.9399,0.001760
30.615,52.9478,0.001760
30.631,52.9552,0.001760
30.647,52.9625,0.001760
30.664,52.9700,0.001760
30.679,52.9767,0.001760
30.694,52.9833,0.001760
30.711,52.9905,0.001760
30.727,52.9965,0.001760
30.742,53.0027,0.001760
30.758,53.0087,0.001760
30.775,53.0144,0.001760
30.790,53.0203,0.001760
30.807,53.0256,0.001327
30.822,53.0309,0.001327
30.839,53.0360,0.001327
30.854,53.0409,0.001327
30.870,53.0456,0.001327
30.887,53.0504,0.001327
30.903,53.0547,0.001327
30.919,53.0586,0.001327
30.934,53.0624,0.001327
30.950,53.0662,0.001327
30.966,53.0698,0.001327
30.983,53.0731,0.001327
30.999,53.0762,0.001327
31.026,53.0812,0.001327
31.043,53.0838,0.001327
31.058,53.0861,0.000499
31.074,53.0884,0.000499
31.091,53.0905,0.000499
31.107,53.0923,0.000499
31.122,53.0939,0.000499
31.139,53.0954,0.000499
31.155,53.0967,0.000499
31.170,53.0977,0.000499
31.186,53.0985,0.000499
31.202,53.0991,0.000499
31.218,53.0996,0.000499
31.234,53.0999,0.000499
31.251,53.1000,0.000499
31.267,53.1000,0.000499
31.283,53.1000,0.000499
31.298,53.1000,0.000499
31.314,53.1000,-0.000028
31.331,53.1000,-0.000028
31.348,53.1000,-0.000028
31.368,53.1000,-0.000028
31.400,53.1000,-0.000028
31.429,53.1000,-0.000028
31.444,53.1000,-0.000028
31.476,53.1000,-0.000028
31.491,53.1000,-0.000028
31.506,53.1000,-0.000028
31.523,53.1000,-0.000028
31.553,53.1000,-0.000028
31.583,53.1000,0.000386
31.600,53.1000,0.000386
31.631,53.1000,0.000386
31.648,53.1000,0.000386
31.664,53.1000,0.000386
31.680,53.1000,0.000386
31.696,53.1000,0.000386
31.712,53.1000,0.000386
31.741,53.1000,0.000386
31.759,53.1000,0.000386
31.775,53.1000,0.000386
31.791,53.1000,0.000386
31.807,53.1000,0.001035
31.823,53.1000,0.001035
31.839,53.1000,0.001035
31.855,53.1000,0.001035
31.872,53.1000,0.001035
31.888,53.1000,0.001035
31.903,53.1000,0.001035
31.919,53.1000,0.001035
31.935,53.1000,0.001035
31.951,53.1000,0.001035
31.967,53.1000,0.001035
31.984,53.1000,0.001035
32.002,53.1000,0.001035
32.018,53.1000,0.001035
32.049,53.1000,0.001035
32.079,53.1000,0.001035
32.095,53.1000,0.001035
32.111,53.1000,0.001280
32.127,53.1000,0.001280
32.143,53.1000,0.001280
32.159,53.1000,0.001280
32.175,53.1000,0.001280
32.191,53.1000,0.001280
32.207,53.1000,0.001280
32.223,53.1000,0.001280
32.239,53.1000,0.001280
32.255,53.1000,0.001280
32.271,53.1000,0.001280
32.287,53.1000,0.001280
32.303,53.1000,0.001280
32.319,53.1000,0.001280
32.335,53.1000,0.001421
32.351,53.1000,0.001421
32.367,53.1000,0.001421
32.383,53.1000,0.001421
32.399,53.1000,0.001421
32.415,53.1000,0.001421
32.431,53.1000,0.001421
32.447,53.1000,0.001421
32.463,53.1000,0.001421
32.479,53.1000,0.001421
32.495,53.1000,0.001421
32.511,53.1000,0.001421
32.527,53.1000,0.001421
32.543,53.1000,0.001421
32.559,53.1000,0.001421
32.575,53.1000,0.001516
32.590,53.1000,0.001516
32.608,53.1000,0.001516
32.633,53.1000,0.001516
32.649,53.1000,0.001516
32.665,53.1000,0.001516
32.681,53.1000,0.001516
32.697,53.1000,0.001516
32.713,53.1000,0.001516
32.729,53.1000,0.001516
32.745,53.1000,0.001516
32.761,53.1000,0.001516
32.777,53.1000,0.001516
32.793,53.1000,0.001516
32.809,53.1000,0.001516
32.825,53.1000,0.001534
32.841,53.1000,0.001534
32.865,53.1000,0.001534
32.887,53.1000,0.001534
32.905,53.1000,0.001534
32.922,53.1000,0.001534
32.950,53.1000,0.001534
32.969,53.1000,0.001534
32.985,53.1000,0.001534
33.001,53.1000,0.001534
33.017,53.1000,0.001534
33.033,53.1000,0.001534
33.049,53.1000,0.001534
33.065,53.1000,0.001534
33.081,53.1000,0.001516
33.096,53.1000,0.001516
33.113,53.1000,0.001516
33.129,53.1000,0.001516
33.145,53.1000,0.001516
33.176,53.1000,0.001516
33.198,53.1000,0.001516
33.230,53.1000,0.001516
33.261,53.1000,0.001516
33.292,53.1000,0.001516
33.323,53.1000,0.001534
33.339,53.1000,0.001534
33.370,53.1000,0.001534
33.386,53.1000,0.001534
33.402,53.1000,0.001534
33.418,53.1000,0.001534
33.448,53.1000,0.001534
33.479,53.1000,0.001534
33.495,53.1000,0.001534
33.511,53.1000,0.001534
33.527,53.1000,0.001534
33.543,53.1000,0.001534
33.558,53.1000,0.001534
33.574,53.1000,0.001591
33.591,53.1000,0.001591
33.607,53.1000,0.001591
33.622,53.1000,0.001591
33.639,53.1000,0.001591
33.654,53.1000,0.001591
33.671,53.1000,0.001591
33.686,53.1000,0.001591
33.702,53.1000,0.001591
33.726,53.1000,0.001591
33.742,53.1000,0.001591
33.757,53.1000,0.001591
33.774,53.1000,0.001591
33.792,53.1000,0.001591
33.818,53.1000,0.001610
33.838,53.1000,0.001610
33.854,53.1000,0.001610
33.870,53.1000,0.001610
33.886,53.1000,0.001610
33.901,53.1000,0.001610
33.918,53.1000,0.001610
33.934,53.1000,0.001610
33.957,53.1000,0.001610
33.973,53.1000,0.001610
33.989,53.1000,0.001610
34.005,53.1000,0.001610
34.035,53.1000,0.001610
34.066,53.1000,0.001610
34.096,53.1000,0.001647
34.118,53.1000,0.001647
34.142,53.1000,0.001647
34.158,53.1000,0.001647
34.173,53.1000,0.001647
34.190,53.1000,0.001647
34.205,53.1000,0.001647
34.223,53.1000,0.001647
34.250,53.1000,0.001647
34.269,53.1000,0.001647
34.285,53.1000,0.001647
34.301,53.1000,0.001647
34.318,53.1000,0.001685
34.334,53.1000,0.001685
34.350,53.1000,0.001685
34.366,53.1000,0.001685
34.381,53.1000,0.001685
34.398,53.1000,0.001685
34.413,53.1000,0.001685
34.429,53.1000,0.001685
34.445,53.1000,0.001685
34.461,53.1000,0.001685
34.478,53.1000,0.001685
34.494,53.1000,0.001685
34.510,53.1000,0.001685
34.525,53.1000,0.001685
34.542,53.1000,0.001685
34.557,53.1000,0.001628
34.573,53.1000,0.001628
34.589,53.1000,0.001628
34.605,53.1000,0.001628
34.622,53.1000,0.001628
34.637,53.1000,0.001628
34.653,53.1000,0.001628
34.669,53.1000,0.001628
34.685,53.1000,0.001628
34.701,53.1000,0.001628
34.718,53.1000,0.001628
34.733,53.1000,0.001628
34.749,53.1000,0.001628
34.765,53.1000,0.001628
34.781,53.1000,0.001628
34.804,53.1000,0.001628
34.821,53.1000,0.001628
34.836,53.1000,0.001581
34.853,53.1000,0.001581
34.869,53.1000,0.001581
34.884,53.1000,0.001581
34.900,53.1000,0.001581
34.916,53.1000,0.001581
34.933,53.1000,0.001581
34.948,53.1000,0.001581
34.968,53.1000,0.001581
34.996,53.1000,0.001581
35.012,53.1000,0.001581
35.028,53.1000,0.001581
35.044,53.1000,0.001581
35.060,53.1000,0.001534
35.076,53.1000,0.001534
35.093,53.1000,0.001534
35.108,53.1000,0.001534
35.124,53.1000,0.001534
35.140,53.1000,0.001534
35.156,53.1000,0.001534
35.172,53.1000,0.001534
35.188,53.1000,0.001534
35.204,53.1000,0.001534
35.220,53.1000,0.001534
35.236,53.1000,0.001534
35.252,53.1000,0.001534
35.268,53.1000,0.001534
35.284,53.1000,0.001534
35.300,53.1000,0.001534
35.316,53.1000,0.001534
35.339,53.1000,0.001337
35.355,53.1000,0.001337
35.371,53.1000,0.001337
35.387,53.1000,0.001337
35.404,53.1000,0.001337
35.419,53.1000,0.001337
35.435,53.1000,0.001337
35.451,53.1000,0.001337
35.467,53.1000,0.001337
35.483,53.1000,0.001337
35.499,53.1000,0.001337
35.515,53.1000,0.001337
35.531,53.0998,0.001337
35.547,53.0994,0.001111
35.563,53.0988,0.001111
35.580,53.0979,0.001111
35.595,53.0970,0.001111
35.611,53.0959,0.001111
35.627,53.0946,0.001111
35.645,53.0927,0.001111
35.672,53.0897,0.001111
35.691,53.0872,0.001111
35.707,53.0849,0.001111
35.723,53.0824,0.001111
35.739,53.0797,0.001111
35.755,53.0768,0.001111
35.771,53.0737,0.001111
35.787,53.0704,0.001111
35.803,53.0668,0.001977
35.819,53.0632,0.001977
35.835,53.0593,0.001977
35.851,53.0552,0.001977
35.867,53.0509,0.001977
35.891,53.0441,0.001977
35.919,53.0359,0.001977
35.938,53.0298,0.001977
35.954,53.0241,0.001977
35.970,53.0189,0.001977
35.986,53.0131,0.001977
36.002,53.0075,0.001977
36.018,53.0012,0.001977
36.034,52.9951,0.001977
36.049,52.9886,0.006909
36.066,52.9821,0.006909
36.082,52.9750,0.006909
36.098,52.9681,0.006909
36.113,52.9609,0.006909
36.131,52.9528,0.006909
36.146,52.9456,0.006909
36.162,52.9380,0.006909
36.178,52.9300,0.006909
36.195,52.9210,0.006909
36.211,52.9122,0.006909
36.226,52.9043,0.006909
36.257,52.8869,0.006909
36.279,52.8744,0.006909
36.303,52.8604,0.009573
36.322,52.8486,0.009573
36.338,52.8388,0.009573
36.354,52.8290,0.009573
36.371,52.8177,0.009573
36.386,52.8076,0.009573
36.401,52.7974,0.009573
36.418,52.7856,0.009573
36.443,52.7680,0.009573
36.458,52.7572,0.009573
36.474,52.7459,0.009573
36.491,52.7341,0.009573
36.509,52.7203,0.009573
36.528,52.7056,0.009573
36.551,52.6881,0.009140
36.571,52.6718,0.009140
36.587,52.6587,0.009140
36.602,52.6457,0.009140
36.618,52.6326,0.009140
36.635,52.6187,0.009140
36.651,52.6049,0.009140
36.666,52.5915,0.009140
36.682,52.5774,0.009140
36.699,52.5620,0.009140
36.715,52.5480,0.009140
36.730,52.5338,0.009140
36.746,52.5190,0.009140
36.762,52.5033,0.009140
36.779,52.4880,0.009140
36.794,52.4731,0.009140
36.812,52.4556,0.013188
36.827,52.4413,0.013188
36.842,52.4253,0.013188
36.858,52.4091,0.013188
36.875,52.3916,0.013188
36.895,52.3706,0.013188
36.923,52.3409,0.013188
36.939,52.3242,0.013188
36.954,52.3075,0.013188
36.971,52.2888,0.013188
36.996,52.2607,0.013188
37.012,52.2434,0.013188
37.027,52.2256,0.013188
37.043,52.2068,0.013188
37.059,52.1884,0.012698
37.075,52.1692,0.012698
37.091,52.1505,0.012698
37.107,52.1311,0.012698
37.123,52.1107,0.012698
37.139,52.0918,0.012698
37.155,52.0719,0.012698
37.171,52.0521,0.012698
37.188,52.0314,0.012698
37.203,52.0112,0.012698
37.219,51.9907,0.012698
37.236,51.9692,0.012698
37.252,51.9482,0.012698
37.268,51.9269,0.012698
37.283,51.9062,0.012698
37.300,51.8830,0.012698
37.317,51.8597,0.012698
37.338,51.8303,0.012698
37.369,51.7887,0.005657
37.400,51.7430,0.005657
37.416,51.7210,0.005657
37.432,51.6971,0.005657
37.462,51.6529,0.005657
37.493,51.6068,0.005657
37.524,51.5601,0.005657
37.539,51.5373,0.005657
37.555,51.5108,0.005657
37.571,51.4880,0.005657
37.587,51.4628,0.002400
37.603,51.4370,0.002400
37.620,51.4106,0.002400
37.635,51.3866,0.002400
37.651,51.3603,0.002400
37.667,51.3335,0.002400
37.683,51.3073,0.002400
37.699,51.2818,0.002400
37.715,51.2547,0.002400
37.731,51.2276,0.002400
37.747,51.2008,0.002400
37.764,51.1734,0.002400
37.780,51.1448,0.002400
37.795,51.1184,0.002400
37.811,51.0901,0.002400
37.828,51.0628,0.002400
37.843,51.0354,0.002598
37.859,51.0067,0.002598
37.875,50.9776,0.002598
37.891,50.9488,0.002598
37.907,50.9206,0.002598
37.927,50.8815,0.002598
37.955,50.8321,0.002598
37.971,50.8022,0.002598
37.987,50.7718,0.002598
38.003,50.7428,0.002598
38.019,50.7122,0.002598
38.035,50.6818,0.002598
38.051,50.6502,0.002598
38.067,50.6194,0.002598
38.083,50.5892,0.002598
38.111,50.5329,0.002815
38.139,50.4774,0.002815
38.158,50.4408,0.002815
38.176,50.4047,0.002815
38.200,50.3553,0.002815
38.231,50.2922,0.002815
38.262,50.2278,0.002815
38.277,50.1939,0.002815
38.293,50.1619,0.002815
38.324,50.0962,0.002815
38.355,50.0316,0.003182
38.371,49.9962,0.003182
38.402,49.9300,0.003182
38.433,49.8659,0.003182
38.464,49.8026,0.003182
38.479,49.7725,0.003182
38.495,49.7389,0.003182
38.510,49.7100,0.003182
38.526,49.6781,0.003182
38.542,49.6461,0.003182
38.558,49.6158,0.003182
38.574,49.5846,0.003436
38.590,49.5526,0.003436
38.606,49.5208,0.003436
38.622,49.4906,0.003436
38.638,49.4608,0.003436
38.665,49.4091,0.003436
38.681,49.3792,0.003436
38.697,49.3494,0.003436
38.714,49.3167,0.003436
38.734,49.2791,0.003436
38.756,49.2394,0.003436
38.777,49.2026,0.003436
38.793,49.1729,0.003436
38.809,49.1452,0.003436
38.825,49.1170,0.003652
38.841,49.0882,0.003652
38.857,49.0581,0.003652
38.873,49.0322,0.003652
38.889,49.0043,0.003652
38.905,48.9764,0.003652
38.922,48.9481,0.003652
38.937,48.9234,0.003652
38.953,48.8961,0.003652
38.969,48.8692,0.003652
38.985,48.8433,0.003652
39.001,48.8169,0.003652
39.017,48.7908,0.003652
39.034,48.7625,0.003652
39.050,48.7375,0.003652
39.065,48.7139,0.004010
39.081,48.6883,0.004010
39.097,48.6633,0.004010
39.113,48.6380,0.004010
39.128,48.6140,0.004010
39.145,48.5897,0.004010
39.164,48.5598,0.004010
39.187,48.5252,0.004010
39.209,48.4928,0.004010
39.225,48.4695,0.004010
39.241,48.4459,0.004010
39.257,48.4219,0.004010
39.273,48.3999,0.004010
39.289,48.3767,0.004010
39.305,48.3548,0.004010
39.320,48.3328,0.004358
39.337,48.3105,0.004358
39.353,48.2878,0.004358
39.369,48.2660,0.004358
39.384,48.2450,0.004358
39.401,48.2235,0.004358
39.416,48.2023,0.004358
39.432,48.1814,0.004358
39.449,48.1605,0.004358
39.465,48.1390,0.004358
39.481,48.1191,0.004358
39.496,48.0988,0.004358
39.512,48.0787,0.004358
39.528,48.0585,0.004358
39.544,48.0395,0.004358
39.560,48.0200,0.004660
39.577,48.0009,0.004660
39.592,47.9816,0.004660
39.608,47.9627,0.004660
39.624,47.9441,0.004660
39.640,47.9258,0.004660
39.656,47.9072,0.004660
39.673,47.8885,0.004660
39.688,47.8713,0.004660
39.705,47.8531,0.004660
39.721,47.8356,0.004660
39.737,47.8181,0.004660
39.753,47.8004,0.004660
39.769,47.7842,0.004660
39.785,47.7671,0.004660
39.801,47.7511,0.004660
39.817,47.7336,0.004857
39.833,47.7183,0.004857
39.849,47.7016,0.004857
39.867,47.6835,0.004857
39.882,47.6690,0.004857
39.899,47.6528,0.004857
39.929,47.6250,0.004857
39.944,47.6109,0.004857
39.964,47.5928,0.004857
39.980,47.5766,0.004857
40.005,47.5558,0.004857
40.024,47.5395,0.004857
40.041,47.5253,0.004857
40.056,47.5123,0.005027
40.072,47.4989,0.005027
40.089,47.4851,0.005027
40.105,47.4728,0.005027
40.120,47.4603,0.005027
40.137,47.4468,0.005027
40.161,47.4287,0.005027
40.192,47.4059,0.005027
40.222,47.3839,0.005027
40.253,47.3624,0.005027
40.273,47.3486,0.005027
40.290,47.3374,0.005027
40.306,47.3268,0.005102
40.321,47.3173,0.005102
40.337,47.3070,0.005102
40.354,47.2971,0.005102
40.369,47.2875,0.005102
40.385,47.2779,0.005102
40.401,47.2684,0.005102
40.417,47.2598,0.005102
40.433,47.2509,0.005102
40.450,47.2414,0.005102
40.470,47.2309,0.005102
40.500,47.2155,0.005102
40.532,47.2001,0.005102
40.547,47.1927,0.005102
40.577,47.1793,0.004998
40.593,47.1722,0.004998
40.609,47.1654,0.004998
40.625,47.1589,0.004998
40.642,47.1522,0.004998
40.657,47.1464,0.004998
40.673,47.1403,0.004998
40.689,47.1345,0.004998
40.705,47.1287,0.004998
40.721,47.1234,0.004998
40.737,47.1181,0.004998
40.753,47.1130,0.004998
40.771,47.1078,0.004998
40.786,47.1034,0.004998
40.802,47.0990,0.004998
40.826,47.0926,0.004772
40.841,47.0887,0.004772
40.857,47.0849,0.004772
40.873,47.0815,0.004772
40.890,47.0779,0.004772
40.905,47.0750,0.004772
40.921,47.0719,0.004772
40.937,47.0691,0.004772
40.953,47.0664,0.004772
40.969,47.0640,0.004772
40.985,47.0618,0.004772
41.001,47.0598,0.004772
41.017,47.0578,0.004772
41.033,47.0564,0.004772
41.049,47.0547,0.004311
41.065,47.0535,0.004311
41.081,47.0525,0.004311
41.097,47.0516,0.004311
41.114,47.0509,0.004311
41.129,47.0504,0.004311
41.145,47.0502,0.004311
41.161,47.0500,0.004311
41.177,47.0500,0.004311
41.194,47.0500,0.004311
41.224,47.0500,0.004311
41.243,47.0500,0.004311
41.271,47.0500,0.004311
41.289,47.0500,0.004311
41.305,47.0503,0.004311
41.321,47.0505,0.004311
41.337,47.0511,0.004311
41.364,47.0525,0.003464
41.380,47.0536,0.003464
41.396,47.0549,0.003464
41.412,47.0564,0.003464
41.429,47.0581,0.003464
41.455,47.0613,0.003464
41.476,47.0640,0.003464
41.492,47.0665,0.003464
41.511,47.0696,0.003464
41.534,47.0737,0.003464
41.551,47.0772,0.003464
41.572,47.0815,0.003464
41.588,47.0852,0.002880
41.604,47.0890,0.002880
41.620,47.0929,0.002880
41.636,47.0973,0.002880
41.652,47.1014,0.002880
41.668,47.1060,0.002880
41.684,47.1108,0.002880
41.700,47.1158,0.002880
41.716,47.1207,0.002880
41.733,47.1267,0.002880
41.748,47.1318,0.002880
41.764,47.1373,0.002880
41.779,47.1433,0.002880
41.796,47.1496,0.002880
41.813,47.1564,0.002880
41.843,47.1691,0.002871
41.860,47.1760,0.002871
41.876,47.1831,0.002871
41.892,47.1900,0.002871
41.919,47.2036,0.002871
41.936,47.2114,0.002871
41.952,47.2191,0.002871
41.968,47.2273,0.002871
41.984,47.2359,0.002871
42.000,47.2442,0.002871
42.016,47.2531,0.002871
42.032,47.2620,0.002871
42.048,47.2715,0.002871
42.064,47.2811,0.002871
42.090,47.2961,0.002909
42.106,47.3059,0.002909
42.136,47.3256,0.002909
42.167,47.3452,0.002909
42.182,47.3560,0.002909
42.212,47.3767,0.002909
42.229,47.3884,0.002909
42.245,47.4004,0.002909
42.275,47.4221,0.002909
42.310,47.4494,0.002909
42.336,47.4700,0.002909
42.352,47.4821,0.002909
42.368,47.4955,0.002909
42.384,47.5084,0.002909
42.399,47.5214,0.002909
42.415,47.5357,0.002909
42.432,47.5497,0.002909
42.460,47.5745,0.002909
42.480,47.5925,0.002909
42.506,47.6164,0.002909
42.527,47.6359,0.002909
42.544,47.6518,0.002909
42.560,47.6668,0.002909
42.575,47.6819,0.002909
42.591,47.6976,0.002909
42.608,47.7144,0.002909
42.630,47.7366,0.002909
42.661,47.7686,0.002909
42.681,47.7900,0.002909
42.707,47.8177,0.002909
42.738,47.8520,0.002909
42.754,47.8683,0.002909
42.784,47.9029,0.002909
42.800,47.9207,0.002909
42.816,47.9392,0.002946
42.831,47.9573,0.002946
42.848,47.9762,0.002946
42.864,47.9963,0.002946
42.892,48.0298,0.002946
42.913,48.0547,0.002946
42.937,48.0857,0.002946
42.969,48.1261,0.002946
42.991,48.1538,0.002946
43.007,48.1753,0.002946
43.023,48.1959,0.002946
43.040,48.2176,0.002946
43.056,48.2385,0.002928
43.071,48.2598,0.002928
43.088,48.2821,0.002928
43.104,48.3040,0.002928
43.119,48.3255,0.002928
43.135,48.3481,0.002928
43.151,48.3705,0.002928
43.167,48.3941,0.002928
43.183,48.4161,0.002928
43.199,48.4397,0.002928
43.216,48.4649,0.002928
43.232,48.4868,0.002928
43.247,48.5099,0.002928
43.263,48.5343,0.002928
43.279,48.5579,0.002928
43.296,48.5826,0.002928
43.311,48.6063,0.002937
43.327,48.6317,0.002937
43.344,48.6574,0.002937
43.371,48.6998,0.002937
43.391,48.7317,0.002937
43.408,48.7581,0.002937
43.423,48.7838,0.002937
43.439,48.8098,0.002937
43.455,48.8358,0.002937
43.472,48.8628,0.002937
43.487,48.8893,0.002937
43.503,48.9148,0.002937
43.526,48.9547,0.002937
43.542,48.9826,0.002937
43.558,49.0084,0.002965
43.574,49.0369,0.002965
43.590,49.0638,0.002965
43.606,49.0917,0.002965
43.622,49.1205,0.002965
43.638,49.1492,0.002965
43.654,49.1780,0.002965
43.670,49.2068,0.002965
43.686,49.2349,0.002965
43.701,49.2637,0.002965
43.718,49.2937,0.002965
43.734,49.3239,0.002965
43.750,49.3535,0.002965
43.766,49.3834,0.002965
43.782,49.4134,0.002965
43.798,49.4443,0.002965
43.814,49.4736,0.002899
43.830,49.5053,0.002899
43.846,49.5362,0.002899
43.862,49.5672,0.002899
43.878,49.5981,0.002899
43.894,49.6302,0.002899
43.910,49.6617,0.002899
43.927,49.6948,0.002899
43.942,49.7263,0.002899
43.962,49.7668,0.002899
43.989,49.8222,0.002899
44.007,49.8575,0.002899
44.023,49.8909,0.002899
44.051,49.9492,0.002899
44.070,49.9896,0.003040
44.086,50.0230,0.003040
44.102,50.0578,0.003040
44.118,50.0912,0.003040
44.134,50.1243,0.003040
44.150,50.1579,0.003040
44.166,50.1913,0.003040
44.182,50.2240,0.003040
44.198,50.2581,0.003040
44.214,50.2905,0.003040
44.230,50.3231,0.003040
44.246,50.3553,0.003040
44.262,50.3884,0.003040
44.278,50.4196,0.003040
44.294,50.4517,0.003040
44.310,50.4836,0.003257
44.326,50.5142,0.003257
44.342,50.5461,0.003257
44.358,50.5768,0.003257
44.374,50.6075,0.003257
44.390,50.6386,0.003257
44.406,50.6695,0.003257
44.422,50.7000,0.003257
44.438,50.7297,0.003257
44.454,50.7611,0.003257
44.470,50.7883,0.003257
44.486,50.8181,0.003257
44.502,50.8474,0.003257
44.520,50.8807,0.003257
44.546,50.9270,0.003200
44.566,50.9627,0.003200
44.597,51.0180,0.003200
44.613,51.0459,0.003200
44.629,51.0730,0.003200
44.645,51.1016,0.003200
44.661,51.1287,0.003200
44.677,51.1551,0.003200
44.692,51.1822,0.003200
44.709,51.2106,0.003200
44.725,51.2369,0.003200
44.746,51.2715,0.003200
44.763,51.2981,0.003200
44.794,51.3502,0.003200
44.824,51.3974,0.002899
44.840,51.4237,0.002899
44.871,51.4701,0.002899
44.902,51.5171,0.002899
44.932,51.5641,0.002899
44.950,51.5902,0.002899
44.966,51.6132,0.002899
44.994,51.6556,0.002899
45.013,51.6832,0.002899
45.028,51.7043,0.002899
45.044,51.7272,0.002899
45.061,51.7501,0.002626
45.077,51.7728,0.002626
45.093,51.7947,0.002626
45.123,51.8352,0.002626
45.138,51.8566,0.002626
45.154,51.8780,0.002626
45.170,51.8992,0.002626
45.189,51.9246,0.002626
45.211,51.9535,0.002626
45.227,51.9723,0.002626
45.242,51.9921,0.002626
45.259,52.0129,0.002626
45.289,52.0503,0.002626
45.320,52.0884,0.002626
45.350,52.1244,0.002410
45.367,52.1447,0.002410
45.398,52.1801,0.002410
45.429,52.2151,0.002410
45.445,52.2337,0.002410
45.462,52.2517,0.002410
45.491,52.2844,0.002410
45.509,52.3038,0.002410
45.538,52.3331,0.002410
45.556,52.3518,0.002410
45.586,52.3824,0.002240
45.602,52.3988,0.002240
45.619,52.4154,0.002240
45.635,52.4305,0.002240
45.651,52.4457,0.002240
45.678,52.4718,0.002240
45.694,52.4865,0.002240
45.710,52.5014,0.002240
45.726,52.5159,0.002240
45.744,52.5317,0.002240
45.770,52.5548,0.002240
45.789,52.5714,0.002240
45.805,52.5848,0.002240
45.821,52.5982,0.002240
45.838,52.6116,0.002118
45.853,52.6240,0.002118
45.870,52.6372,0.002118
45.886,52.6497,0.002118
45.902,52.6621,0.002118
45.917,52.6741,0.002118
45.934,52.6863,0.002118
45.949,52.6977,0.002118
45.965,52.7091,0.002118
45.981,52.7209,0.002118
45.997,52.7319,0.002118
46.013,52.7428,0.002118
46.029,52.7537,0.002118
46.045,52.7643,0.002118
46.061,52.7746,0.002118
46.078,52.7852,0.001939
46.093,52.7948,0.001939
46.110,52.8055,0.001939
46.140,52.8234,0.001939
46.157,52.8334,0.001939
46.174,52.8428,0.001939
46.190,52.8516,0.001939
46.205,52.8598,0.001939
46.233,52.8748,0.001939
46.249,52.8827,0.001939
46.265,52.8908,0.001939
46.281,52.8985,0.001939
46.297,52.9059,0.001939
46.313,52.9135,0.001939
46.329,52.9206,0.001647
46.345,52.9276,0.001647
46.361,52.9344,0.001647
46.377,52.9409,0.001647
46.393,52.9473,0.001647
46.409,52.9534,0.001647
46.425,52.9595,0.001647
46.441,52.9653,0.001647
46.457,52.9709,0.001647
46.473,52.9765,0.001647
46.490,52.9821,0.001647
46.512,52.9889,0.001647
46.527,52.9935,0.001647
46.558,53.0022,0.001647
46.588,53.0097,0.001007
46.603,53.0134,0.001007
46.619,53.0172,0.001007
46.634,53.0205,0.001007
46.665,53.0266,0.001007
46.681,53.0294,0.001007
46.697,53.0322,0.001007
46.713,53.0347,0.001007
46.729,53.0371,0.001007
46.745,53.0391,0.001007
46.761,53.0412,0.001007
46.787,53.0440,0.001007
46.803,53.0454,0.001007
46.819,53.0467,0.000132
46.835,53.0477,0.000132
46.851,53.0485,0.000132
46.867,53.0492,0.000132
46.883,53.0497,0.000132
46.899,53.0499,0.000132
46.915,53.0500,0.000132
46.931,53.0500,0.000132
46.947,53.0500,0.000132
46.963,53.0500,0.000132
46.979,53.0500,0.000132
46.995,53.0500,0.000132
47.011,53.0500,0.000132
47.027,53.0500,0.000132
47.043,53.0500,0.000132
47.060,53.0500,0.000047
47.082,53.0500,0.000047
47.098,53.0500,0.000047
47.128,53.0500,0.000047
47.148,53.0500,0.000047
47.166,53.0500,0.000047
47.188,53.0500,0.000047
47.203,53.0500,0.000047
47.219,53.0500,0.000047
47.235,53.0500,0.000047
47.251,53.0500,0.000047
47.267,53.0500,0.000047
47.284,53.0500,0.000047
47.313,53.0500,0.000047
47.344,53.0500,0.000762
47.361,53.0500,0.000762
47.377,53.0500,0.000762
47.406,53.0500,0.000762
47.424,53.0500,0.000762
47.440,53.0500,0.000762
47.456,53.0500,0.000762
47.474,53.0500,0.000762
47.491,53.0500,0.000762
47.514,53.0500,0.000762
47.531,53.0500,0.000762
47.551,53.0500,0.000762
47.567,53.0500,0.001290
47.584,53.0500,0.001290
47.601,53.0500,0.001290
47.616,53.0500,0.001290
47.632,53.0500,0.001290
47.648,53.0500,0.001290
47.665,53.0500,0.001290
47.684,53.0500,0.001290
47.715,53.0500,0.001290
47.746,53.0500,0.001290
47.777,53.0500,0.001290
47.792,53.0500,0.001290
47.808,53.0500,0.001497
47.824,53.0500,0.001497
47.840,53.0500,0.001497
47.855,53.0500,0.001497
47.871,53.0500,0.001497
47.900,53.0500,0.001497
47.916,53.0500,0.001497
47.932,53.0500,0.001497
47.947,53.0500,0.001497
47.970,53.0500,0.001497
47.992,53.0500,0.001497
48.012,53.0500,0.001497
48.028,53.0500,0.001497
48.044,53.0500,0.001497
48.060,53.0500,0.001581
48.076,53.0500,0.001581
48.095,53.0500,0.001581
48.117,53.0500,0.001581
48.147,53.0500,0.001581
48.163,53.0500,0.001581
48.179,53.0500,0.001581
48.210,53.0500,0.001581
48.226,53.0500,0.001581
48.257,53.0500,0.001581
48.288,53.0500,0.001581
48.303,53.0500,0.001600
48.334,53.0500,0.001600
48.350,53.0500,0.001600
48.366,53.0500,0.001600
48.382,53.0500,0.001600
48.412,53.0500,0.001600
48.443,53.0500,0.001600
48.459,53.0500,0.001600
48.475,53.0500,0.001600
48.491,53.0500,0.001600
48.507,53.0500,0.001600
48.523,53.0500,0.001600
48.540,53.0500,0.001600
48.555,53.0500,0.001619
48.572,53.0500,0.001619
48.588,53.0500,0.001619
48.609,53.0500,0.001619
48.632,53.0500,0.001619
48.652,53.0500,0.001619
48.668,53.0500,0.001619
48.684,53.0500,0.001619
48.699,53.0500,0.001619
48.716,53.0500,0.001619
48.732,53.0500,0.001619
48.748,53.0500,0.001619
48.763,53.0500,0.001619
48.780,53.0500,0.001619
48.795,53.0500,0.001619
48.811,53.0500,0.001628
48.827,53.0500,0.001628
48.843,53.0500,0.001628
48.859,53.0500,0.001628
48.875,53.0500,0.001628
48.892,53.0500,0.001628
48.908,53.0500,0.001628
48.923,53.0500,0.001628
48.939,53.0500,0.001628
48.955,53.0500,0.001628
48.980,53.0500,0.001628
48.995,53.0500,0.001628
49.010,53.0500,0.001628
49.026,53.0500,0.001628
49.042,53.0500,0.001628
49.058,53.0500,0.001628
49.074,53.0500,0.001676
49.090,53.0500,0.001676
49.106,53.0500,0.001676
49.122,53.0500,0.001676
49.138,53.0500,0.001676
49.154,53.0500,0.001676
49.170,53.0500,0.001676
49.186,53.0500,0.001676
49.202,53.0500,0.001676
49.218,53.0500,0.001676
49.234,53.0500,0.001676
49.251,53.0500,0.001676
49.280,53.0500,0.001676
49.301,53.0500,0.001676
49.327,53.0500,0.001704
49.346,53.0500,0.001704
49.362,53.0500,0.001704
49.378,53.0500,0.001704
49.394,53.0500,0.001704
49.410,53.0500,0.001704
49.426,53.0500,0.001704
49.443,53.0500,0.001704
49.467,53.0500,0.001704
49.498,53.0500,0.001704
49.513,53.0500,0.001704
49.544,53.0500,0.001704
49.575,53.0500,0.001685
49.591,53.0500,0.001685
49.607,53.0500,0.001685
49.623,53.0500,0.001685
49.654,53.0500,0.001685
49.684,53.0500,0.001685
49.699,53.0500,0.001685
49.715,53.0500,0.001685
49.734,53.0500,0.001685
49.762,53.0500,0.001685
49.778,53.0500,0.001685
49.796,53.0500,0.001685
49.824,53.0500,0.001685
49.842,53.0500,0.001685
49.858,53.0500,0.001685
49.874,53.0500,0.001685
49.890,53.0500,0.001685
49.906,53.0500,0.001685
49.923,53.0500,0.001685
49.938,53.0500,0.001685
49.954,53.0500,0.001685
49.970,53.0500,0.001685
49.986,53.0500,0.001685
50.002,53.0500,0.001685
50.018,53.0500,0.001685
50.042,53.0500,0.001685
50.058,53.0500,0.001685
50.074,53.0500,0.001676
50.090,53.0500,0.001676
50.106,53.0500,0.001676
50.122,53.0500,0.001676
50.138,53.0500,0.001676
50.154,53.0500,0.001676
50.170,53.0500,0.001676
50.186,53.0500,0.001676
50.202,53.0500,0.001676
50.218,53.0500,0.001676
50.235,53.0500,0.001676
50.250,53.0500,0.001676
50.266,53.0500,0.001676
50.282,53.0500,0.001676
50.298,53.0500,0.001676
50.314,53.0500,0.001657
50.330,53.0500,0.001657
50.346,53.0500,0.001657
50.362,53.0500,0.001657
50.378,53.0500,0.001657
50.394,53.0500,0.001657
50.410,53.0500,0.001657
50.426,53.0500,0.001657
50.442,53.0500,0.001657
50.457,53.0500,0.001657
50.474,53.0500,0.001657
50.491,53.0500,0.001657
50.521,53.0500,0.001657
50.538,53.0500,0.001657
50.554,53.0500,0.001657
50.569,53.0500,0.001657
50.599,53.0500,0.001647
50.615,53.0500,0.001647
50.631,53.0500,0.001647
50.647,53.0500,0.001647
50.670,53.0500,0.001647
50.693,53.0500,0.001647
50.711,53.0500,0.001647
50.727,53.0500,0.001647
50.742,53.0500,0.001647
50.758,53.0500,0.001647
50.774,53.0500,0.001647
50.793,53.0500,0.001647
50.817,53.0500,0.001647
50.847,53.0500,0.001581
50.863,53.0500,0.001581
50.894,53.0500,0.001581
50.925,53.0500,0.001581
50.956,53.0500,0.001581
50.987,53.0500,0.001581
51.017,53.0500,0.001581
51.047,53.0500,0.001581
51.063,53.0500,0.001374
51.079,53.0500,0.001374
51.095,53.0500,0.001374
51.111,53.0500,0.001374
51.127,53.0500,0.001374
51.158,53.0500,0.001374
51.187,53.0500,0.001374
51.205,53.0500,0.001374
51.222,53.0499,0.001374
51.237,53.0497,0.001374
51.254,53.0490,0.001374
51.269,53.0484,0.001374
51.285,53.0476,0.001374
51.302,53.0464,0.001374
51.317,53.0452,0.001139
51.334,53.0437,0.001139
51.350,53.0421,0.001139
51.366,53.0401,0.001139
51.381,53.0381,0.001139
51.397,53.0359,0.001139
51.414,53.0334,0.001139
51.429,53.0309,0.001139
51.446,53.0280,0.001139
51.461,53.0250,0.001139
51.478,53.0218,0.001139
51.493,53.0184,0.001139
51.510,53.0147,0.001139
51.525,53.0110,0.001139
51.541,53.0071,0.001139
51.558,53.0027,0.002946
51.574,52.9983,0.002946
51.591,52.9936,0.002946
51.620,52.9847,0.002946
51.637,52.9791,0.002946
51.654,52.9733,0.002946
51.669,52.9682,0.002946
51.685,52.9626,0.002946
51.713,52.9518,0.002946
51.729,52.9456,0.002946
51.745,52.9395,0.002946
51.760,52.9331,0.002946
51.777,52.9261,0.002946
51.792,52.9192,0.002946
51.808,52.9120,0.008237
51.824,52.9046,0.008237
51.841,52.8966,0.008237
51.856,52.8891,0.008237
51.872,52.8812,0.008237
51.889,52.8723,0.008237
51.905,52.8641,0.008237
51.921,52.8558,0.008237
51.937,52.8471,0.008237
51.953,52.8377,0.008237
51.970,52.8283,0.008237
51.985,52.8193,0.008237
52.000,52.8103,0.008237
52.016,52.8004,0.008237
52.033,52.7902,0.008237
52.048,52.7805,0.009630
52.064,52.7704,0.009630
52.080,52.7594,0.009630
52.096,52.7490,0.009630
52.112,52.7381,0.009630
52.128,52.7268,0.009630
52.144,52.7158,0.009630
52.160,52.7043,0.009630
52.176,52.6921,0.009630
52.192,52.6803,0.009630
52.210,52.6675,0.009630
52.239,52.6447,0.009630
52.269,52.6204,0.009630
52.286,52.6066,0.009630
52.315,52.5828,0.009347
52.334,52.5665,0.009347
52.362,52.5424,0.009347
52.381,52.5257,0.009347
52.397,52.5107,0.009347
52.419,52.4911,0.009347
52.442,52.4703,0.009347
52.461,52.4516,0.009347
52.477,52.4369,0.009347
52.493,52.4214,0.009347
52.509,52.4056,0.009347
52.525,52.3892,0.009347
52.541,52.3739,0.009347
52.557,52.3569,0.014619
52.573,52.3410,0.014619
52.589,52.3240,0.014619
52.605,52.3066,0.014619
52.621,52.2905,0.014619
52.637,52.2729,0.014619
52.653,52.2557,0.014619
52.669,52.2381,0.014619
52.685,52.2203,0.014619
52.701,52.2013,0.014619
52.718,52.1827,0.014619
52.733,52.1654,0.014619
52.749,52.1473,0.014619
52.765,52.1278,0.014619
52.781,52.1083,0.014619
52.797,52.0896,0.014619
52.828,52.0516,0.010260
52.849,52.0260,0.010260
52.874,51.9942,0.010260
52.891,51.9726,0.010260
52.907,51.9528,0.010260
52.923,51.9322,0.010260
52.939,51.9103,0.010260
52.956,51.8881,0.010260
52.981,51.8547,0.010260
52.997,51.8344,0.010260
53.027,51.7916,0.010260
53.057,51.7511,0.002363
53.073,51.7287,0.002363
53.104,51.6834,0.002363
53.135,51.6389,0.002363
53.151,51.6153,0.002363
53.167,51.5919,0.002363
53.182,51.5689,0.002363
53.199,51.5441,0.002363
53.229,51.4978,0.002363
53.245,51.4739,0.002363
53.276,51.4253,0.002363
53.306,51.3773,0.002476
53.324,51.3500,0.002476
53.353,51.3035,0.002476
53.382,51.2553,0.002476
53.399,51.2269,0.002476
53.414,51.2021,0.002476
53.429,51.1760,0.002476
53.447,51.1463,0.002476
53.476,51.0969,0.002476
53.494,51.0658,0.002476
53.512,51.0322,0.002476
53.538,50.9883,0.002476
53.557,50.9544,0.002711
53.574,50.9245,0.002711
53.590,50.8959,0.002711
53.606,50.8670,0.002711
53.623,50.8353,0.002711
53.647,50.7922,0.002711
53.676,50.7369,0.002711
53.692,50.7082,0.002711
53.722,50.6506,0.002711
53.753,50.5911,0.002711
53.784,50.5320,0.002711
53.815,50.4698,0.002711
53.830,50.4403,0.003031
53.846,50.4085,0.003031
53.865,50.3699,0.003031
53.890,50.3189,0.003031
53.909,50.2805,0.003031
53.941,50.2158,0.003031
53.956,50.1830,0.003031
53.973,50.1490,0.003031
53.989,50.1146,0.003031
54.005,50.0804,0.003031
54.021,50.0477,0.003031
54.036,50.0137,0.003031
54.053,49.9797,0.003285
54.069,49.9456,0.003285
54.085,49.9106,0.003285
54.106,49.8665,0.003285
54.122,49.8322,0.003285
54.139,49.7991,0.003285
54.169,49.7380,0.003285
54.185,49.7043,0.003285
54.216,49.6431,0.003285
54.247,49.5805,0.003285
54.278,49.5203,0.003285
54.309,49.4608,0.003285
54.326,49.4284,0.003285
54.356,49.3699,0.003511
54.373,49.3370,0.003511
54.388,49.3090,0.003511
54.404,49.2793,0.003511
54.420,49.2493,0.003511
54.437,49.2186,0.003511
54.453,49.1908,0.003511
54.468,49.1621,0.003511
54.495,49.1135,0.003511
54.511,49.0854,0.003511
54.527,49.0569,0.003511
54.543,49.0282,0.003511
54.560,48.9989,0.003511
54.589,48.9480,0.003831
54.607,48.9174,0.003831
54.624,48.8899,0.003831
54.639,48.8642,0.003831
54.655,48.8375,0.003831
54.671,48.8102,0.003831
54.688,48.7829,0.003831
54.704,48.7577,0.003831
54.720,48.7308,0.003831
54.735,48.7057,0.003831
54.752,48.6798,0.003831
54.767,48.6550,0.003831
54.783,48.6298,0.003831
54.799,48.6050,0.003831
54.816,48.5794,0.003831
54.831,48.5558,0.003831
54.847,48.5315,0.004236
54.863,48.5064,0.004236
54.879,48.4818,0.004236
54.895,48.4589,0.004236
54.911,48.4351,0.004236
54.927,48.4119,0.004236
54.943,48.3877,0.004236
54.959,48.3646,0.004236
54.975,48.3416,0.004236
54.992,48.3187,0.004236
55.008,48.2967,0.004236
55.023,48.2749,0.004236
55.053,48.2323,0.004236
55.070,48.2106,0.004236
55.085,48.1899,0.004556
55.101,48.1680,0.004556
55.118,48.1460,0.004556
55.133,48.1262,0.004556
55.149,48.1058,0.004556
55.166,48.0839,0.004556
55.181,48.0649,0.004556
55.197,48.0451,0.004556
55.213,48.0242,0.004556
55.229,48.0049,0.004556
55.246,47.9837,0.004556
55.270,47.9550,0.004556
55.300,47.9192,0.004556
55.315,47.9016,0.004556
55.331,47.8816,0.004556
55.347,47.8642,0.004820
55.379,47.8282,0.004820
55.408,47.7959,0.004820
55.443,47.7576,0.004820
55.471,47.7284,0.004820
55.501,47.6971,0.004820
55.517,47.6814,0.004820
55.533,47.6649,0.004820
55.549,47.6489,0.004820
55.565,47.6329,0.004820
55.581,47.6178,0.004820
55.611,47.5892,0.005027
55.627,47.5738,0.005027
55.643,47.5593,0.005027
55.659,47.5449,0.005027
55.675,47.5302,0.005027
55.691,47.5157,0.005027
55.707,47.5020,0.005027
55.723,47.4878,0.005027
55.739,47.4737,0.005027
55.755,47.4610,0.005027
55.771,47.4474,0.005027
55.787,47.4341,0.005027
55.803,47.4210,0.005027
55.819,47.4085,0.005027
55.835,47.3962,0.005074
55.851,47.3844,0.005074
55.867,47.3724,0.005074
55.883,47.3603,0.005074
55.899,47.3488,0.005074
55.915,47.3369,0.005074
55.932,47.3247,0.005074
55.952,47.3108,0.005074
55.983,47.2900,0.005074
55.998,47.2797,0.005074
56.015,47.2693,0.005074
56.045,47.2503,0.005074
56.062,47.2402,0.005074
56.093,47.2219,0.005074
56.125,47.2038,0.005074
56.155,47.1874,0.005074
56.178,47.1747,0.005074
56.202,47.1631,0.005074
56.219,47.1550,0.005074
56.235,47.1469,0.005074
56.251,47.1398,0.005074
56.266,47.1326,0.005074
56.283,47.1256,0.005074
56.299,47.1182,0.005074
56.315,47.1119,0.005074
56.330,47.1056,0.005017
56.347,47.0990,0.005017
56.363,47.0928,0.005017
56.378,47.0872,0.005017
56.395,47.0814,0.005017
56.411,47.0759,0.005017
56.427,47.0705,0.005017
56.444,47.0652,0.005017
56.459,47.0603,0.005017
56.475,47.0557,0.005017
56.491,47.0511,0.005017
56.507,47.0468,0.005017
56.522,47.0428,0.005017
56.539,47.0387,0.005017
56.555,47.0349,0.005017
56.571,47.0313,0.004725
56.587,47.0280,0.004725
56.602,47.0249,0.004725
56.619,47.0217,0.004725
56.634,47.0190,0.004725
56.651,47.0164,0.004725
56.667,47.0139,0.004725
56.691,47.0106,0.004725
56.706,47.0087,0.004725
56.723,47.0070,0.004725
56.739,47.0055,0.004725
56.755,47.0041,0.004725
56.770,47.0030,0.004725
56.787,47.0020,0.004725
56.803,47.0012,0.004725
56.819,47.0007,0.004725
56.834,47.0003,0.004142
56.851,47.0000,0.004142
56.868,47.0000,0.004142
56.898,47.0000,0.004142
56.914,47.0000,0.004142
56.931,47.0000,0.004142
56.946,47.0000,0.004142
56.963,47.0000,0.004142
56.979,47.0000,0.004142
56.995,47.0000,0.004142
57.011,47.0000,0.004142
57.026,47.0000,0.004142
57.042,47.0000,0.004142
57.059,47.0003,0.004142
57.085,47.0009,0.004142
57.115,47.0025,0.003379
57.146,47.0046,0.003379
57.162,47.0061,0.003379
57.193,47.0095,0.003379
57.209,47.0113,0.003379
57.240,47.0158,0.003379
57.270,47.0208,0.003379
57.300,47.0267,0.003379
57.316,47.0299,0.003379
57.346,47.0366,0.002928
57.364,47.0413,0.002928
57.393,47.0485,0.002928
57.410,47.0531,0.002928
57.426,47.0578,0.002928
57.442,47.0626,0.002928
57.458,47.0676,0.002928
57.475,47.0730,0.002928
57.491,47.0786,0.002928
57.506,47.0839,0.002928
57.522,47.0896,0.002928
57.538,47.0957,0.002928
57.556,47.1026,0.002928
57.580,47.1124,0.002928
57.611,47.1254,0.002918
57.642,47.1393,0.002918
57.658,47.1464,0.002918
57.688,47.1613,0.002918
57.719,47.1767,0.002918
57.749,47.1929,0.002918
57.780,47.2096,0.002918
57.810,47.2271,0.002918
57.826,47.2364,0.002918
57.844,47.2472,0.002918
57.865,47.2604,0.002918
57.887,47.2745,0.002918
57.907,47.2879,0.002918
57.922,47.2978,0.002918
57.938,47.3081,0.002918
57.954,47.3194,0.002918
57.971,47.3319,0.002918
57.996,47.3494,0.002918
58.026,47.3711,0.002918
58.041,47.3833,0.002918
58.071,47.4060,0.002899
58.102,47.4310,0.002899
58.132,47.4550,0.002899
58.162,47.4805,0.002899
58.178,47.4943,0.002899
58.194,47.5079,0.002899
58.210,47.5224,0.002899
58.226,47.5362,0.002899
58.242,47.5510,0.002899
58.270,47.5768,0.002899
58.286,47.5925,0.002899
58.303,47.6076,0.002918
58.318,47.6225,0.002918
58.339,47.6435,0.002918
58.361,47.6652,0.002918
58.382,47.6861,0.002918
58.398,47.7028,0.002918
58.414,47.7195,0.002918
58.430,47.7361,0.002918
58.446,47.7530,0.002918
58.463,47.7715,0.002918
58.484,47.7945,0.002918
58.515,47.8294,0.002918
58.531,47.8459,0.002918
58.546,47.8642,0.002918
58.577,47.9001,0.002890
58.608,47.9368,0.002890
58.639,47.9729,0.002890
58.668,48.0095,0.002890
58.686,48.0306,0.002890
58.702,48.0518,0.002890
58.718,48.0716,0.002890
58.734,48.0919,0.002890
58.750,48.1125,0.002890
58.766,48.1339,0.002890
58.782,48.1543,0.002890
58.798,48.1752,0.002890
58.823,48.2093,0.002918
58.839,48.2304,0.002918
58.855,48.2531,0.002918
58.871,48.2746,0.002918
58.887,48.2971,0.002918
58.903,48.3205,0.002918
58.919,48.3421,0.002918
58.935,48.3655,0.002918
58.951,48.3891,0.002918
58.967,48.4123,0.002918
58.983,48.4347,0.002918
58.999,48.4591,0.002918
59.015,48.4830,0.002918
59.031,48.5063,0.002918
59.047,48.5315,0.002918
59.063,48.5562,0.002928
59.079,48.5804,0.002928
59.095,48.6045,0.002928
59.110,48.6296,0.002928
59.127,48.6555,0.002928
59.143,48.6801,0.002928
59.159,48.7060,0.002928
59.175,48.7320,0.002928
59.190,48.7580,0.002928
59.206,48.7838,0.002928
59.223,48.8108,0.002928
59.238,48.8368,0.002928
59.254,48.8635,0.002928
59.270,48.8908,0.002928
59.287,48.9183,0.002928
59.303,48.9463,0.002928
59.319,48.9735,0.002928
59.335,49.0008,0.002928
59.364,49.0519,0.002890
59.379,49.0779,0.002890
59.394,49.1058,0.002890
59.410,49.1349,0.002890
59.427,49.1649,0.002890
59.442,49.1924,0.002890
59.458,49.2217,0.002890
59.475,49.2518,0.002890
59.491,49.2821,0.002890
59.506,49.3110,0.002890
59.523,49.3411,0.002890
59.539,49.3714,0.002890
59.555,49.4028,0.002890
59.571,49.4345,0.002890
59.587,49.4634,0.002909
59.603,49.4961,0.002909
59.619,49.5271,0.002909
59.635,49.5574,0.002909
59.651,49.5883,0.002909
59.667,49.6202,0.002909
59.683,49.6525,0.002909
59.698,49.6837,0.002909
59.714,49.7155,0.002909
59.731,49.7491,0.002909
59.746,49.7810,0.002909
59.762,49.8141,0.002909
59.778,49.8477,0.002909
59.795,49.8812,0.002909
59.811,49.9147,0.002909
59.827,49.9496,0.003078
59.842,49.9817,0.003078
59.859,50.0179,0.003078
59.875,50.0503,0.003078
59.890,50.0831,0.003078
59.920,50.1457,0.003078
59.937,50.1796,0.003078
59.952,50.2123,0.003078
59.968,50.2452,0.003078
59.985,50.2792,0.003078
60.000,50.3096,0.003078
60.016,50.3417,0.003078
60.032,50.3746,0.003078
60.048,50.4057,0.003078
60.064,50.4374,0.003078
60.081,50.4692,0.003295
60.097,50.5006,0.003295
60.113,50.5324,0.003295
60.129,50.5629,0.003295
60.145,50.5941,0.003295
60.160,50.6234,0.003295
60.177,50.6537,0.003295
60.192,50.6828,0.003295
60.208,50.7128,0.003295
60.224,50.7425,0.003295
60.240,50.7732,0.003295
60.256,50.8012,0.003295
60.272,50.8311,0.003295
60.288,50.8598,0.003295
60.305,50.8890,0.003295
60.320,50.9168,0.003200
60.336,50.9455,0.003200
60.352,50.9728,0.003200
60.368,51.0023,0.003200
60.384,51.0293,0.003200
60.400,51.0557,0.003200
60.416,51.0844,0.003200
60.432,51.1112,0.003200
60.448,51.1375,0.003200
60.479,51.1898,0.003200
60.495,51.2162,0.003200
60.511,51.2423,0.003200
60.527,51.2696,0.003200
60.544,51.2956,0.003200
60.559,51.3192,0.003200
60.575,51.3450,0.002946
60.593,51.3748,0.002946
60.616,51.4106,0.002946
60.648,51.4576,0.002946
60.678,51.5054,0.002946
60.695,51.5284,0.002946
60.725,51.5743,0.002946
60.740,51.5954,0.002946
60.755,51.6181,0.002946
60.771,51.6400,0.002946
60.787,51.6639,0.002946
60.818,51.7077,0.002683
60.834,51.7289,0.002683
60.865,51.7721,0.002683
60.896,51.8134,0.002683
60.911,51.8342,0.002683
60.927,51.8553,0.002683
60.943,51.8760,0.002683
60.959,51.8964,0.002683
60.983,51.9282,0.002683
61.003,51.9548,0.002683
61.024,51.9798,0.002683
61.039,51.9978,0.002683
61.055,52.0180,0.002683
61.071,52.0371,0.002683
61.087,52.0560,0.002410
61.102,52.0746,0.002410
61.119,52.0946,0.002410
61.136,52.1133,0.002410
61.151,52.1305,0.002410
61.167,52.1488,0.002410
61.183,52.1671,0.002410
61.199,52.1853,0.002410
61.215,52.2026,0.002410
61.231,52.2199,0.002410
61.246,52.2373,0.002410
61.263,52.2545,0.002410
61.279,52.2722,0.002410
61.294,52.2880,0.002410
61.311,52.3054,0.002240
61.327,52.3208,0.002240
61.343,52.3369,0.002240
61.359,52.3528,0.002240
61.376,52.3698,0.002240
61.391,52.3844,0.002240
61.407,52.3995,0.002240
61.423,52.4145,0.002240
61.439,52.4299,0.002240
61.455,52.4447,0.002240
61.471,52.4591,0.002240
61.487,52.4733,0.002240
61.503,52.4887,0.002240
61.519,52.5021,0.002240
61.540,52.5201,0.002240
61.561,52.5372,0.002099
61.577,52.5511,0.002099
61.593,52.5640,0.002099
61.609,52.5765,0.002099
61.625,52.5902,0.002099
61.643,52.6039,0.002099
61.663,52.6192,0.002099
61.693,52.6420,0.002099
61.724,52.6639,0.002099
61.755,52.6858,0.002099
61.786,52.7066,0.002099
61.802,52.7174,0.002099
61.817,52.7277,0.002099
61.833,52.7370,0.001949
61.849,52.7472,0.001949
61.866,52.7577,0.001949
61.896,52.7758,0.001949
61.913,52.7852,0.001949
61.932,52.7958,0.001949
61.950,52.8061,0.001949
61.974,52.8191,0.001949
61.994,52.8288,0.001949
62.009,52.8367,0.001949
62.036,52.8494,0.001949
62.057,52.8593,0.001949
62.073,52.8667,0.001949
62.089,52.8738,0.001949
62.112,52.8842,0.001657
62.129,52.8909,0.001657
62.145,52.8970,0.001657
62.161,52.9032,0.001657
62.178,52.9098,0.001657
62.206,52.9198,0.001657
62.225,52.9261,0.001657
62.240,52.9313,0.001657
62.256,52.9364,0.001657
62.273,52.9415,0.001657
62.289,52.9461,0.001657
62.304,52.9507,0.001657
62.321,52.9549,0.001657
62.336,52.9589,0.001035
62.353,52.9628,0.001035
62.369,52.9666,0.001035
62.384,52.9699,0.001035
62.400,52.9733,0.001035
62.416,52.9764,0.001035
62.433,52.9793,0.001035
62.449,52.9821,0.001035
62.464,52.9845,0.001035
62.481,52.9872,0.001035
62.496,52.9891,0.001035
62.513,52.9911,0.001035
62.528,52.9929,0.001035
62.545,52.9945,0.001035
62.575,52.9968,0.000188
62.592,52.9979,0.000188
62.609,52.9988,0.000188
62.624,52.9994,0.000188
62.641,52.9998,0.000188
62.667,53.0001,0.000188
62.682,53.0001,0.000188
62.698,53.0001,0.000188
62.714,53.0001,0.000188
62.731,53.0001,0.000188
62.747,53.0001,0.000188
62.762,53.0001,0.000188
62.778,53.0001,0.000188
62.798,53.0001,0.000188
62.821,53.0001,0.000056
62.842,53.0001,0.000056
62.858,53.0001,0.000056
62.875,53.0001,0.000056
62.891,53.0001,0.000056
62.906,53.0001,0.000056
62.923,53.0001,0.000056
62.939,53.0001,0.000056
62.955,53.0001,0.000056
62.970,53.0001,0.000056
62.987,53.0001,0.000056
63.002,53.0001,0.000056
63.018,53.0001,0.000056
63.034,53.0001,0.000056
63.050,53.0001,0.000056
63.066,53.0001,0.000725
63.082,53.0001,0.000725
63.099,53.0001,0.000725
63.120,53.0001,0.000725
63.148,53.0001,0.000725
63.163,53.0001,0.000725
63.179,53.0001,0.000725
63.194,53.0001,0.000725
63.225,53.0001,0.000725
63.255,53.0001,0.000725
63.272,53.0001,0.000725
63.289,53.0001,0.000725
63.310,53.0001,0.000725
63.333,53.0001,0.001252
63.356,53.0001,0.001252
63.380,53.0001,0.001252
63.400,53.0001,0.001252
63.416,53.0001,0.001252
63.434,53.0001,0.001252
63.458,53.0001,0.001252
63.489,53.0001,0.001252
63.521,53.0001,0.001252
63.552,53.0001,0.001252
63.583,53.0001,0.001497
63.598,53.0001,0.001497
63.629,53.0001,0.001497
63.644,53.0001,0.001497
63.675,53.0001,0.001497
63.705,53.0001,0.001497
63.720,53.0001,0.001497
63.737,53.0001,0.001497
63.752,53.0001,0.001497
63.768,53.0001,0.001497
63.784,53.0001,0.001497
63.800,53.0001,0.001497
63.816,53.0001,0.001581
63.832,53.0001,0.001581
63.848,53.0001,0.001581
63.864,53.0001,0.001581
63.880,53.0001,0.001581
63.896,53.0001,0.001581
63.912,53.0001,0.001581
63.928,53.0001,0.001581
63.944,53.0001,0.001581
63.960,53.0001,0.001581
63.976,53.0001,0.001581
63.992,53.0001,0.001581
64.010,53.0001,0.001581
64.033,53.0001,0.001581
64.065,53.0001,0.001581
64.080,53.0001,0.001628
64.111,53.0001,0.001628
64.142,53.0001,0.001628
64.173,53.0001,0.001628
64.203,53.0001,0.001628
64.233,53.0001,0.001628
64.249,53.0001,0.001628
64.279,53.0001,0.001628
64.310,53.0001,0.001628
64.325,53.0001,0.001628
64.341,53.0001,0.001638
64.357,53.0001,0.001638
64.373,53.0001,0.001638
64.389,53.0001,0.001638
64.406,53.0001,0.001638
64.434,53.0001,0.001638
64.453,53.0001,0.001638
64.469,53.0001,0.001638
64.485,53.0001,0.001638
64.501,53.0001,0.001638
64.517,53.0001,0.001638
64.534,53.0001,0.001638
64.557,53.0001,0.001638
64.587,53.0001,0.001619
64.604,53.0001,0.001619
64.634,53.0001,0.001619
64.649,53.0001,0.001619
64.671,53.0001,0.001619
64.697,53.0001,0.001619
64.727,53.0001,0.001619
64.744,53.0001,0.001619
64.773,53.0001,0.001619
64.789,53.0001,0.001619
64.805,53.0001,0.001619
64.836,53.0001,0.001704
64.852,53.0001,0.001704
64.867,53.0001,0.001704
64.884,53.0001,0.001704
64.901,53.0001,0.001704
64.930,53.0001,0.001704
64.948,53.0001,0.001704
64.964,53.0001,0.001704
64.980,53.0001,0.001704
64.995,53.0001,0.001704
65.011,53.0001,0.001704
65.028,53.0001,0.001704
65.043,53.0001,0.001704
65.059,53.0001,0.001751
65.076,53.0001,0.001751
65.092,53.0001,0.001751
65.107,53.0001,0.001751
65.124,53.0001,0.001751
65.139,53.0001,0.001751
65.156,53.0001,0.001751
65.171,53.0001,0.001751
65.187,53.0001,0.001751
65.204,53.0001,0.001751
65.220,53.0001,0.001751
65.236,53.0001,0.001751
65.252,53.0001,0.001751
65.268,53.0001,0.001751
65.284,53.0001,0.001751
65.299,53.0001,0.001685
65.315,53.0001,0.001685
65.331,53.0001,0.001685
65.347,53.0001,0.001685
65.363,53.0001,0.001685
65.394,53.0001,0.001685
65.410,53.0001,0.001685
65.426,53.0001,0.001685
65.441,53.0001,0.001685
65.459,53.0001,0.001685
65.487,53.0001,0.001685
65.505,53.0001,0.001685
65.522,53.0001,0.001685
65.537,53.0001,0.001685
65.554,53.0001,0.001741
65.569,53.0001,0.001741
65.586,53.0001,0.001741
65.611,53.0001,0.001741
65.642,53.0001,0.001741
65.672,53.0001,0.001741
65.703,53.0001,0.001741
65.719,53.0001,0.001741
65.749,53.0001,0.001741
65.783,53.0001,0.001741
65.811,53.0001,0.001817
65.826,53.0001,0.001817
65.857,53.0001,0.001817
65.873,53.0001,0.001817
65.889,53.0001,0.001817
65.905,53.0001,0.001817
65.922,53.0001,0.001817
65.946,53.0001,0.001817
65.962,53.0001,0.001817
65.979,53.0001,0.001817
65.994,53.0001,0.001817
66.010,53.0001,0.001817
66.026,53.0001,0.001817
66.043,53.0001,0.001817
66.059,53.0001,0.001770
66.075,53.0001,0.001770
66.090,53.0001,0.001770
66.106,53.0001,0.001770
66.122,53.0001,0.001770
66.138,53.0001,0.001770
66.154,53.0001,0.001770
66.170,53.0001,0.001770
66.186,53.0001,0.001770
66.203,53.0001,0.001770
66.218,53.0001,0.001770
66.234,53.0001,0.001770
66.251,53.0001,0.001770
66.276,53.0001,0.001770
66.306,53.0001,0.001723
66.336,53.0001,0.001723
66.352,53.0001,0.001723
66.384,53.0001,0.001723
66.414,53.0001,0.001723
66.445,53.0001,0.001723
66.475,53.0001,0.001723
66.490,53.0001,0.001723
66.508,53.0001,0.001723
66.536,53.0001,0.001723
66.556,53.0001,0.001723
66.583,53.0001,0.001581
66.602,53.0001,0.001581
66.618,53.0001,0.001581
66.634,53.0001,0.001581
66.651,53.0001,0.001581
66.666,53.0001,0.001581
66.682,53.0001,0.001581
66.698,53.0001,0.001581
66.714,53.0001,0.001581
66.730,53.0001,0.001581
66.747,53.0001,0.001581
66.768,53.0001,0.001581
66.799,53.0001,0.001581
66.815,53.0001,0.001581
66.845,53.0001,0.001318
66.862,53.0001,0.001318
66.891,53.0001,0.001318
66.922,52.9999,0.001318
66.938,52.9997,0.001318
66.954,52.9992,0.001318
66.970,52.9986,0.001318
66.987,52.9976,0.001318
67.002,52.9966,0.001318
67.018,52.9953,0.001318
67.046,52.9926,0.001318
67.062,52.9909,0.001318
67.078,52.9889,0.001111
67.094,52.9868,0.001111
67.112,52.9841,0.001111
67.138,52.9797,0.001111
67.158,52.9762,0.001111
67.174,52.9729,0.001111
67.190,52.9695,0.001111
67.206,52.9661,0.001111
67.222,52.9623,0.001111
67.239,52.9583,0.001111
67.254,52.9543,0.001111
67.270,52.9501,0.001111
67.286,52.9456,0.001111
67.303,52.9408,0.001111
67.318,52.9361,0.003765
67.334,52.9308,0.003765
67.350,52.9256,0.003765
67.366,52.9202,0.003765
67.382,52.9144,0.003765
67.398,52.9088,0.003765
67.414,52.9024,0.003765
67.430,52.8962,0.003765
67.445,52.8900,0.003765
67.462,52.8835,0.003765
67.478,52.8762,0.003765
67.494,52.8695,0.003765
67.509,52.8624,0.003765
67.526,52.8549,0.003765
67.542,52.8470,0.003765
67.558,52.8391,0.003765
67.574,52.8313,0.003765
67.598,52.8189,0.008990
67.615,52.8103,0.008990
67.631,52.8014,0.008990
67.647,52.7926,0.008990
67.663,52.7831,0.008990
67.679,52.7741,0.008990
67.695,52.7645,0.008990
67.711,52.7554,0.008990
67.727,52.7449,0.008990
67.743,52.7349,0.008990
67.759,52.7247,0.008990
67.782,52.7093,0.008990
67.812,52.6894,0.008990
67.843,52.6682,0.009517
67.874,52.6453,0.009517
67.890,52.6333,0.009517
67.921,52.6100,0.009517
67.952,52.5868,0.009517
67.975,52.5676,0.009517
67.997,52.5495,0.009517
68.015,52.5351,0.009517
68.030,52.5219,0.009517
68.047,52.5073,0.009517
68.074,52.4841,0.009846
68.095,52.4655,0.009846
68.110,52.4514,0.009846
68.126,52.4366,0.009846
68.151,52.4134,0.009846
68.168,52.3975,0.009846
68.197,52.3700,0.009846
68.215,52.3514,0.009846
68.231,52.3355,0.009846
68.247,52.3197,0.009846
68.263,52.3033,0.009846
68.281,52.2853,0.009846
68.306,52.2579,0.012981
68.328,52.2356,0.012981
68.344,52.2180,0.012981
68.360,52.2008,0.012981
68.376,52.1826,0.012981
68.391,52.1656,0.012981
68.408,52.1465,0.012981
68.423,52.1290,0.012981
68.439,52.1108,0.012981
68.455,52.0918,0.012981
68.471,52.0730,0.012981
68.487,52.0541,0.012981
68.504,52.0345,0.012981
68.519,52.0156,0.012981
68.536,51.9956,0.012981
68.552,51.9752,0.008067
68.567,51.9563,0.008067
68.590,51.9258,0.008067
68.613,51.8982,0.008067
68.632,51.8737,0.008067
68.648,51.8527,0.008067
68.663,51.8320,0.008067
68.680,51.8102,0.008067
68.705,51.7756,0.008067
68.722,51.7526,0.008067
68.737,51.7315,0.008067
68.753,51.7088,0.008067
68.775,51.6781,0.008067
68.798,51.6453,0.002382
68.817,51.6183,0.002382
68.833,51.5945,0.002382
68.850,51.5702,0.002382
68.865,51.5479,0.002382
68.881,51.5237,0.002382
68.898,51.4984,0.002382
68.914,51.4748,0.002382
68.930,51.4508,0.002382
68.945,51.4271,0.002382
68.965,51.3962,0.002382
68.983,51.3674,0.002382
68.999,51.3425,0.002382
69.029,51.2942,0.002382
69.059,51.2445,0.002523
69.075,51.2192,0.002523
69.107,51.1671,0.002523
69.137,51.1153,0.002523
69.153,51.0893,0.002523
69.169,51.0623,0.002523
69.185,51.0349,0.002523
69.201,51.0067,0.002523
69.217,50.9786,0.002523
69.233,50.9509,0.002523
69.261,50.9019,0.002523
69.277,50.8729,0.002523
69.293,50.8443,0.002523
69.310,50.8131,0.002777
69.339,50.7606,0.002777
69.357,50.7262,0.002777
69.373,50.6969,0.002777
69.389,50.6675,0.002777
69.405,50.6359,0.002777
69.421,50.6070,0.002777
69.437,50.5759,0.002777
69.453,50.5451,0.002777
69.469,50.5146,0.002777
69.485,50.4837,0.002777
69.502,50.4500,0.002777
69.525,50.4050,0.002777
69.541,50.3729,0.002777
69.572,50.3090,0.002777
69.588,50.2776,0.002777
69.604,50.2459,0.003172
69.622,50.2103,0.003172
69.651,50.1478,0.003172
69.667,50.1161,0.003172
69.698,50.0489,0.003172
69.729,49.9852,0.003172
69.744,49.9518,0.003172
69.775,49.8861,0.003172
69.807,49.8196,0.003172
69.837,49.7566,0.003436
69.853,49.7246,0.003436
69.869,49.6912,0.003436
69.885,49.6587,0.003436
69.901,49.6272,0.003436
69.918,49.5934,0.003436
69.938,49.5524,0.003436
69.961,49.5071,0.003436
69.981,49.4694,0.003436
69.997,49.4371,0.003436
70.013,49.4061,0.003436
70.029,49.3757,0.003436
70.045,49.3452,0.003436
70.061,49.3148,0.003436
70.077,49.2847,0.003436
70.093,49.2552,0.003586
70.109,49.2254,0.003586
70.125,49.1934,0.003586
70.141,49.1659,0.003586
70.157,49.1373,0.003586
70.173,49.1066,0.003586
70.190,49.0767,0.003586
70.205,49.0502,0.003586
70.221,49.0222,0.003586
70.237,48.9934,0.003586
70.253,48.9657,0.003586
70.269,48.9373,0.003586
70.285,48.9109,0.003586
70.307,48.8712,0.003586
70.331,48.8314,0.003586
70.347,48.8050,0.003586
70.362,48.7795,0.003906
70.378,48.7536,0.003906
70.394,48.7268,0.003906
70.410,48.7004,0.003906
70.426,48.6751,0.003906
70.442,48.6497,0.003906
70.457,48.6238,0.003906
70.474,48.5987,0.003906
70.490,48.5730,0.003906
70.506,48.5480,0.003906
70.522,48.5238,0.003906
70.538,48.4989,0.003906
70.554,48.4746,0.003906
70.569,48.4504,0.003906
70.586,48.4258,0.004349
70.602,48.4028,0.004349
70.618,48.3779,0.004349
70.634,48.3554,0.004349
70.649,48.3323,0.004349
70.666,48.3094,0.004349
70.682,48.2855,0.004349
70.697,48.2640,0.004349
70.714,48.2409,0.004349
70.730,48.2186,0.004349
70.746,48.1964,0.004349
70.762,48.1747,0.004349
70.778,48.1532,0.004349
70.794,48.1319,0.004349
70.809,48.1108,0.004349
70.825,48.0896,0.004349
70.841,48.0688,0.004349
70.857,48.0480,0.004631
70.874,48.0266,0.004631
70.890,48.0066,0.004631
70.906,47.9853,0.004631
70.925,47.9628,0.004631
70.954,47.9270,0.004631
70.970,47.9075,0.004631
70.986,47.8888,0.004631
71.001,47.8701,0.004631
71.018,47.8511,0.004631
71.034,47.8325,0.004631
71.051,47.8131,0.004631
71.073,47.7865,0.004631
71.089,47.7692,0.004810
71.120,47.7356,0.004810
71.136,47.7188,0.004810
71.166,47.6858,0.004810
71.183,47.6682,0.004810
71.213,47.6365,0.004810
71.243,47.6064,0.004810
71.274,47.5761,0.004810
71.291,47.5600,0.004810
71.321,47.5319,0.005036
71.337,47.5165,0.005036
71.356,47.4985,0.005036
71.381,47.4764,0.005036
71.402,47.4584,0.005036
71.418,47.4438,0.005036
71.433,47.4312,0.005036
71.450,47.4171,0.005036
71.466,47.4039,0.005036
71.482,47.3906,0.005036
71.497,47.3779,0.005036
71.513,47.3653,0.005036
71.529,47.3528,0.005036
71.546,47.3400,0.005036
71.562,47.3276,0.005036
71.577,47.3162,0.005149
71.594,47.3040,0.005149
71.610,47.2921,0.005149
71.625,47.2812,0.005149
71.641,47.2699,0.005149
71.657,47.2588,0.005149
71.674,47.2480,0.005149
71.690,47.2372,0.005149
71.705,47.2271,0.005149
71.721,47.2168,0.005149
71.737,47.2064,0.005149
71.754,47.1966,0.005149
71.770,47.1866,0.005149
71.786,47.1774,0.005149
71.802,47.1681,0.005149
71.817,47.1593,0.005140
71.834,47.1501,0.005140
71.849,47.1413,0.005140
71.865,47.1331,0.005140
71.881,47.1247,0.005140
71.898,47.1165,0.005140
71.927,47.1017,0.005140
71.943,47.0947,0.005140
71.958,47.0875,0.005140
71.976,47.0797,0.005140
71.991,47.0727,0.005140
72.014,47.0634,0.005140
72.044,47.0508,0.005140
72.075,47.0392,0.004989
72.106,47.0281,0.004989
72.136,47.0184,0.004989
72.152,47.0134,0.004989
72.182,47.0043,0.004989
72.198,46.9998,0.004989
72.217,46.9946,0.004989
72.245,46.9879,0.004989
72.262,46.9838,0.004989
72.280,46.9800,0.004989
72.306,46.9745,0.004678
72.326,46.9709,0.004678
72.342,46.9680,0.004678
72.358,46.9656,0.004678
72.374,46.9632,0.004678
72.390,46.9610,0.004678
72.406,46.9591,0.004678
72.422,46.9573,0.004678
72.438,46.9558,0.004678
72.462,46.9538,0.004678
72.478,46.9527,0.004678
72.494,46.9517,0.004678
72.510,46.9511,0.004678
72.526,46.9506,0.004678
72.542,46.9502,0.004678
72.558,46.9501,0.003925
72.574,46.9501,0.003925
72.590,46.9501,0.003925
72.606,46.9501,0.003925
72.622,46.9501,0.003925
72.638,46.9501,0.003925
72.654,46.9501,0.003925
72.670,46.9501,0.003925
72.686,46.9501,0.003925
72.702,46.9501,0.003925
72.718,46.9503,0.003925
72.734,46.9508,0.003925
72.750,46.9514,0.003925
72.766,46.9522,0.003925
72.782,46.9533,0.003925
72.798,46.9544,0.003210
72.814,46.9558,0.003210
72.830,46.9574,0.003210
72.846,46.9592,0.003210
72.862,46.9611,0.003210
72.878,46.9633,0.003210
72.894,46.9657,0.003210
72.911,46.9683,0.003210
72.926,46.9710,0.003210
72.942,46.9740,0.003210
72.958,46.9773,0.003210
72.974,46.9805,0.003210
72.990,46.9839,0.003210
73.017,46.9902,0.003210
73.033,46.9945,0.003210
73.049,46.9986,0.002984
73.065,47.0030,0.002984
73.082,47.0080,0.002984
73.097,47.0124,0.002984
73.113,47.0174,0.002984
73.129,47.0227,0.002984
73.145,47.0283,0.002984
73.161,47.0337,0.002984
73.177,47.0395,0.002984
73.193,47.0454,0.002984
73.210,47.0525,0.002984
73.239,47.0638,0.002984
73.257,47.0714,0.002984
73.273,47.0782,0.002984
73.289,47.0854,0.002984
73.305,47.0928,0.002899
73.321,47.1003,0.002899
73.337,47.1082,0.002899
73.353,47.1163,0.002899
73.369,47.1239,0.002899
73.385,47.1328,0.002899
73.401,47.1412,0.002899
73.417,47.1495,0.002899
73.433,47.1583,0.002899
73.448,47.1675,0.002899
73.466,47.1778,0.002899
73.482,47.1867,0.002899
73.497,47.1959,0.002899
73.513,47.2057,0.002899
73.540,47.2229,0.002899
73.556,47.2336,0.002899
73.571,47.2441,0.002975
73.588,47.2547,0.002975
73.604,47.2660,0.002975
73.619,47.2764,0.002975
73.636,47.2882,0.002975
73.652,47.2999,0.002975
73.667,47.3112,0.002975
73.684,47.3234,0.002975
73.700,47.3354,0.002975
73.716,47.3478,0.002975
73.731,47.3600,0.002975
73.748,47.3729,0.002975
73.766,47.3881,0.002975
73.795,47.4117,0.002975
73.811,47.4254,0.002984
73.828,47.4396,0.002984
73.843,47.4530,0.002984
73.859,47.4670,0.002984
73.875,47.4811,0.002984
73.894,47.4985,0.002984
73.920,47.5231,0.002984
73.939,47.5402,0.002984
73.957,47.5572,0.002984
73.973,47.5718,0.002984
73.988,47.5867,0.002984
74.004,47.6027,0.002984
74.020,47.6195,0.002984
74.036,47.6355,0.002984
74.052,47.6517,0.002984
74.077,47.6771,0.002956
74.093,47.6945,0.002956
74.109,47.7109,0.002956
74.125,47.7289,0.002956
74.141,47.7467,0.002956
74.157,47.7633,0.002956
74.172,47.7809,0.002956
74.188,47.7989,0.002956
74.207,47.8215,0.002956
74.223,47.8387,0.002956
74.247,47.8663,0.002956
74.277,47.9036,0.002956
74.293,47.9218,0.002956
74.326,47.9616,0.002956
74.355,47.9989,0.002956
74.385,48.0366,0.002956
74.416,48.0768,0.002956
74.447,48.1174,0.002956
74.462,48.1373,0.002956
74.492,48.1784,0.002956
74.509,48.2016,0.002956
74.538,48.2423,0.002956
74.556,48.2677,0.002956
74.572,48.2899,0.002956
74.588,48.3132,0.002956
74.604,48.3373,0.002956
74.628,48.3706,0.002956
74.644,48.3939,0.002956
74.660,48.4173,0.002956
74.675,48.4418,0.002956
74.694,48.4697,0.002956
74.710,48.4925,0.002956
74.726,48.5170,0.002956
74.741,48.5417,0.002956
74.772,48.5906,0.002956
74.788,48.6142,0.002956
74.804,48.6404,0.002956
74.820,48.6656,0.002956
74.835,48.6905,0.002956
74.851,48.7164,0.002956
74.873,48.7529,0.002956
74.896,48.7903,0.002956
74.915,48.8237,0.002956
74.931,48.8506,0.002956
74.948,48.8784,0.002956
74.964,48.9054,0.002956
74.979,48.9318,0.002956
74.996,48.9612,0.002956
75.012,48.9888,0.002956
75.027,49.0165,0.002956
75.043,49.0441,0.002956
75.059,49.0733,0.002956
75.075,49.1020,0.002956
75.091,49.1304,0.003003
75.107,49.1605,0.003003
75.125,49.1920,0.003003
75.144,49.2278,0.003003
75.175,49.2863,0.003003
75.190,49.3153,0.003003
75.205,49.3435,0.003003
75.221,49.3730,0.003003
75.252,49.4330,0.003003
75.268,49.4645,0.003003
75.297,49.5226,0.003003
75.320,49.5683,0.003003
75.344,49.6147,0.003031
75.364,49.6553,0.003031
75.379,49.6859,0.003031
75.395,49.7181,0.003031
75.412,49.7520,0.003031
75.428,49.7857,0.003031
75.444,49.8193,0.003031
75.459,49.8499,0.003031
75.475,49.8840,0.003031
75.491,49.9179,0.003031
75.507,49.9528,0.003031
75.523,49.9853,0.003031
75.539,50.0195,0.003031
75.555,50.0531,0.003031
75.571,50.0867,0.003153
75.587,50.1204,0.003153
75.603,50.1535,0.003153
75.619,50.1855,0.003153
75.635,50.2193,0.003153
75.651,50.2523,0.003153
75.670,50.2901,0.003153
75.699,50.3457,0.003153
75.715,50.3787,0.003153
75.731,50.4104,0.003153
75.747,50.4417,0.003153
75.763,50.4727,0.003153
75.779,50.5028,0.003153
75.796,50.5351,0.003153
75.811,50.5652,0.003153
75.827,50.5947,0.003304
75.843,50.6251,0.003304
75.860,50.6580,0.003304
75.884,50.7023,0.003304
75.900,50.7305,0.003304
75.919,50.7655,0.003304
75.939,50.8011,0.003304
75.955,50.8295,0.003304
75.970,50.8582,0.003304
75.987,50.8879,0.003304
76.003,50.9152,0.003304
76.019,50.9426,0.003304
76.035,50.9705,0.003304
76.051,50.9988,0.003304
76.067,51.0256,0.003172
76.083,51.0528,0.003172
76.100,51.0820,0.003172
76.116,51.1092,0.003172
76.147,51.1597,0.003172
76.164,51.1874,0.003172
76.193,51.2357,0.003172
76.211,51.2641,0.003172
76.228,51.2913,0.003172
76.256,51.3344,0.003172
76.275,51.3643,0.003172
76.291,51.3901,0.003172
76.307,51.4142,0.002871
76.322,51.4375,0.002871
76.339,51.4625,0.002871
76.355,51.4863,0.002871
76.371,51.5093,0.002871
76.387,51.5347,0.002871
76.403,51.5573,0.002871
76.419,51.5807,0.002871
76.439,51.6093,0.002871
76.470,51.6527,0.002871
76.499,51.6933,0.002871
76.516,51.7167,0.002871
76.545,51.7572,0.002570
76.563,51.7794,0.002570
76.581,51.8029,0.002570
76.608,51.8389,0.002570
76.627,51.8628,0.002570
76.642,51.8828,0.002570
76.659,51.9036,0.002570
76.674,51.9235,0.002570
76.691,51.9434,0.002570
76.707,51.9637,0.002570
76.722,51.9821,0.002570
76.739,52.0025,0.002570
76.754,52.0205,0.002570
76.771,52.0412,0.002570
76.787,52.0595,0.002570
76.802,52.0766,0.002570
76.825,52.1027,0.002363
76.842,52.1216,0.002363
76.858,52.1390,0.002363
76.874,52.1567,0.002363
76.890,52.1744,0.002363
76.906,52.1914,0.002363
76.921,52.2082,0.002363
76.941,52.2283,0.002363
76.956,52.2440,0.002363
76.980,52.2699,0.002363
77.002,52.2908,0.002363
77.019,52.3079,0.002363
77.043,52.3314,0.002363
77.073,52.3603,0.002222
77.088,52.3744,0.002222
77.104,52.3894,0.002222
77.119,52.4031,0.002222
77.136,52.4178,0.002222
77.167,52.4458,0.002222
77.197,52.4721,0.002222
77.229,52.4987,0.002222
77.244,52.5110,0.002222
77.260,52.5237,0.002222
77.276,52.5362,0.002222
77.306,52.5606,0.002222
77.321,52.5714,0.002222
77.337,52.5833,0.002222
77.353,52.5952,0.002222
77.369,52.6070,0.002109
77.385,52.6183,0.002109
77.402,52.6300,0.002109
77.417,52.6408,0.002109
77.434,52.6517,0.002109
77.450,52.6627,0.002109
77.476,52.6797,0.002109
77.498,52.6931,0.002109
77.513,52.7028,0.002109
77.530,52.7126,0.002109
77.545,52.7221,0.002109
77.562,52.7314,0.002109
77.578,52.7407,0.002109
77.594,52.7495,0.001977
77.609,52.7581,0.001977
77.626,52.7668,0.001977
77.642,52.7749,0.001977
77.657,52.7829,0.001977
77.673,52.7912,0.001977
77.690,52.7994,0.001977
77.706,52.8065,0.001977
77.721,52.8136,0.001977
77.737,52.8210,0.001977
77.754,52.8279,0.001977
77.769,52.8346,0.001977
77.785,52.8411,0.001977
77.801,52.8475,0.001977
77.817,52.8537,0.001977
77.833,52.8599,0.001676
77.849,52.8657,0.001676
77.873,52.8740,0.001676
77.896,52.8815,0.001676
77.922,52.8900,0.001676
77.945,52.8965,0.001676
77.961,52.9008,0.001676
77.977,52.9052,0.001676
77.993,52.9093,0.001676
78.009,52.9131,0.001676
78.026,52.9168,0.001676
78.041,52.9203,0.001676
78.057,52.9237,0.000979
78.074,52.9269,0.000979
78.097,52.9311,0.000979
78.113,52.9336,0.000979
78.144,52.9380,0.000979
78.159,52.9401,0.000979
78.176,52.9420,0.000979
78.206,52.9450,0.000979
78.222,52.9463,0.000979
78.253,52.9483,0.000979
78.269,52.9490,0.000979
78.300,52.9499,0.000160
78.330,52.9501,0.000160
78.345,52.9501,0.000160
78.361,52.9501,0.000160
78.377,52.9501,0.000160
78.393,52.9501,0.000160
78.409,52.9501,0.000160
78.425,52.9501,0.000160
78.453,52.9501,0.000160
78.469,52.9501,0.000160
78.485,52.9501,0.000160
78.501,52.9501,0.000160
78.517,52.9501,0.000160
78.533,52.9501,0.000160
78.549,52.9501,0.000320
78.565,52.9501,0.000320
78.581,52.9501,0.000320
78.597,52.9501,0.000320
78.613,52.9501,0.000320
78.629,52.9501,0.000320
78.649,52.9501,0.000320
78.672,52.9501,0.000320
78.701,52.9501,0.000320
78.717,52.9501,0.000320
78.747,52.9501,0.000320
78.779,52.9501,0.000320
78.809,52.9501,0.001101
78.841,52.9501,0.001101
78.871,52.9501,0.001101
78.902,52.9501,0.001101
78.932,52.9501,0.001101
78.949,52.9501,0.001101
78.964,52.9501,0.001101
78.981,52.9501,0.001101
79.010,52.9501,0.001101
79.029,52.9501,0.001101
79.055,52.9501,0.001440
79.075,52.9501,0.001440
79.102,52.9501,0.001440
79.122,52.9501,0.001440
79.141,52.9501,0.001440
79.156,52.9501,0.001440
79.179,52.9501,0.001440
79.211,52.9501,0.001440
79.241,52.9501,0.001440
79.272,52.9501,0.001440
79.288,52.9501,0.001440
79.320,52.9501,0.001553
79.350,52.9501,0.001553
79.366,52.9501,0.001553
79.382,52.9501,0.001553
79.413,52.9501,0.001553
79.442,52.9501,0.001553
79.458,52.9501,0.001553
79.474,52.9501,0.001553
79.498,52.9501,0.001553
79.520,52.9501,0.001553
79.537,52.9501,0.001553
79.554,52.9501,0.001553
79.570,52.9501,0.001553
79.585,52.9501,0.001553
79.602,52.9501,0.001591
79.617,52.9501,0.001591
79.636,52.9501,0.001591
79.662,52.9501,0.001591
79.681,52.9501,0.001591
79.698,52.9501,0.001591
79.714,52.9501,0.001591
79.730,52.9501,0.001591
79.745,52.9501,0.001591
79.765,52.9501,0.001591
79.785,52.9501,0.001591
79.815,52.9501,0.001666
79.846,52.9501,0.001666
79.877,52.9501,0.001666
79.893,52.9501,0.001666
79.924,52.9501,0.001666
79.955,52.9501,0.001666
79.985,52.9501,0.001666
80.002,52.9501,0.001666
80.032,52.9501,0.001666
80.049,52.9501,0.001732
80.067,52.9501,0.001732
80.093,52.9501,0.001732
80.113,52.9501,0.001732
80.130,52.9501,0.001732
80.146,52.9501,0.001732
80.161,52.9501,0.001732
80.178,52.9501,0.001732
80.194,52.9501,0.001732
80.210,52.9501,0.001732
80.225,52.9501,0.001732
80.242,52.9501,0.001732
80.257,52.9501,0.001732
80.273,52.9501,0.001732
80.290,52.9501,0.001732
80.305,52.9501,0.001732
80.321,52.9501,0.001741
80.337,52.9501,0.001741
80.353,52.9501,0.001741
80.369,52.9501,0.001741
80.386,52.9501,0.001741
80.402,52.9501,0.001741
80.419,52.9501,0.001741
80.448,52.9501,0.001741
80.465,52.9501,0.001741
80.481,52.9501,0.001741
80.497,52.9501,0.001741
80.513,52.9501,0.001741
80.529,52.9501,0.001741
80.546,52.9501,0.001741
80.574,52.9501,0.001713
80.593,52.9501,0.001713
80.610,52.9501,0.001713
80.626,52.9501,0.001713
80.641,52.9501,0.001713
80.665,52.9501,0.001713
80.682,52.9501,0.001713
80.697,52.9501,0.001713
80.713,52.9501,0.001713
80.734,52.9501,0.001713
80.758,52.9501,0.001713
80.777,52.9501,0.001713
80.794,52.9501,0.001713
80.809,52.9501,0.001713
80.825,52.9501,0.001732
80.841,52.9501,0.001732
80.857,52.9501,0.001732
80.873,52.9501,0.001732
80.889,52.9501,0.001732
80.906,52.9501,0.001732
80.921,52.9501,0.001732
80.937,52.9501,0.001732
80.953,52.9501,0.001732
80.969,52.9501,0.001732
80.986,52.9501,0.001732
81.001,52.9501,0.001732
81.017,52.9501,0.001732
81.033,52.9501,0.001732
81.049,52.9501,0.001807
81.065,52.9501,0.001807
81.081,52.9501,0.001807
81.097,52.9501,0.001807
81.114,52.9501,0.001807
81.129,52.9501,0.001807
81.146,52.9501,0.001807
81.176,52.9501,0.001807
81.206,52.9501,0.001807
81.222,52.9501,0.001807
81.238,52.9501,0.001807
81.254,52.9501,0.001807
81.272,52.9501,0.001807
81.300,52.9501,0.001779
81.318,52.9501,0.001779
81.335,52.9501,0.001779
81.362,52.9501,0.001779
81.382,52.9501,0.001779
81.398,52.9501,0.001779
81.414,52.9501,0.001779
81.430,52.9501,0.001779
81.446,52.9501,0.001779
81.462,52.9501,0.001779
81.478,52.9501,0.001779
81.494,52.9501,0.001779
81.510,52.9501,0.001779
81.526,52.9501,0.001779
81.542,52.9501,0.001779
81.558,52.9501,0.001741
81.574,52.9501,0.001741
81.590,52.9501,0.001741
81.606,52.9501,0.001741
81.622,52.9501,0.001741
81.638,52.9501,0.001741
81.655,52.9501,0.001741
81.670,52.9501,0.001741
81.686,52.9501,0.001741
81.703,52.9501,0.001741
81.718,52.9501,0.001741
81.734,52.9501,0.001741
81.764,52.9501,0.001741
81.781,52.9501,0.001741
81.796,52.9501,0.001779
81.812,52.9501,0.001779
81.828,52.9501,0.001779
81.844,52.9501,0.001779
81.860,52.9501,0.001779
81.876,52.9501,0.001779
81.892,52.9501,0.001779
81.908,52.9501,0.001779
81.924,52.9501,0.001779
81.940,52.9501,0.001779
81.956,52.9501,0.001779
81.972,52.9501,0.001779
81.989,52.9501,0.001779
82.004,52.9501,0.001779
82.023,52.9501,0.001779
82.048,52.9501,0.001779
82.068,52.9501,0.001779
82.084,52.9501,0.001694
82.100,52.9501,0.001694
82.116,52.9501,0.001694
82.132,52.9501,0.001694
82.148,52.9501,0.001694
82.164,52.9501,0.001694
82.180,52.9501,0.001694
82.196,52.9501,0.001694
82.212,52.9501,0.001694
82.228,52.9501,0.001694
82.244,52.9501,0.001694
82.261,52.9501,0.001694
82.276,52.9501,0.001694
82.292,52.9501,0.001694
82.308,52.9501,0.001694
82.323,52.9501,0.001468
82.340,52.9501,0.001468
82.356,52.9501,0.001468
82.372,52.9501,0.001468
82.388,52.9501,0.001468
82.403,52.9501,0.001468
82.420,52.9501,0.001468
82.436,52.9501,0.001468
82.454,52.9501,0.001468
82.480,52.9501,0.001468
82.500,52.9501,0.001468
82.516,52.9501,0.001468
82.532,52.9501,0.001468
82.547,52.9501,0.001271
82.565,52.9501,0.001271
82.580,52.9499,0.001271
82.596,52.9496,0.001271
82.612,52.9490,0.001271
82.628,52.9482,0.001271
82.644,52.9473,0.001271
82.659,52.9462,0.001271
82.676,52.9449,0.001271
82.692,52.9434,0.001271
82.707,52.9416,0.001271
82.723,52.9398,0.001271
82.740,52.9377,0.001271
82.755,52.9354,0.001271
82.771,52.9330,0.001271
82.788,52.9302,0.001271
82.803,52.9274,0.001271
82.819,52.9243,0.001271
82.835,52.9210,0.001271
82.852,52.9176,0.001271
82.868,52.9140,0.001487
82.883,52.9101,0.001487
82.900,52.9060,0.001487
82.915,52.9019,0.001487
82.932,52.8971,0.001487
82.962,52.8883,0.001487
82.980,52.8830,0.001487
82.996,52.8778,0.001487
83.011,52.8726,0.001487
83.027,52.8670,0.001487
83.044,52.8609,0.001487
83.061,52.8548,0.001487
83.076,52.8489,0.001487
83.092,52.8425,0.005714
83.107,52.8362,0.005714
83.125,52.8280,0.005714
83.148,52.8185,0.005714
83.178,52.8048,0.005714
83.194,52.7969,0.005714
83.226,52.7818,0.005714
83.256,52.7656,0.005714
83.287,52.7495,0.005714
83.317,52.7318,0.005714
83.348,52.7139,0.009677
83.380,52.6948,0.009677
83.396,52.6848,0.009677
83.423,52.6672,0.009677
83.440,52.6558,0.009677
83.457,52.6446,0.009677
83.473,52.6341,0.009677
83.489,52.6226,0.009677
83.505,52.6110,0.009677
83.535,52.5894,0.009677
83.552,52.5761,0.009677
83.568,52.5647,0.009677
83.583,52.5529,0.009413
83.599,52.5403,0.009413
83.615,52.5276,0.009413
83.631,52.5144,0.009413
83.647,52.5017,0.009413
83.663,52.4882,0.009413
83.680,52.4734,0.009413
83.708,52.4499,0.009413
83.727,52.4335,0.009413
83.743,52.4189,0.009413
83.763,52.4015,0.009413
83.785,52.3808,0.009413
83.800,52.3658,0.009413
83.817,52.3508,0.009413
83.847,52.3223,0.011992
83.863,52.3055,0.011992
83.879,52.2903,0.011992
83.895,52.2746,0.011992
83.925,52.2430,0.011992
83.955,52.2115,0.011992
83.971,52.1951,0.011992
83.986,52.1781,0.011992
84.017,52.1453,0.011992
84.047,52.1115,0.011992
84.063,52.0929,0.011992
84.079,52.0751,0.010411
84.095,52.0566,0.010411
84.111,52.0378,0.010411
84.127,52.0192,0.010411
84.143,51.9999,0.010411
84.159,51.9810,0.010411
84.176,51.9595,0.010411
84.195,51.9372,0.010411
84.218,51.9065,0.010411
84.239,51.8815,0.010411
84.255,51.8611,0.010411
84.271,51.8407,0.010411
84.287,51.8184,0.010411
84.303,51.7984,0.010411
84.319,51.7766,0.010411
84.335,51.7562,0.004208
84.351,51.7345,0.004208
84.367,51.7119,0.004208
84.383,51.6905,0.004208
84.399,51.6684,0.004208
84.416,51.6441,0.004208
84.432,51.6200,0.004208
84.463,51.5773,0.004208
84.479,51.5537,0.004208
84.495,51.5307,0.004208
84.511,51.5077,0.004208
84.527,51.4836,0.004208
84.543,51.4602,0.004208
84.559,51.4351,0.004208
84.575,51.4116,0.002457
84.591,51.3868,0.002457
84.607,51.3623,0.002457
84.623,51.3368,0.002457
84.639,51.3120,0.002457
84.655,51.2865,0.002457
84.672,51.2603,0.002457
84.699,51.2160,0.002457
84.719,51.1837,0.002457
84.735,51.1567,0.002457
84.751,51.1315,0.002457
84.767,51.1039,0.002457
84.783,51.0779,0.002457
84.799,51.0507,0.002457
84.815,51.0239,0.002457
84.831,50.9966,0.002655
84.847,50.9681,0.002655
84.863,50.9403,0.002655
84.879,50.9125,0.002655
84.895,50.8848,0.002655
84.911,50.8561,0.002655
84.927,50.8274,0.002655
84.943,50.7989,0.002655
84.959,50.7702,0.002655
84.975,50.7408,0.002655
84.991,50.7117,0.002655
85.007,50.6819,0.002655
85.023,50.6523,0.002655
85.039,50.6214,0.002655
85.055,50.5914,0.002655
85.071,50.5609,0.002965
85.087,50.5314,0.002965
85.103,50.4995,0.002965
85.123,50.4608,0.002965
85.147,50.4142,0.002965
85.167,50.3742,0.002965
85.183,50.3443,0.002965
85.199,50.3101,0.002965
85.215,50.2796,0.002965
85.231,50.2465,0.002965
85.246,50.2158,0.002965
85.263,50.1817,0.002965
85.279,50.1500,0.002965
85.301,50.1035,0.002965
85.317,50.0701,0.002965
85.332,50.0379,0.003313
85.364,49.9715,0.003313
85.394,49.9080,0.003313
85.409,49.8739,0.003313
85.440,49.8104,0.003313
85.470,49.7468,0.003313
85.487,49.7124,0.003313
85.502,49.6806,0.003313
85.518,49.6479,0.003313
85.534,49.6138,0.003313
85.551,49.5823,0.003313
85.566,49.5512,0.003313
85.595,49.4950,0.003521
85.611,49.4625,0.003521
85.626,49.4318,0.003521
85.643,49.4003,0.003521
85.659,49.3678,0.003521
85.675,49.3380,0.003521
85.690,49.3081,0.003521
85.706,49.2779,0.003521
85.724,49.2452,0.003521
85.739,49.2166,0.003521
85.754,49.1876,0.003521
85.770,49.1581,0.003521
85.788,49.1243,0.003521
85.812,49.0810,0.003521
85.842,49.0276,0.003718
85.858,48.9993,0.003718
85.873,48.9716,0.003718
85.889,48.9429,0.003718
85.905,48.9161,0.003718
85.921,48.8882,0.003718
85.952,48.8337,0.003718
85.969,48.8055,0.003718
85.999,48.7553,0.003718
86.030,48.7033,0.003718
86.061,48.6527,0.004132
86.091,48.6023,0.004132
86.114,48.5670,0.004132
86.131,48.5407,0.004132
86.147,48.5161,0.004132
86.162,48.4918,0.004132
86.178,48.4669,0.004132
86.194,48.4426,0.004132
86.210,48.4176,0.004132
86.226,48.3933,0.004132
86.242,48.3699,0.004132
86.258,48.3463,0.004132
86.275,48.3208,0.004132
86.292,48.2952,0.004132
86.322,48.2528,0.004500
86.340,48.2281,0.004500
86.369,48.1863,0.004500
86.386,48.1631,0.004500
86.403,48.1391,0.004500
86.419,48.1184,0.004500
86.435,48.0970,0.004500
86.450,48.0761,0.004500
86.466,48.0549,0.004500
86.483,48.0334,0.004500
86.499,48.0126,0.004500
86.514,47.9924,0.004500
86.530,47.9716,0.004500
86.546,47.9513,0.004500
86.563,47.9306,0.004782
86.578,47.9112,0.004782
86.595,47.8910,0.004782
86.610,47.8722,0.004782
86.626,47.8532,0.004782
86.649,47.8250,0.004782
86.666,47.8061,0.004782
86.681,47.7878,0.004782
86.697,47.7695,0.004782
86.714,47.7504,0.004782
86.729,47.7329,0.004782
86.745,47.7155,0.004782
86.761,47.6976,0.004782
86.778,47.6798,0.004782
86.793,47.6625,0.004782
86.809,47.6456,0.004989
86.825,47.6290,0.004989
86.842,47.6110,0.004989
86.866,47.5859,0.004989
86.882,47.5708,0.004989
86.897,47.5554,0.004989
86.913,47.5391,0.004989
86.943,47.5102,0.004989
86.974,47.4805,0.004989
86.990,47.4653,0.004989
87.006,47.4514,0.004989
87.023,47.4355,0.004989
87.054,47.4077,0.005083
87.084,47.3823,0.005083
87.099,47.3694,0.005083
87.115,47.3554,0.005083
87.131,47.3428,0.005083
87.147,47.3298,0.005083
87.177,47.3060,0.005083
87.193,47.2939,0.005083
87.214,47.2769,0.005083
87.230,47.2652,0.005083
87.246,47.2537,0.005083
87.262,47.2421,0.005083
87.278,47.2302,0.005083
87.294,47.2198,0.005083
87.310,47.2088,0.005121
87.326,47.1977,0.005121
87.343,47.1861,0.005121
87.362,47.1736,0.005121
87.392,47.1545,0.005121
87.423,47.1362,0.005121
87.454,47.1182,0.005121
87.470,47.1088,0.005121
87.486,47.1001,0.005121
87.502,47.0913,0.005121
87.520,47.0818,0.005121
87.535,47.0735,0.005121
87.550,47.0663,0.005074
87.566,47.0586,0.005074
87.582,47.0509,0.005074
87.598,47.0432,0.005074
87.614,47.0360,0.005074
87.630,47.0287,0.005074
87.646,47.0219,0.005074
87.662,47.0151,0.005074
87.678,47.0085,0.005074
87.694,47.0019,0.005074
87.710,46.9957,0.005074
87.726,46.9899,0.005074
87.742,46.9838,0.005074
87.766,46.9756,0.005074
87.782,46.9704,0.005074
87.798,46.9652,0.004876
87.814,46.9605,0.004876
87.836,46.9537,0.004876
87.855,46.9483,0.004876
87.874,46.9435,0.004876
87.894,46.9384,0.004876
87.910,46.9348,0.004876
87.926,46.9313,0.004876
87.942,46.9280,0.004876
87.960,46.9243,0.004876
87.982,46.9202,0.004876
88.014,46.9151,0.004876
88.045,46.9109,0.004876
88.076,46.9072,0.004405
88.091,46.9057,0.004405
88.107,46.9043,0.004405
88.139,46.9021,0.004405
88.168,46.9008,0.004405
88.184,46.9005,0.004405
88.214,46.9001,0.004405
88.230,46.9001,0.004405
88.245,46.9001,0.004405
88.265,46.9001,0.004405
88.292,46.9001,0.004405
88.323,46.9001,0.003530
88.340,46.9001,0.003530
88.356,46.9002,0.003530
88.371,46.9006,0.003530
88.390,46.9012,0.003530
88.415,46.9024,0.003530
88.435,46.9038,0.003530
88.453,46.9053,0.003530
88.477,46.9076,0.003530
88.508,46.9114,0.003530
88.525,46.9137,0.003530
88.555,46.9184,0.003530
88.571,46.9210,0.003050
88.587,46.9240,0.003050
88.603,46.9269,0.003050
88.633,46.9336,0.003050
88.665,46.9410,0.003050
88.696,46.9492,0.003050
88.725,46.9575,0.003050
88.741,46.9627,0.003050
88.757,46.9674,0.003050
88.773,46.9724,0.003050
88.803,46.9828,0.003050
88.828,46.9916,0.003050
88.844,46.9976,0.003050
88.859,47.0038,0.003012
88.875,47.0101,0.003012
88.892,47.0169,0.003012
88.907,47.0236,0.003012
88.924,47.0308,0.003012
88.939,47.0380,0.003012
88.955,47.0452,0.003012
88.971,47.0528,0.003012
88.988,47.0608,0.003012
89.003,47.0689,0.003012
89.020,47.0771,0.003012
89.036,47.0854,0.003012
89.051,47.0938,0.003012
89.068,47.1029,0.003012
89.083,47.1113,0.003012
89.100,47.1207,0.002965
89.116,47.1305,0.002965
89.132,47.1396,0.002965
89.147,47.1490,0.002965
89.163,47.1589,0.002965
89.180,47.1697,0.002965
89.195,47.1794,0.002965
89.213,47.1908,0.002965
89.235,47.2060,0.002965
89.266,47.2274,0.002965
89.296,47.2490,0.002965
89.327,47.2723,0.002965
89.342,47.2838,0.002965
89.362,47.2986,0.002993
89.379,47.3116,0.002993
89.394,47.3240,0.002993
89.410,47.3366,0.002993
89.427,47.3510,0.002993
89.444,47.3650,0.002993
89.465,47.3830,0.002993
89.482,47.3975,0.002993
89.512,47.4237,0.002993
89.528,47.4378,0.002993
89.559,47.4658,0.002993
89.590,47.4948,0.003012
89.620,47.5245,0.003012
89.651,47.5542,0.003012
89.668,47.5713,0.003012
89.683,47.5866,0.003012
89.713,47.6179,0.003012
89.732,47.6386,0.003012
89.759,47.6663,0.003012
89.778,47.6874,0.003012
89.795,47.7059,0.003012
89.822,47.7364,0.003031
89.842,47.7586,0.003031
89.858,47.7778,0.003031
89.874,47.7954,0.003031
89.890,47.8144,0.003031
89.915,47.8444,0.003031
89.932,47.8641,0.003031
89.947,47.8826,0.003031
89.963,47.9017,0.003031
89.979,47.9215,0.003031
89.995,47.9418,0.003031
90.011,47.9625,0.003031
90.027,47.9822,0.003031
90.043,48.0030,0.003031
90.059,48.0237,0.003031
90.075,48.0451,0.003040
90.092,48.0675,0.003040
90.110,48.0908,0.003040
90.131,48.1196,0.003040
90.162,48.1623,0.003040
90.181,48.1881,0.003040
90.209,48.2285,0.003040
90.224,48.2493,0.003040
90.240,48.2723,0.003040
90.271,48.3182,0.003040
90.287,48.3404,0.003040
90.303,48.3653,0.003040
90.333,48.4111,0.003031
90.365,48.4583,0.003031
90.395,48.5040,0.003031
90.411,48.5306,0.003031
90.427,48.5542,0.003031
90.443,48.5802,0.003031
90.472,48.6269,0.003031
90.488,48.6530,0.003031
90.504,48.6785,0.003031
90.520,48.7046,0.003031
90.542,48.7431,0.003031
90.564,48.7792,0.003031
90.584,48.8134,0.002993
90.600,48.8396,0.002993
90.616,48.8667,0.002993
90.632,48.8956,0.002993
90.648,48.9223,0.002993
90.665,48.9523,0.002993
90.680,48.9800,0.002993
90.696,49.0092,0.002993
90.712,49.0361,0.002993
90.728,49.0663,0.002993
90.744,49.0937,0.002993
90.760,49.1230,0.002993
90.776,49.1526,0.002993
90.792,49.1841,0.002993
90.808,49.2125,0.002993
90.824,49.2421,0.002984
90.840,49.2722,0.002984
90.856,49.3028,0.002984
90.871,49.3334,0.002984
90.887,49.3638,0.002984
90.906,49.4000,0.002984
90.936,49.4592,0.002984
90.951,49.4902,0.002984
90.968,49.5222,0.002984
90.984,49.5543,0.002984
90.999,49.5851,0.002984
91.029,49.6457,0.002984
91.045,49.6767,0.002984
91.061,49.7101,0.003022
91.077,49.7432,0.003022
91.093,49.7767,0.003022
91.109,49.8114,0.003022
91.137,49.8701,0.003022
91.157,49.9120,0.003022
91.172,49.9449,0.003022
91.189,49.9798,0.003022
91.204,50.0120,0.003022
91.221,50.0472,0.003022
91.244,50.0964,0.003022
91.260,50.1267,0.003022
91.292,50.1917,0.003022
91.321,50.2516,0.003295
91.338,50.2839,0.003295
91.354,50.3177,0.003295
91.384,50.3761,0.003295
91.415,50.4359,0.003295
91.445,50.4949,0.003295
91.461,50.5234,0.003295
91.477,50.5538,0.003295
91.492,50.5828,0.003295
91.508,50.6128,0.003295
91.524,50.6429,0.003295
91.540,50.6720,0.003295
91.556,50.7016,0.003295
91.585,50.7526,0.003417
91.601,50.7821,0.003417
91.617,50.8107,0.003417
91.632,50.8381,0.003417
91.649,50.8662,0.003417
91.665,50.8948,0.003417
91.680,50.9214,0.003417
91.696,50.9490,0.003417
91.713,50.9774,0.003417
91.728,51.0035,0.003417
91.745,51.0313,0.003417
91.761,51.0596,0.003417
91.777,51.0845,0.003417
91.794,51.1125,0.003417
91.818,51.1530,0.003125
91.833,51.1768,0.003125
91.850,51.2036,0.003125
91.879,51.2521,0.003125
91.914,51.3049,0.003125
91.941,51.3467,0.003125
91.971,51.3933,0.003125
92.002,51.4408,0.003125
92.019,51.4643,0.003125
92.050,51.5089,0.002833
92.065,51.5340,0.002833
92.081,51.5537,0.002833
92.096,51.5759,0.002833
92.124,51.6161,0.002833
92.142,51.6408,0.002833
92.158,51.6626,0.002833
92.189,51.7039,0.002833
92.205,51.7252,0.002833
92.220,51.7457,0.002833
92.236,51.7676,0.002833
92.252,51.7872,0.002833
92.268,51.8087,0.002833
92.284,51.8285,0.002833
92.300,51.8491,0.002570
92.317,51.8696,0.002570
92.332,51.8892,0.002570
92.348,51.9083,0.002570
92.365,51.9290,0.002570
92.381,51.9482,0.002570
92.396,51.9661,0.002570
92.412,51.9858,0.002570
92.428,52.0039,0.002570
92.445,52.0237,0.002570
92.460,52.0414,0.002570
92.476,52.0588,0.002570
92.492,52.0768,0.002570
92.508,52.0951,0.002570
92.524,52.1120,0.002570
92.540,52.1294,0.002570
92.557,52.1480,0.002344
92.572,52.1643,0.002344
92.588,52.1806,0.002344
92.604,52.1971,0.002344
92.620,52.2139,0.002344
92.644,52.2382,0.002344
92.660,52.2536,0.002344
92.676,52.2693,0.002344
92.692,52.2854,0.002344
92.708,52.3012,0.002344
92.724,52.3153,0.002344
92.740,52.3303,0.002344
92.756,52.3457,0.002344
92.772,52.3597,0.002344
92.788,52.3740,0.002344
92.804,52.3885,0.002344
92.820,52.4025,0.002344
92.836,52.4161,0.002212
92.852,52.4299,0.002212
92.868,52.4433,0.002212
92.884,52.4562,0.002212
92.900,52.4696,0.002212
92.916,52.4826,0.002212
92.933,52.4956,0.002212
92.948,52.5071,0.002212
92.964,52.5192,0.002212
92.980,52.5312,0.002212
92.997,52.5445,0.002212
93.013,52.5559,0.002212
93.028,52.5667,0.002212
93.044,52.5779,0.002212
93.062,52.5905,0.002212
93.087,52.6069,0.002061
93.109,52.6215,0.002061
93.126,52.6327,0.002061
93.142,52.6425,0.002061
93.163,52.6558,0.002061
93.179,52.6666,0.002061
93.202,52.6787,0.002061
93.219,52.6885,0.002061
93.242,52.7013,0.002061
93.272,52.7177,0.002061
93.303,52.7335,0.001817
93.320,52.7416,0.001817
93.350,52.7560,0.001817
93.366,52.7634,0.001817
93.397,52.7771,0.001817
93.427,52.7900,0.001817
93.459,52.8025,0.001817
93.474,52.8082,0.001817
93.492,52.8145,0.001817
93.521,52.8249,0.001817
93.538,52.8305,0.001817
93.554,52.8355,0.001817
93.571,52.8406,0.001817
93.586,52.8451,0.001365
93.602,52.8497,0.001365
93.619,52.8543,0.001365
93.645,52.8611,0.001365
93.666,52.8657,0.001365
93.682,52.8693,0.001365
93.698,52.8728,0.001365
93.714,52.8759,0.001365
93.737,52.8801,0.001365
93.754,52.8830,0.001365
93.769,52.8853,0.001365
93.786,52.8877,0.001365
93.802,52.8898,0.001365
93.818,52.8917,0.001365
93.833,52.8934,0.000471
93.850,52.8949,0.000471
93.866,52.8962,0.000471
93.881,52.8974,0.000471
93.898,52.8984,0.000471
93.914,52.8990,0.000471
93.930,52.8996,0.000471
93.945,52.9000,0.000471
93.961,52.9001,0.000471
93.977,52.9001,0.000471
93.994,52.9001,0.000471
94.010,52.9001,0.000471
94.025,52.9001,0.000471
94.041,52.9001,0.000471
94.058,52.9001,0.000471
