Elapsed Time (s),Position (mm),Force (N)
-0.019,62.9501,-0.000499
0.001,62.9501,-0.000499
0.028,62.9501,-0.000499
0.044,62.9501,-0.000499
0.060,62.9501,-0.000499
0.075,62.9501,-0.000499
0.091,62.9501,-0.000499
0.108,62.9501,-0.000499
0.123,62.9501,-0.000499
0.139,62.9501,-0.000499
0.156,62.9501,-0.000499
0.182,62.9501,-0.000489
0.199,62.9501,-0.000489
0.215,62.9501,-0.000489
0.230,62.9501,-0.000489
0.248,62.9501,-0.000489
0.276,62.9501,-0.000489
0.295,62.9501,-0.000489
0.312,62.9501,-0.000489
0.338,62.9501,-0.000489
0.358,62.9501,-0.000489
0.375,62.9501,-0.000489
0.390,62.9501,-0.000489
0.407,62.9501,-0.000471
0.423,62.9501,-0.000471
0.439,62.9501,-0.000471
0.455,62.9501,-0.000471
0.471,62.9501,-0.000471
0.486,62.9501,-0.000471
0.503,62.9501,-0.000471
0.519,62.9501,-0.000471
0.534,62.9501,-0.000471
0.551,62.9501,-0.000471
0.567,62.9501,-0.000471
0.582,62.9501,-0.000471
0.598,62.9501,-0.000471
0.616,62.9501,-0.000471
0.646,62.9501,-0.000489
0.662,62.9501,-0.000489
0.679,62.9501,-0.000489
0.695,62.9501,-0.000489
0.711,62.9501,-0.000489
0.738,62.9501,-0.000489
0.754,62.9501,-0.000489
0.770,62.9501,-0.000489
0.786,62.9501,-0.000489
0.802,62.9501,-0.000489
0.819,62.9501,-0.000489
0.834,62.9501,-0.000489
0.850,62.9501,-0.000489
0.866,62.9501,-0.000489
0.882,62.9501,-0.000489
0.899,62.9501,-0.000508
0.914,62.9501,-0.000508
0.932,62.9501,-0.000508
0.955,62.9501,-0.000508
0.986,62.9501,-0.000508
1.003,62.9501,-0.000508
1.034,62.9501,-0.000508
1.065,62.9501,-0.000508
1.081,62.9501,-0.000508
1.111,62.9501,-0.000508
1.127,62.9501,-0.000508
1.157,62.9501,-0.000452
1.173,62.9501,-0.000452
1.189,62.9501,-0.000452
1.220,62.9501,-0.000452
1.235,62.9501,-0.000452
1.267,62.9501,-0.000452
1.297,62.9501,-0.000452
1.313,62.9501,-0.000452
1.329,62.9501,-0.000452
1.345,62.9501,-0.000452
1.361,62.9501,-0.000452
1.377,62.9501,-0.000452
1.393,62.9501,-0.000386
1.410,62.9501,-0.000386
1.425,62.9501,-0.000386
1.441,62.9501,-0.000386
1.457,62.9501,-0.000386
1.473,62.9501,-0.000386
1.489,62.9501,-0.000386
1.505,62.9501,-0.000386
1.521,62.9501,-0.000386
1.537,62.9501,-0.000386
1.553,62.9501,-0.000386
1.569,62.9501,-0.000386
1.585,62.9501,-0.000386
1.601,62.9501,-0.000386
1.617,62.9501,-0.000386
1.633,62.9501,-0.000386
1.650,62.9501,-0.000452
1.665,62.9501,-0.000452
1.683,62.9501,-0.000452
1.702,62.9501,-0.000452
1.733,62.9501,-0.000452
1.763,62.9501,-0.000452
1.793,62.9501,-0.000452
1.809,62.9501,-0.000452
1.834,62.9501,-0.000452
1.855,62.9501,-0.000452
1.870,62.9501,-0.000461
1.901,62.9501,-0.000461
1.931,62.9501,-0.000461
1.946,62.9501,-0.000461
1.963,62.9501,-0.000461
1.993,62.9501,-0.000461
2.009,62.9501,-0.000461
2.026,62.9501,-0.000461
2.041,62.9501,-0.000461
2.057,62.9501,-0.000461
2.073,62.9501,-0.000461
2.090,62.9501,-0.000461
2.105,62.9501,-0.000461
2.121,62.9501,-0.000442
2.137,62.9501,-0.000442
2.153,62.9501,-0.000442
2.169,62.9501,-0.000442
2.185,62.9501,-0.000442
2.201,62.9501,-0.000442
2.217,62.9501,-0.000442
2.233,62.9501,-0.000442
2.249,62.9501,-0.000442
2.265,62.9501,-0.000442
2.281,62.9501,-0.000442
2.298,62.9501,-0.000442
2.320,62.9501,-0.000442
2.351,62.9501,-0.000442
2.372,62.9501,-0.000442
2.388,62.9501,-0.000442
2.404,62.9501,-0.000461
2.420,62.9501,-0.000461
2.436,62.9501,-0.000461
2.452,62.9501,-0.000461
2.468,62.9501,-0.000461
2.484,62.9501,-0.000461
2.500,62.9501,-0.000461
2.516,62.9501,-0.000461
2.532,62.9501,-0.000461
2.548,62.9501,-0.000461
2.563,62.9501,-0.000461
2.580,62.9501,-0.000461
2.595,62.9501,-0.000461
2.612,62.9501,-0.000461
2.627,62.9501,-0.000471
2.644,62.9501,-0.000471
2.660,62.9501,-0.000471
2.675,62.9501,-0.000471
2.692,62.9501,-0.000471
2.708,62.9501,-0.000471
2.725,62.9501,-0.000471
2.740,62.9501,-0.000471
2.755,62.9501,-0.000471
2.771,62.9501,-0.000471
2.790,62.9501,-0.000471
2.815,62.9501,-0.000471
2.836,62.9501,-0.000471
2.851,62.9501,-0.000471
2.868,62.9501,-0.000471
2.883,62.9501,-0.000471
2.908,62.9501,-0.000518
2.923,62.9501,-0.000518
2.939,62.9501,-0.000518
2.956,62.9501,-0.000518
2.972,62.9501,-0.000518
2.988,62.9501,-0.000518
3.003,62.9501,-0.000518
3.019,62.9501,-0.000518
3.036,62.9501,-0.000518
3.052,62.9501,-0.000518
3.068,62.9501,-0.000518
3.084,62.9501,-0.000518
3.099,62.9501,-0.000518
3.115,62.9501,-0.000499
3.132,62.9501,-0.000499
3.148,62.9501,-0.000499
3.164,62.9501,-0.000499
3.180,62.9501,-0.000499
3.196,62.9501,-0.000499
3.212,62.9501,-0.000499
3.228,62.9501,-0.000499
3.243,62.9501,-0.000499
3.259,62.9501,-0.000499
3.277,62.9501,-0.000499
3.297,62.9501,-0.000499
3.328,62.9501,-0.000499
3.359,62.9501,-0.000499
3.391,62.9501,-0.000461
3.407,62.9501,-0.000461
3.422,62.9501,-0.000461
3.453,62.9501,-0.000461
3.468,62.9501,-0.000461
3.484,62.9501,-0.000461
3.499,62.9501,-0.000461
3.517,62.9501,-0.000461
3.546,62.9501,-0.000461
3.563,62.9501,-0.000461
3.581,62.9501,-0.000461
3.608,62.9501,-0.000461
3.627,62.9501,-0.000508
3.644,62.9501,-0.000508
3.659,62.9501,-0.000508
3.676,62.9501,-0.000508
3.692,62.9501,-0.000508
3.708,62.9501,-0.000508
3.723,62.9501,-0.000508
3.739,62.9501,-0.000508
3.756,62.9501,-0.000508
3.771,62.9501,-0.000508
3.787,62.9501,-0.000508
3.803,62.9501,-0.000508
3.819,62.9501,-0.000508
3.835,62.9501,-0.000508
3.851,62.9501,-0.000508
3.867,62.9501,-0.000508
3.883,62.9501,-0.000508
3.900,62.9501,-0.000650
3.915,62.9501,-0.000650
3.932,62.9501,-0.000650
3.948,62.9501,-0.000650
3.963,62.9501,-0.000650
3.994,62.9501,-0.000650
4.010,62.9501,-0.000650
4.030,62.9501,-0.000650
4.056,62.9501,-0.000650
4.074,62.9501,-0.000650
4.089,62.9501,-0.000650
4.105,62.9501,-0.000650
4.121,62.9501,-0.000762
4.137,62.9498,-0.000762
4.153,62.9495,-0.000762
4.169,62.9490,-0.000762
4.189,62.9478,-0.000762
4.211,62.9465,-0.000762
4.242,62.9439,-0.000762
4.273,62.9405,-0.000762
4.288,62.9385,-0.000762
4.304,62.9364,-0.000762
4.320,62.9340,-0.000762
4.351,62.9287,-0.000762
4.367,62.9259,-0.000762
4.382,62.9228,-0.000762
4.413,62.9163,-0.000489
4.429,62.9123,-0.000489
4.459,62.9049,-0.000489
4.475,62.9007,-0.000489
4.490,62.8965,-0.000489
4.505,62.8922,-0.000489
4.521,62.8872,-0.000489
4.550,62.8781,-0.000489
4.566,62.8727,-0.000489
4.582,62.8671,-0.000489
4.598,62.8612,-0.000489
4.615,62.8550,-0.000489
4.631,62.8491,-0.000489
4.646,62.8428,0.001506
4.662,62.8365,0.001506
4.679,62.8293,0.001506
4.694,62.8227,0.001506
4.710,62.8156,0.001506
4.726,62.8084,0.001506
4.743,62.8004,0.001506
4.769,62.7877,0.001506
4.790,62.7769,0.001506
4.807,62.7679,0.001506
4.831,62.7555,0.001506
4.862,62.7380,0.001506
4.892,62.7210,0.001506
4.922,62.7028,0.005196
4.940,62.6917,0.005196
4.968,62.6738,0.005196
4.999,62.6533,0.005196
5.029,62.6325,0.005196
5.048,62.6201,0.005196
5.073,62.6021,0.005196
5.089,62.5899,0.005196
5.105,62.5780,0.005196
5.121,62.5661,0.005196
5.137,62.5542,0.005196
5.153,62.5418,0.009724
5.169,62.5290,0.009724
5.185,62.5161,0.009724
5.201,62.5029,0.009724
5.218,62.4888,0.009724
5.238,62.4711,0.009724
5.262,62.4509,0.009724
5.281,62.4349,0.009724
5.298,62.4193,0.009724
5.313,62.4059,0.009724
5.329,62.3916,0.009724
5.345,62.3768,0.009724
5.361,62.3613,0.009724
5.377,62.3463,0.009724
5.393,62.3313,0.014779
5.409,62.3158,0.014779
5.425,62.2987,0.014779
5.441,62.2838,0.014779
5.457,62.2678,0.014779
5.473,62.2515,0.014779
5.490,62.2332,0.014779
5.510,62.2129,0.014779
5.541,62.1788,0.014779
5.572,62.1459,0.014779
5.602,62.1118,0.014779
5.617,62.0943,0.014779
5.633,62.0773,0.014779
5.649,62.0588,0.008462
5.665,62.0395,0.008462
5.681,62.0204,0.008462
5.697,62.0018,0.008462
5.713,61.9823,0.008462
5.729,61.9631,0.008462
5.745,61.9436,0.008462
5.761,61.9229,0.008462
5.776,61.9039,0.008462
5.793,61.8830,0.008462
5.809,61.8624,0.008462
5.824,61.8427,0.008462
5.841,61.8213,0.008462
5.856,61.8006,0.008462
5.873,61.7789,0.008462
5.889,61.7572,-0.000358
5.905,61.7363,-0.000358
5.920,61.7146,-0.000358
5.936,61.6929,-0.000358
5.952,61.6705,-0.000358
5.968,61.6483,-0.000358
5.985,61.6248,-0.000358
6.000,61.6031,-0.000358
6.017,61.5796,-0.000358
6.033,61.5564,-0.000358
6.048,61.5331,-0.000358
6.064,61.5100,-0.000358
6.081,61.4857,-0.000358
6.097,61.4624,-0.000358
6.113,61.4377,-0.000358
6.128,61.4138,-0.000358
6.157,61.3704,-0.000311
6.172,61.3451,-0.000311
6.189,61.3208,-0.000311
6.204,61.2961,-0.000311
6.221,61.2691,-0.000311
6.237,61.2436,-0.000311
6.253,61.2185,-0.000311
6.268,61.1935,-0.000311
6.284,61.1666,-0.000311
6.301,61.1401,-0.000311
6.316,61.1143,-0.000311
6.332,61.0874,-0.000311
6.349,61.0585,-0.000311
6.365,61.0326,-0.000311
6.380,61.0059,-0.000301
6.397,60.9777,-0.000301
6.412,60.9505,-0.000301
6.428,60.9223,-0.000301
6.444,60.8949,-0.000301
6.460,60.8664,-0.000301
6.478,60.8346,-0.000301
6.493,60.8076,-0.000301
6.509,60.7792,-0.000301
6.524,60.7511,-0.000301
6.541,60.7196,-0.000301
6.556,60.6919,-0.000301
6.572,60.6628,-0.000301
6.588,60.6332,-0.000301
6.604,60.6026,-0.000301
6.620,60.5727,-0.000273
6.637,60.5414,-0.000273
6.653,60.5107,-0.000273
6.668,60.4804,-0.000273
6.685,60.4478,-0.000273
6.700,60.4183,-0.000273
6.721,60.3770,-0.000273
6.738,60.3434,-0.000273
6.753,60.3135,-0.000273
6.769,60.2816,-0.000273
6.789,60.2407,-0.000273
6.813,60.1924,-0.000273
6.834,60.1500,-0.000273
6.849,60.1184,-0.000273
6.865,60.0854,-0.000273
6.882,60.0512,-0.000113
6.897,60.0185,-0.000113
6.913,59.9841,-0.000113
6.929,59.9506,-0.000113
6.945,59.9166,-0.000113
6.962,59.8799,-0.000113
6.980,59.8416,-0.000113
7.011,59.7787,-0.000113
7.029,59.7360,-0.000113
7.060,59.6750,-0.000113
7.087,59.6202,-0.000113
7.107,59.5814,-0.000113
7.135,59.5252,-0.000141
7.153,59.4878,-0.000141
7.169,59.4568,-0.000141
7.185,59.4255,-0.000141
7.201,59.3941,-0.000141
7.217,59.3630,-0.000141
7.233,59.3316,-0.000141
7.249,59.3019,-0.000141
7.277,59.2480,-0.000141
7.294,59.2169,-0.000141
7.309,59.1877,-0.000141
7.325,59.1593,-0.000141
7.342,59.1285,-0.000141
7.357,59.1001,-0.000141
7.373,59.0696,-0.000198
7.389,59.0416,-0.000198
7.405,59.0120,-0.000198
7.421,58.9853,-0.000198
7.437,58.9563,-0.000198
7.453,58.9282,-0.000198
7.469,58.9003,-0.000198
7.485,58.8733,-0.000198
7.501,58.8455,-0.000198
7.517,58.8184,-0.000198
7.533,58.7908,-0.000198
7.549,58.7635,-0.000198
7.565,58.7366,-0.000198
7.581,58.7102,-0.000198
7.598,58.6827,-0.000198
7.629,58.6326,-0.000151
7.646,58.6037,-0.000151
7.677,58.5551,-0.000151
7.693,58.5299,-0.000151
7.709,58.5045,-0.000151
7.725,58.4803,-0.000151
7.741,58.4553,-0.000151
7.757,58.4312,-0.000151
7.774,58.4051,-0.000151
7.789,58.3825,-0.000151
7.805,58.3591,-0.000151
7.832,58.3192,-0.000151
7.848,58.2952,-0.000151
7.864,58.2722,-0.000075
7.880,58.2496,-0.000075
7.901,58.2170,-0.000075
7.924,58.1866,-0.000075
7.944,58.1596,-0.000075
7.960,58.1377,-0.000075
7.976,58.1158,-0.000075
7.992,58.0933,-0.000075
8.008,58.0717,-0.000075
8.024,58.0513,-0.000075
8.040,58.0302,-0.000075
8.056,58.0099,-0.000075
8.072,57.9883,-0.000075
8.088,57.9678,-0.000075
8.104,57.9481,-0.000075
8.120,57.9286,0.000066
8.136,57.9088,0.000066
8.157,57.8817,0.000066
8.173,57.8638,0.000066
8.188,57.8450,0.000066
8.219,57.8074,0.000066
8.235,57.7896,0.000066
8.266,57.7537,0.000066
8.283,57.7342,0.000066
8.313,57.7017,0.000066
8.328,57.6849,0.000066
8.344,57.6674,0.000066
8.360,57.6508,0.000066
8.388,57.6210,0.000160
8.404,57.6042,0.000160
8.420,57.5882,0.000160
8.435,57.5723,0.000160
8.453,57.5539,0.000160
8.481,57.5269,0.000160
8.500,57.5089,0.000160
8.516,57.4934,0.000160
8.531,57.4785,0.000160
8.547,57.4640,0.000160
8.564,57.4490,0.000160
8.580,57.4341,0.000160
8.595,57.4204,0.000160
8.611,57.4064,0.000160
8.628,57.3921,0.000235
8.643,57.3786,0.000235
8.659,57.3653,0.000235
8.676,57.3519,0.000235
8.692,57.3386,0.000235
8.707,57.3259,0.000235
8.723,57.3132,0.000235
8.740,57.2999,0.000235
8.756,57.2877,0.000235
8.771,57.2761,0.000235
8.788,57.2639,0.000235
8.804,57.2519,0.000235
8.819,57.2405,0.000235
8.835,57.2294,0.000235
8.852,57.2181,0.000235
8.867,57.2067,0.000235
8.883,57.1964,0.000235
8.900,57.1855,0.000235
8.931,57.1655,0.000245
8.947,57.1553,0.000245
8.963,57.1454,0.000245
8.979,57.1359,0.000245
8.996,57.1257,0.000245
9.026,57.1086,0.000245
9.042,57.0994,0.000245
9.058,57.0906,0.000245
9.075,57.0820,0.000245
9.090,57.0740,0.000245
9.106,57.0659,0.000245
9.123,57.0577,0.000245
9.138,57.0502,0.000245
9.154,57.0427,0.000226
9.170,57.0354,0.000226
9.187,57.0281,0.000226
9.202,57.0213,0.000226
9.218,57.0144,0.000226
9.234,57.0080,0.000226
9.251,57.0013,0.000226
9.266,56.9955,0.000226
9.282,56.9895,0.000226
9.299,56.9833,0.000226
9.315,56.9779,0.000226
9.330,56.9726,0.000226
9.346,56.9674,0.000226
9.363,56.9621,0.000226
9.380,56.9571,0.000226
9.396,56.9526,0.000207
9.426,56.9441,0.000207
9.443,56.9402,0.000207
9.458,56.9364,0.000207
9.489,56.9295,0.000207
9.511,56.9250,0.000207
9.534,56.9208,0.000207
9.552,56.9177,0.000207
9.568,56.9152,0.000207
9.584,56.9129,0.000207
9.600,56.9108,0.000207
9.617,56.9088,0.000207
9.633,56.9070,0.000207
9.649,56.9055,0.000235
9.664,56.9042,0.000235
9.680,56.9029,0.000235
9.697,56.9021,0.000235
9.713,56.9012,0.000235
9.729,56.9007,0.000235
9.745,56.9003,0.000235
9.760,56.9001,0.000235
9.776,56.9001,0.000235
9.792,56.9001,0.000235
9.809,56.9001,0.000235
9.824,56.9001,0.000235
9.840,56.9001,0.000235
9.856,56.9001,0.000235
9.872,56.9001,0.000235
9.888,56.9003,0.000301
9.904,56.9008,0.000301
9.921,56.9015,0.000301
9.953,56.9033,0.000301
9.985,56.9059,0.000301
10.000,56.9074,0.000301
10.016,56.9091,0.000301
10.046,56.9131,0.000301
10.070,56.9167,0.000301
10.092,56.9203,0.000301
10.109,56.9235,0.000301
10.125,56.9268,0.000301
10.141,56.9299,0.000245
10.157,56.9333,0.000245
10.173,56.9371,0.000245
10.189,56.9409,0.000245
10.205,56.9451,0.000245
10.221,56.9492,0.000245
10.237,56.9537,0.000245
10.253,56.9584,0.000245
10.269,56.9631,0.000245
10.285,56.9682,0.000245
10.301,56.9735,0.000245
10.318,56.9791,0.000245
10.340,56.9870,0.000245
10.371,56.9988,0.000245
10.387,57.0049,0.000245
10.417,57.0172,0.000217
10.447,57.0306,0.000217
10.478,57.0443,0.000217
10.493,57.0516,0.000217
10.509,57.0592,0.000217
10.525,57.0674,0.000217
10.543,57.0766,0.000217
10.569,57.0903,0.000217
10.585,57.0989,0.000217
10.601,57.1078,0.000217
10.617,57.1163,0.000217
10.633,57.1258,0.000217
10.649,57.1354,0.000254
10.665,57.1449,0.000254
10.681,57.1553,0.000254
10.697,57.1650,0.000254
10.713,57.1751,0.000254
10.729,57.1852,0.000254
10.747,57.1976,0.000254
10.771,57.2139,0.000254
10.787,57.2247,0.000254
10.818,57.2469,0.000254
10.849,57.2693,0.000254
10.864,57.2817,0.000254
10.880,57.2934,0.000254
10.911,57.3176,0.000235
10.942,57.3429,0.000235
10.958,57.3554,0.000235
10.973,57.3682,0.000235
10.989,57.3824,0.000235
11.004,57.3954,0.000235
11.020,57.4086,0.000235
11.036,57.4227,0.000235
11.051,57.4372,0.000235
11.067,57.4515,0.000235
11.082,57.4651,0.000235
11.098,57.4792,0.000235
11.129,57.5098,0.000235
11.145,57.5239,0.000226
11.161,57.5399,0.000226
11.178,57.5569,0.000226
11.208,57.5868,0.000226
11.225,57.6044,0.000226
11.248,57.6289,0.000226
11.270,57.6520,0.000226
11.289,57.6720,0.000226
11.307,57.6912,0.000226
11.332,57.7195,0.000226
11.353,57.7426,0.000226
11.369,57.7614,0.000226
11.385,57.7788,0.000226
11.401,57.7974,0.000217
11.417,57.8160,0.000217
11.433,57.8354,0.000217
11.450,57.8553,0.000217
11.465,57.8744,0.000217
11.481,57.8930,0.000217
11.497,57.9131,0.000217
11.512,57.9325,0.000217
11.528,57.9526,0.000217
11.545,57.9729,0.000217
11.560,57.9937,0.000217
11.576,58.0142,0.000217
11.593,58.0352,0.000217
11.609,58.0575,0.000217
11.625,58.0774,0.000217
11.640,58.0987,0.000217
11.656,58.1204,0.000217
11.673,58.1422,0.000141
11.689,58.1655,0.000141
11.704,58.1866,0.000141
11.721,58.2094,0.000141
11.736,58.2314,0.000141
11.753,58.2552,0.000141
11.768,58.2771,0.000141
11.785,58.3018,0.000141
11.803,58.3274,0.000141
11.827,58.3639,0.000141
11.849,58.3951,0.000141
11.865,58.4204,0.000141
11.880,58.4438,0.000141
11.896,58.4682,0.000056
11.913,58.4939,0.000056
11.929,58.5196,0.000056
11.944,58.5430,0.000056
11.960,58.5683,0.000056
11.977,58.5944,0.000056
11.993,58.6212,0.000056
12.008,58.6460,0.000056
12.024,58.6718,0.000056
12.041,58.7000,0.000056
12.057,58.7247,0.000056
12.072,58.7511,0.000056
12.088,58.7779,0.000056
12.105,58.8073,0.000056
12.120,58.8330,0.000056
12.137,58.8608,-0.000075
12.152,58.8874,-0.000075
12.169,58.9163,-0.000075
12.184,58.9431,-0.000075
12.200,58.9714,-0.000075
12.224,59.0132,-0.000075
12.241,59.0437,-0.000075
12.256,59.0716,-0.000075
12.271,59.0990,-0.000075
12.288,59.1290,-0.000075
12.304,59.1593,-0.000075
12.319,59.1877,-0.000075
12.336,59.2183,-0.000075
12.351,59.2480,-0.000075
12.367,59.2777,-0.000226
12.383,59.3084,-0.000226
12.400,59.3420,-0.000226
12.415,59.3700,-0.000226
12.431,59.4007,-0.000226
12.448,59.4329,-0.000226
12.464,59.4642,-0.000226
12.480,59.4969,-0.000226
12.508,59.5523,-0.000226
12.532,59.6011,-0.000226
12.548,59.6362,-0.000226
12.570,59.6772,-0.000226
12.601,59.7423,-0.000226
12.631,59.8047,-0.000282
12.647,59.8380,-0.000282
12.663,59.8721,-0.000282
12.694,59.9373,-0.000282
12.725,60.0035,-0.000282
12.756,60.0667,-0.000282
12.776,60.1094,-0.000282
12.792,60.1428,-0.000282
12.809,60.1752,-0.000282
12.824,60.2078,-0.000282
12.841,60.2407,-0.000282
12.856,60.2714,-0.000282
12.872,60.3028,-0.000245
12.888,60.3347,-0.000245
12.904,60.3663,-0.000245
12.921,60.3987,-0.000245
12.936,60.4282,-0.000245
12.953,60.4622,-0.000245
12.975,60.5032,-0.000245
13.003,60.5557,-0.000245
13.020,60.5882,-0.000245
13.050,60.6429,-0.000245
13.080,60.6987,-0.000245
13.096,60.7289,-0.000245
13.112,60.7578,-0.000245
13.128,60.7856,-0.000151
13.144,60.8165,-0.000151
13.160,60.8434,-0.000151
13.176,60.8705,-0.000151
13.192,60.8985,-0.000151
13.208,60.9280,-0.000151
13.224,60.9543,-0.000151
13.240,60.9817,-0.000151
13.257,61.0107,-0.000151
13.273,61.0371,-0.000151
13.288,61.0631,-0.000151
13.305,61.0905,-0.000151
13.329,61.1305,-0.000151
13.345,61.1561,-0.000151
13.361,61.1824,-0.000151
13.377,61.2080,-0.000254
13.394,61.2343,-0.000254
13.409,61.2584,-0.000254
13.425,61.2846,-0.000254
13.441,61.3083,-0.000254
13.459,61.3363,-0.000254
13.483,61.3736,-0.000254
13.514,61.4200,-0.000254
13.545,61.4665,-0.000254
13.575,61.5098,-0.000254
13.591,61.5336,-0.000254
13.621,61.5759,-0.000367
13.652,61.6197,-0.000367
13.682,61.6614,-0.000367
13.698,61.6824,-0.000367
13.713,61.7034,-0.000367
13.729,61.7240,-0.000367
13.745,61.7462,-0.000367
13.761,61.7669,-0.000367
13.777,61.7870,-0.000367
13.793,61.8076,-0.000367
13.810,61.8295,-0.000367
13.835,61.8621,-0.000367
13.851,61.8812,-0.000367
13.872,61.9070,-0.000367
13.888,61.9275,-0.000367
13.904,61.9456,-0.000395
13.920,61.9648,-0.000395
13.937,61.9853,-0.000395
13.952,62.0029,-0.000395
13.968,62.0216,-0.000395
13.984,62.0400,-0.000395
14.000,62.0582,-0.000395
14.016,62.0755,-0.000395
14.032,62.0938,-0.000395
14.049,62.1125,-0.000395
14.065,62.1316,-0.000395
14.080,62.1465,-0.000395
14.096,62.1625,-0.000395
14.112,62.1803,-0.000395
14.128,62.1965,-0.000395
14.144,62.2125,-0.000452
14.160,62.2286,-0.000452
14.177,62.2458,-0.000452
14.192,62.2610,-0.000452
14.208,62.2763,-0.000452
14.224,62.2915,-0.000452
14.240,62.3071,-0.000452
14.256,62.3220,-0.000452
14.272,62.3372,-0.000452
14.288,62.3513,-0.000452
14.304,62.3667,-0.000452
14.319,62.3801,-0.000452
14.336,62.3948,-0.000452
14.352,62.4082,-0.000452
14.368,62.4225,-0.000452
14.383,62.4354,-0.000452
14.400,62.4494,-0.000452
14.423,62.4678,-0.000461
14.439,62.4808,-0.000461
14.455,62.4933,-0.000461
14.471,62.5055,-0.000461
14.490,62.5217,-0.000461
14.513,62.5380,-0.000461
14.535,62.5536,-0.000461
14.551,62.5650,-0.000461
14.567,62.5765,-0.000461
14.583,62.5876,-0.000461
14.599,62.5987,-0.000461
14.616,62.6101,-0.000461
14.637,62.6239,-0.000461
14.668,62.6431,-0.000489
14.684,62.6534,-0.000489
14.700,62.6628,-0.000489
14.731,62.6809,-0.000489
14.746,62.6901,-0.000489
14.762,62.6986,-0.000489
14.792,62.7153,-0.000489
14.823,62.7309,-0.000489
14.839,62.7387,-0.000489
14.856,62.7471,-0.000489
14.885,62.7611,-0.000508
14.903,62.7688,-0.000508
14.919,62.7762,-0.000508
14.947,62.7879,-0.000508
14.967,62.7958,-0.000508
14.983,62.8021,-0.000508
14.999,62.8081,-0.000508
15.014,62.8139,-0.000508
15.030,62.8196,-0.000508
15.046,62.8249,-0.000508
15.062,62.8303,-0.000508
15.079,62.8359,-0.000508
15.095,62.8404,-0.000508
15.111,62.8453,-0.000508
15.126,62.8495,-0.000508
15.143,62.8541,-0.000508
15.162,62.8590,-0.000508
15.179,62.8633,-0.000508
15.195,62.8669,-0.000508
15.210,62.8701,-0.000508
15.226,62.8734,-0.000508
15.241,62.8764,-0.000508
15.258,62.8794,-0.000508
15.289,62.8846,-0.000508
15.319,62.8888,-0.000508
15.334,62.8907,-0.000508
15.351,62.8925,-0.000508
15.366,62.8941,-0.000602
15.383,62.8956,-0.000602
15.398,62.8967,-0.000602
15.415,62.8979,-0.000602
15.430,62.8987,-0.000602
15.447,62.8994,-0.000602
15.463,62.8999,-0.000602
15.478,62.9000,-0.000602
15.494,62.9001,-0.000602
15.521,62.9001,-0.000602
15.538,62.9001,-0.000602
15.554,62.9001,-0.000602
15.569,62.9001,-0.000602
15.591,62.9001,-0.000602
15.613,62.9001,-0.000602
15.633,62.9001,-0.000678
15.650,62.9001,-0.000678
15.666,62.9001,-0.000678
15.682,62.9001,-0.000678
15.697,62.9001,-0.000678
15.714,62.9001,-0.000678
15.730,62.9001,-0.000678
15.745,62.9001,-0.000678
15.762,62.9001,-0.000678
15.778,62.9001,-0.000678
15.793,62.9001,-0.000678
15.809,62.9001,-0.000678
15.825,62.9001,-0.000678
15.841,62.9001,-0.000678
15.857,62.9001,-0.000678
15.873,62.9001,-0.000640
15.890,62.9001,-0.000640
15.905,62.9001,-0.000640
15.922,62.9001,-0.000640
15.937,62.9001,-0.000640
15.953,62.9001,-0.000640
15.970,62.9001,-0.000640
15.985,62.9001,-0.000640
16.001,62.9001,-0.000640
16.017,62.9001,-0.000640
16.034,62.9001,-0.000640
16.049,62.9001,-0.000640
16.076,62.9001,-0.000640
16.092,62.9001,-0.000640
16.108,62.9001,-0.000640
16.125,62.9001,-0.000537
16.140,62.9001,-0.000537
16.156,62.9001,-0.000537
16.172,62.9001,-0.000537
16.188,62.9001,-0.000537
16.204,62.9001,-0.000537
16.220,62.9001,-0.000537
16.236,62.9001,-0.000537
16.252,62.9001,-0.000537
16.269,62.9001,-0.000537
16.291,62.9001,-0.000537
16.309,62.9001,-0.000537
16.338,62.9001,-0.000537
16.354,62.9001,-0.000537
16.370,62.9001,-0.000537
16.385,62.9001,-0.000537
16.401,62.9001,-0.000537
16.417,62.9001,-0.000480
16.448,62.9001,-0.000480
16.478,62.9001,-0.000480
16.494,62.9001,-0.000480
16.509,62.9001,-0.000480
16.540,62.9001,-0.000480
16.556,62.9001,-0.000480
16.572,62.9001,-0.000480
16.588,62.9001,-0.000480
16.617,62.9001,-0.000480
16.634,62.9001,-0.000480
16.650,62.9001,-0.000499
16.665,62.9001,-0.000499
16.683,62.9001,-0.000499
16.710,62.9001,-0.000499
16.729,62.9001,-0.000499
16.745,62.9001,-0.000499
16.761,62.9001,-0.000499
16.777,62.9001,-0.000499
16.793,62.9001,-0.000499
16.809,62.9001,-0.000499
16.825,62.9001,-0.000499
16.841,62.9001,-0.000499
16.857,62.9001,-0.000499
16.873,62.9001,-0.000499
16.889,62.9001,-0.000499
16.905,62.9001,-0.000574
16.922,62.9001,-0.000574
16.937,62.9001,-0.000574
16.953,62.9001,-0.000574
16.969,62.9001,-0.000574
16.986,62.9001,-0.000574
17.003,62.9001,-0.000574
17.019,62.9001,-0.000574
17.049,62.9001,-0.000574
17.066,62.9001,-0.000574
17.096,62.9001,-0.000574
17.113,62.9001,-0.000574
17.129,62.9001,-0.000574
17.145,62.9001,-0.000574
17.173,62.9001,-0.000584
17.196,62.9001,-0.000584
17.219,62.9001,-0.000584
17.237,62.9001,-0.000584
17.253,62.9001,-0.000584
17.269,62.9001,-0.000584
17.285,62.9001,-0.000584
17.301,62.9001,-0.000584
17.316,62.9001,-0.000584
17.333,62.9001,-0.000584
17.349,62.9001,-0.000584
17.364,62.9001,-0.000584
17.381,62.9001,-0.000584
17.396,62.9001,-0.000537
17.413,62.9001,-0.000537
17.429,62.9001,-0.000537
17.445,62.9001,-0.000537
17.460,62.9001,-0.000537
17.477,62.9001,-0.000537
17.493,62.9001,-0.000537
17.508,62.9001,-0.000537
17.525,62.9001,-0.000537
17.540,62.9001,-0.000537
17.557,62.9001,-0.000537
17.573,62.9001,-0.000537
17.589,62.9001,-0.000537
17.604,62.9001,-0.000537
17.621,62.9001,-0.000537
17.637,62.9001,-0.000527
17.652,62.9001,-0.000527
17.669,62.9001,-0.000527
17.699,62.9001,-0.000527
17.729,62.9001,-0.000527
17.745,62.9001,-0.000527
17.761,62.9001,-0.000527
17.777,62.9001,-0.000527
17.800,62.9001,-0.000527
17.823,62.9001,-0.000527
17.842,62.9001,-0.000527
17.858,62.9001,-0.000527
17.873,62.9001,-0.000527
17.890,62.9001,-0.000555
17.905,62.9001,-0.000555
17.922,62.9001,-0.000555
17.938,62.9001,-0.000555
17.961,62.9001,-0.000555
17.991,62.9001,-0.000555
18.021,62.9001,-0.000555
18.051,62.9001,-0.000555
18.082,62.9001,-0.000555
18.100,62.9001,-0.000555
18.115,62.9001,-0.000555
18.144,62.9001,-0.000555
18.161,62.9001,-0.000555
18.177,62.9001,-0.000555
18.193,62.9001,-0.000555
18.210,62.9001,-0.000555
18.225,62.9001,-0.000555
18.243,62.9001,-0.000555
18.266,62.9001,-0.000555
18.282,62.9001,-0.000555
18.298,62.9001,-0.000555
18.315,62.9001,-0.000555
18.332,62.9001,-0.000555
18.360,62.9001,-0.000565
18.378,62.9001,-0.000565
18.394,62.9001,-0.000565
18.410,62.9001,-0.000565
18.426,62.9001,-0.000565
18.442,62.9001,-0.000565
18.459,62.9001,-0.000565
18.475,62.9001,-0.000565
18.499,62.9001,-0.000565
18.530,62.9001,-0.000565
18.560,62.9001,-0.000565
18.591,62.9001,-0.000565
18.622,62.9001,-0.000565
18.638,62.9001,-0.000565
18.653,62.9001,-0.000565
18.668,62.9001,-0.000565
18.685,62.9001,-0.000565
18.715,62.9001,-0.000565
18.731,62.9001,-0.000565
18.747,62.9001,-0.000565
18.762,62.9001,-0.000565
18.779,62.9001,-0.000565
18.804,62.9001,-0.000565
18.825,62.9001,-0.000565
18.856,62.9001,-0.000565
18.887,62.9001,-0.000565
18.902,62.9001,-0.000555
18.917,62.9001,-0.000555
18.948,62.9001,-0.000555
18.965,62.9001,-0.000555
18.980,62.9001,-0.000555
19.011,62.9001,-0.000555
19.027,62.9001,-0.000555
19.043,62.9001,-0.000555
19.060,62.9001,-0.000555
19.089,62.9001,-0.000555
19.107,62.9001,-0.000555
19.124,62.9001,-0.000555
19.140,62.9001,-0.000555
19.160,62.9001,-0.000555
19.182,62.9001,-0.000508
19.203,62.9001,-0.000508
19.219,62.9001,-0.000508
19.235,62.9001,-0.000508
19.251,62.9001,-0.000508
19.267,62.9001,-0.000508
19.283,62.9001,-0.000508
19.299,62.9001,-0.000508
19.327,62.9001,-0.000508
19.343,62.9001,-0.000508
19.359,62.9001,-0.000508
19.375,62.9001,-0.000499
19.392,62.9001,-0.000499
19.412,62.9001,-0.000499
19.443,62.9001,-0.000499
19.474,62.9001,-0.000499
19.505,62.9001,-0.000499
19.521,62.9001,-0.000499
19.536,62.9001,-0.000499
19.552,62.9001,-0.000499
19.568,62.9001,-0.000499
19.584,62.9001,-0.000499
19.616,62.9001,-0.000650
19.631,62.9001,-0.000650
19.647,62.9001,-0.000650
19.663,62.9001,-0.000650
19.679,62.9001,-0.000650
19.696,62.9001,-0.000650
19.724,62.9001,-0.000650
19.743,62.9001,-0.000650
19.760,62.9001,-0.000650
19.785,62.9001,-0.000650
19.815,62.9001,-0.000650
19.846,62.8994,-0.000650
19.862,62.8987,-0.000650
19.883,62.8976,-0.000781
19.899,62.8965,-0.000781
19.915,62.8953,-0.000781
19.931,62.8939,-0.000781
19.947,62.8923,-0.000781
19.963,62.8904,-0.000781
19.979,62.8884,-0.000781
19.995,62.8861,-0.000781
20.011,62.8836,-0.000781
20.027,62.8810,-0.000781
20.043,62.8783,-0.000781
20.059,62.8752,-0.000781
20.075,62.8719,-0.000781
20.091,62.8687,-0.000781
20.107,62.8651,-0.000781
20.123,62.8613,-0.000781
20.139,62.8573,-0.000781
20.155,62.8530,-0.000339
20.170,62.8489,-0.000339
20.188,62.8437,-0.000339
20.218,62.8346,-0.000339
20.234,62.8295,-0.000339
20.252,62.8238,-0.000339
20.279,62.8140,-0.000339
20.299,62.8070,-0.000339
20.315,62.8008,-0.000339
20.330,62.7947,-0.000339
20.347,62.7877,-0.000339
20.363,62.7814,-0.000339
20.379,62.7742,-0.000339
20.403,62.7635,-0.000339
20.435,62.7488,0.002099
20.466,62.7334,0.002099
20.496,62.7178,0.002099
20.527,62.7013,0.002099
20.557,62.6840,0.002099
20.573,62.6755,0.002099
20.604,62.6571,0.002099
20.635,62.6380,0.006034
20.651,62.6279,0.006034
20.667,62.6170,0.006034
20.682,62.6072,0.006034
20.699,62.5962,0.006034
20.714,62.5856,0.006034
20.731,62.5737,0.006034
20.758,62.5539,0.006034
20.778,62.5397,0.006034
20.794,62.5277,0.006034
20.811,62.5154,0.006034
20.826,62.5035,0.006034
20.842,62.4909,0.006034
20.859,62.4779,0.006034
20.875,62.4645,0.006034
20.890,62.4524,0.010317
20.907,62.4377,0.010317
20.929,62.4195,0.010317
20.959,62.3937,0.010317
20.985,62.3705,0.010317
21.002,62.3559,0.010317
21.017,62.3415,0.010317
21.033,62.3269,0.010317
21.050,62.3114,0.010317
21.066,62.2961,0.010317
21.082,62.2804,0.010317
21.097,62.2657,0.010317
21.114,62.2486,0.010317
21.145,62.2178,0.014026
21.161,62.2011,0.014026
21.178,62.1840,0.014026
21.193,62.1681,0.014026
21.209,62.1512,0.014026
21.226,62.1330,0.014026
21.244,62.1134,0.014026
21.261,62.0938,0.014026
21.284,62.0693,0.014026
21.306,62.0446,0.014026
21.321,62.0272,0.014026
21.337,62.0090,0.014026
21.353,61.9898,0.014026
21.370,61.9708,0.014026
21.385,61.9522,0.014026
21.401,61.9331,0.007521
21.418,61.9129,0.007521
21.433,61.8938,0.007521
21.450,61.8729,0.007521
21.465,61.8538,0.007521
21.482,61.8330,0.007521
21.509,61.7970,0.007521
21.525,61.7776,0.007521
21.541,61.7569,0.007521
21.557,61.7356,0.007521
21.572,61.7149,0.007521
21.589,61.6925,0.007521
21.604,61.6718,0.007521
21.620,61.6496,0.007521
21.636,61.6275,-0.000424
21.652,61.6055,-0.000424
21.668,61.5826,-0.000424
21.684,61.5600,-0.000424
21.700,61.5376,-0.000424
21.716,61.5136,-0.000424
21.733,61.4904,-0.000424
21.748,61.4671,-0.000424
21.764,61.4441,-0.000424
21.780,61.4191,-0.000424
21.797,61.3954,-0.000424
21.812,61.3716,-0.000424
21.828,61.3473,-0.000424
21.845,61.3218,-0.000424
21.860,61.2973,-0.000424
21.877,61.2717,-0.000433
21.893,61.2453,-0.000433
21.909,61.2192,-0.000433
21.926,61.1938,-0.000433
21.948,61.1574,-0.000433
21.964,61.1325,-0.000433
21.995,61.0806,-0.000433
22.010,61.0556,-0.000433
22.034,61.0153,-0.000433
22.050,60.9880,-0.000433
22.066,60.9609,-0.000433
22.082,60.9330,-0.000433
22.099,60.9041,-0.000433
22.119,60.8681,-0.000273
22.135,60.8417,-0.000273
22.166,60.7861,-0.000273
22.196,60.7315,-0.000273
22.211,60.7034,-0.000273
22.243,60.6457,-0.000273
22.258,60.6177,-0.000273
22.275,60.5854,-0.000273
22.305,60.5294,-0.000273
22.322,60.4978,-0.000273
22.339,60.4645,-0.000273
22.355,60.4350,-0.000273
22.370,60.4057,-0.000188
22.386,60.3744,-0.000188
22.402,60.3417,-0.000188
22.418,60.3114,-0.000188
22.434,60.2796,-0.000188
22.450,60.2476,-0.000188
22.467,60.2129,-0.000188
22.483,60.1811,-0.000188
22.499,60.1485,-0.000188
22.514,60.1170,-0.000188
22.530,60.0843,-0.000188
22.546,60.0505,-0.000188
22.562,60.0187,-0.000188
22.585,59.9704,-0.000188
22.601,59.9356,-0.000188
22.617,59.9027,-0.000132
22.633,59.8666,-0.000132
22.651,59.8290,-0.000132
22.676,59.7762,-0.000132
22.697,59.7324,-0.000132
22.713,59.6987,-0.000132
22.729,59.6656,-0.000132
22.745,59.6332,-0.000132
22.761,59.6011,-0.000132
22.777,59.5667,-0.000132
22.793,59.5356,-0.000132
22.809,59.5040,-0.000132
22.825,59.4720,-0.000132
22.841,59.4386,-0.000132
22.857,59.4087,-0.000132
22.873,59.3775,-0.000160
22.889,59.3458,-0.000160
22.905,59.3138,-0.000160
22.921,59.2842,-0.000160
22.937,59.2531,-0.000160
22.953,59.2231,-0.000160
22.969,59.1922,-0.000160
22.985,59.1631,-0.000160
23.001,59.1324,-0.000160
23.018,59.1006,-0.000160
23.048,59.0463,-0.000160
23.065,59.0153,-0.000160
23.081,58.9869,-0.000160
23.097,58.9574,-0.000160
23.113,58.9299,-0.000160
23.142,58.8776,-0.000235
23.171,58.8273,-0.000235
23.189,58.7958,-0.000235
23.205,58.7689,-0.000235
23.221,58.7418,-0.000235
23.236,58.7158,-0.000235
23.253,58.6891,-0.000235
23.269,58.6617,-0.000235
23.284,58.6362,-0.000235
23.301,58.6093,-0.000235
23.317,58.5837,-0.000235
23.333,58.5573,-0.000235
23.349,58.5310,-0.000235
23.365,58.5059,-0.000132
23.381,58.4795,-0.000132
23.396,58.4566,-0.000132
23.412,58.4317,-0.000132
23.428,58.4070,-0.000132
23.444,58.3824,-0.000132
23.461,58.3585,-0.000132
23.477,58.3341,-0.000132
23.492,58.3104,-0.000132
23.509,58.2866,-0.000132
23.525,58.2620,-0.000132
23.540,58.2402,-0.000132
23.557,58.2168,-0.000132
23.573,58.1933,-0.000132
23.588,58.1712,-0.000132
23.604,58.1485,-0.000132
23.620,58.1263,-0.000132
23.637,58.1036,-0.000132
23.652,58.0824,-0.000132
23.681,58.0438,-0.000038
23.696,58.0229,-0.000038
23.713,58.0010,-0.000038
23.728,57.9810,-0.000038
23.745,57.9593,-0.000038
23.762,57.9368,-0.000038
23.790,57.9011,-0.000038
23.815,57.8683,-0.000038
23.837,57.8428,-0.000038
23.856,57.8196,-0.000038
23.873,57.7994,-0.000038
23.889,57.7800,-0.000038
23.905,57.7612,0.000066
23.921,57.7426,0.000066
23.936,57.7250,0.000066
23.952,57.7070,0.000066
23.968,57.6888,0.000066
23.985,57.6703,0.000066
24.001,57.6524,0.000066
24.016,57.6356,0.000066
24.032,57.6182,0.000066
24.048,57.6011,0.000066
24.064,57.5840,0.000066
24.081,57.5670,0.000066
24.097,57.5502,0.000066
24.113,57.5339,0.000066
24.129,57.5176,0.000066
24.145,57.5015,0.000132
24.160,57.4862,0.000132
24.177,57.4701,0.000132
24.193,57.4546,0.000132
24.208,57.4402,0.000132
24.237,57.4129,0.000132
24.254,57.3978,0.000132
24.270,57.3835,0.000132
24.285,57.3696,0.000132
24.304,57.3534,0.000132
24.330,57.3302,0.000132
24.349,57.3145,0.000132
24.366,57.3008,0.000132
24.381,57.2878,0.000132
24.398,57.2748,0.000198
24.413,57.2621,0.000198
24.430,57.2495,0.000198
24.445,57.2376,0.000198
24.462,57.2250,0.000198
24.478,57.2124,0.000198
24.493,57.2016,0.000198
24.510,57.1896,0.000198
24.525,57.1788,0.000198
24.542,57.1666,0.000198
24.562,57.1530,0.000198
24.592,57.1329,0.000198
24.609,57.1221,0.000198
24.638,57.1034,0.000226
24.653,57.0946,0.000226
24.671,57.0838,0.000226
24.700,57.0667,0.000226
24.717,57.0571,0.000226
24.734,57.0481,0.000226
24.749,57.0395,0.000226
24.765,57.0313,0.000226
24.792,57.0174,0.000226
24.809,57.0090,0.000226
24.824,57.0017,0.000226
24.840,56.9941,0.000226
24.858,56.9859,0.000226
24.885,56.9740,0.000217
24.904,56.9658,0.000217
24.923,56.9575,0.000217
24.949,56.9475,0.000217
24.968,56.9404,0.000217
24.984,56.9348,0.000217
25.000,56.9289,0.000217
25.016,56.9237,0.000217
25.032,56.9184,0.000217
25.048,56.9132,0.000217
25.064,56.9085,0.000217
25.080,56.9038,0.000217
25.096,56.8993,0.000217
25.112,56.8951,0.000217
25.128,56.8910,0.000254
25.144,56.8872,0.000254
25.160,56.8835,0.000254
25.176,56.8798,0.000254
25.192,56.8765,0.000254
25.208,56.8736,0.000254
25.224,56.8706,0.000254
25.240,56.8678,0.000254
25.256,56.8654,0.000254
25.272,56.8630,0.000254
25.288,56.8608,0.000254
25.304,56.8589,0.000254
25.320,56.8572,0.000254
25.347,56.8547,0.000254
25.363,56.8535,0.000254
25.379,56.8523,0.000235
25.395,56.8516,0.000235
25.412,56.8509,0.000235
25.427,56.8505,0.000235
25.443,56.8502,0.000235
25.459,56.8501,0.000235
25.475,56.8501,0.000235
25.491,56.8501,0.000235
25.507,56.8501,0.000235
25.523,56.8501,0.000235
25.539,56.8501,0.000235
25.555,56.8501,0.000235
25.571,56.8501,0.000235
25.587,56.8501,0.000235
25.604,56.8501,0.000235
25.619,56.8501,0.000235
25.635,56.8501,0.000282
25.651,56.8502,0.000282
25.667,56.8505,0.000282
25.683,56.8509,0.000282
25.699,56.8515,0.000282
25.715,56.8523,0.000282
25.731,56.8533,0.000282
25.747,56.8546,0.000282
25.763,56.8559,0.000282
25.778,56.8576,0.000282
25.795,56.8594,0.000282
25.811,56.8615,0.000282
25.827,56.8635,0.000282
25.843,56.8661,0.000282
25.859,56.8686,0.000282
25.875,56.8713,0.000282
25.905,56.8771,0.000292
25.921,56.8805,0.000292
25.937,56.8840,0.000292
25.953,56.8876,0.000292
25.969,56.8915,0.000292
25.985,56.8958,0.000292
26.001,56.9000,0.000292
26.017,56.9043,0.000292
26.033,56.9093,0.000292
26.049,56.9139,0.000292
26.065,56.9191,0.000292
26.081,56.9244,0.000292
26.097,56.9299,0.000292
26.112,56.9353,0.000292
26.128,56.9411,0.000245
26.144,56.9472,0.000245
26.161,56.9539,0.000245
26.177,56.9601,0.000245
26.192,56.9667,0.000245
26.209,56.9733,0.000245
26.225,56.9806,0.000245
26.240,56.9875,0.000245
26.256,56.9948,0.000245
26.273,57.0024,0.000245
26.288,57.0103,0.000245
26.305,57.0187,0.000245
26.321,57.0263,0.000245
26.338,57.0357,0.000245
26.368,57.0518,0.000264
26.384,57.0610,0.000264
26.400,57.0704,0.000264
26.418,57.0803,0.000264
26.446,57.0973,0.000264
26.465,57.1089,0.000264
26.480,57.1187,0.000264
26.496,57.1289,0.000264
26.512,57.1393,0.000264
26.529,57.1504,0.000264
26.545,57.1615,0.000264
26.561,57.1727,0.000264
26.576,57.1832,0.000264
26.594,57.1963,0.000264
26.612,57.2099,0.000264
26.633,57.2250,0.000264
26.664,57.2491,0.000264
26.695,57.2728,0.000264
26.726,57.2982,0.000264
26.756,57.3233,0.000264
26.787,57.3503,0.000264
26.803,57.3642,0.000264
26.819,57.3778,0.000264
26.850,57.4059,0.000264
26.866,57.4216,0.000264
26.896,57.4496,0.000264
26.915,57.4675,0.000264
26.943,57.4955,0.000264
26.971,57.5228,0.000264
26.988,57.5394,0.000264
27.003,57.5554,0.000264
27.019,57.5725,0.000264
27.037,57.5907,0.000264
27.066,57.6223,0.000264
27.083,57.6409,0.000264
27.099,57.6580,0.000264
27.115,57.6760,0.000264
27.131,57.6937,0.000264
27.147,57.7121,0.000264
27.164,57.7318,0.000264
27.180,57.7495,0.000264
27.196,57.7681,0.000264
27.211,57.7867,0.000264
27.227,57.8060,0.000264
27.244,57.8258,0.000264
27.259,57.8445,0.000264
27.276,57.8650,0.000264
27.291,57.8845,0.000264
27.308,57.9048,0.000264
27.323,57.9250,0.000264
27.339,57.9455,0.000264
27.356,57.9667,0.000264
27.372,57.9880,0.000264
27.387,58.0085,0.000188
27.403,58.0291,0.000188
27.419,58.0518,0.000188
27.435,58.0722,0.000188
27.451,58.0939,0.000188
27.468,58.1180,0.000188
27.493,58.1527,0.000188
27.508,58.1734,0.000188
27.524,58.1975,0.000188
27.540,58.2198,0.000188
27.556,58.2435,0.000188
27.572,58.2656,0.000188
27.588,58.2892,0.000188
27.604,58.3145,0.000188
27.620,58.3372,0.000188
27.636,58.3608,0.000085
27.653,58.3868,0.000085
27.678,58.4252,0.000085
27.702,58.4629,0.000085
27.718,58.4877,0.000085
27.749,58.5371,0.000085
27.765,58.5624,0.000085
27.797,58.6136,0.000085
27.812,58.6387,0.000085
27.828,58.6649,0.000085
27.845,58.6926,0.000085
27.860,58.7190,0.000085
27.876,58.7454,0.000000
27.892,58.7733,0.000000
27.908,58.8017,0.000000
27.924,58.8278,0.000000
27.940,58.8556,0.000000
27.956,58.8834,0.000000
27.973,58.9132,0.000000
27.999,58.9607,0.000000
28.021,58.9986,0.000000
28.036,59.0277,0.000000
28.052,59.0552,0.000000
28.068,59.0850,0.000000
28.084,59.1139,0.000000
28.101,59.1459,0.000000
28.116,59.1743,0.000000
28.132,59.2037,-0.000066
28.150,59.2379,-0.000066
28.167,59.2715,-0.000066
28.183,59.3033,-0.000066
28.214,59.3616,-0.000066
28.245,59.4226,-0.000066
28.276,59.4835,-0.000066
28.292,59.5157,-0.000066
28.308,59.5476,-0.000066
28.324,59.5799,-0.000066
28.340,59.6137,-0.000066
28.356,59.6458,-0.000066
28.372,59.6783,-0.000198
28.388,59.7115,-0.000198
28.404,59.7457,-0.000198
28.420,59.7793,-0.000198
28.436,59.8125,-0.000198
28.452,59.8471,-0.000198
28.468,59.8826,-0.000198
28.484,59.9139,-0.000198
28.500,59.9476,-0.000198
28.516,59.9812,-0.000198
28.543,60.0370,-0.000198
28.559,60.0709,-0.000198
28.574,60.1024,-0.000198
28.591,60.1366,-0.000198
28.607,60.1689,-0.000198
28.622,60.1995,-0.000226
28.639,60.2324,-0.000226
28.656,60.2666,-0.000226
28.675,60.3052,-0.000226
28.691,60.3349,-0.000226
28.722,60.3962,-0.000226
28.737,60.4242,-0.000226
28.768,60.4836,-0.000226
28.787,60.5182,-0.000226
28.814,60.5693,-0.000226
28.830,60.6003,-0.000226
28.846,60.6292,-0.000226
28.862,60.6587,-0.000160
28.878,60.6875,-0.000160
28.901,60.7286,-0.000160
28.923,60.7678,-0.000160
28.942,60.8015,-0.000160
28.958,60.8301,-0.000160
28.975,60.8582,-0.000160
28.991,60.8861,-0.000160
29.006,60.9130,-0.000160
29.023,60.9423,-0.000160
29.039,60.9692,-0.000160
29.054,60.9939,-0.000160
29.077,61.0326,-0.000160
29.093,61.0597,-0.000160
29.109,61.0856,-0.000160
29.126,61.1119,-0.000179
29.142,61.1378,-0.000179
29.157,61.1627,-0.000179
29.173,61.1883,-0.000179
29.190,61.2147,-0.000179
29.218,61.2583,-0.000179
29.238,61.2889,-0.000179
29.254,61.3140,-0.000179
29.270,61.3379,-0.000179
29.285,61.3612,-0.000179
29.301,61.3850,-0.000179
29.319,61.4112,-0.000179
29.342,61.4464,-0.000179
29.373,61.4896,-0.000179
29.389,61.5136,-0.000179
29.419,61.5553,-0.000235
29.450,61.5985,-0.000235
29.481,61.6403,-0.000235
29.512,61.6832,-0.000235
29.543,61.7225,-0.000235
29.559,61.7436,-0.000235
29.574,61.7634,-0.000235
29.590,61.7831,-0.000235
29.621,61.8222,-0.000235
29.636,61.8416,-0.000235
29.653,61.8620,-0.000329
29.668,61.8807,-0.000329
29.684,61.8998,-0.000329
29.701,61.9197,-0.000329
29.716,61.9377,-0.000329
29.733,61.9569,-0.000329
29.750,61.9767,-0.000329
29.775,62.0055,-0.000329
29.806,62.0409,-0.000329
29.837,62.0753,-0.000329
29.869,62.1098,-0.000329
29.898,62.1390,-0.000329
29.914,62.1555,-0.000358
29.946,62.1885,-0.000358
29.975,62.2161,-0.000358
30.006,62.2480,-0.000358
30.037,62.2761,-0.000358
30.052,62.2902,-0.000358
30.069,62.3053,-0.000358
30.084,62.3190,-0.000358
30.100,62.3332,-0.000358
30.117,62.3477,-0.000358
30.133,62.3615,-0.000358
30.148,62.3747,-0.000358
30.176,62.3982,-0.000452
30.192,62.4114,-0.000452
30.209,62.4247,-0.000452
30.224,62.4370,-0.000452
30.240,62.4498,-0.000452
30.257,62.4625,-0.000452
30.272,62.4743,-0.000452
30.288,62.4860,-0.000452
30.304,62.4981,-0.000452
30.321,62.5098,-0.000452
30.336,62.5211,-0.000452
30.352,62.5320,-0.000452
30.368,62.5430,-0.000452
30.384,62.5539,-0.000452
30.400,62.5644,-0.000527
30.416,62.5752,-0.000527
30.432,62.5855,-0.000527
30.448,62.5950,-0.000527
30.464,62.6049,-0.000527
30.480,62.6148,-0.000527
30.496,62.6243,-0.000527
30.512,62.6333,-0.000527
30.528,62.6426,-0.000527
30.544,62.6513,-0.000527
30.560,62.6599,-0.000527
30.576,62.6687,-0.000527
30.592,62.6767,-0.000527
30.608,62.6849,-0.000527
30.624,62.6927,-0.000527
30.640,62.7004,-0.000518
30.656,62.7079,-0.000518
30.679,62.7185,-0.000518
30.704,62.7294,-0.000518
30.719,62.7358,-0.000518
30.735,62.7422,-0.000518
30.752,62.7489,-0.000518
30.767,62.7549,-0.000518
30.783,62.7607,-0.000518
30.800,62.7669,-0.000518
30.820,62.7738,-0.000518
30.839,62.7803,-0.000518
30.871,62.7902,-0.000518
30.901,62.7989,-0.000518
30.932,62.8075,-0.000546
30.963,62.8146,-0.000546
30.980,62.8186,-0.000546
31.010,62.8247,-0.000546
31.041,62.8306,-0.000546
31.072,62.8355,-0.000546
31.103,62.8397,-0.000546
31.119,62.8417,-0.000546
31.135,62.8433,-0.000546
31.151,62.8448,-0.000650
31.167,62.8461,-0.000650
31.185,62.8475,-0.000650
31.202,62.8485,-0.000650
31.227,62.8495,-0.000650
31.247,62.8500,-0.000650
31.274,62.8501,-0.000650
31.294,62.8501,-0.000650
31.320,62.8501,-0.000650
31.337,62.8501,-0.000650
31.354,62.8501,-0.000650
31.382,62.8501,-0.000640
31.401,62.8501,-0.000640
31.417,62.8501,-0.000640
31.433,62.8501,-0.000640
31.449,62.8501,-0.000640
31.465,62.8501,-0.000640
31.481,62.8501,-0.000640
31.498,62.8501,-0.000640
31.525,62.8501,-0.000640
31.545,62.8501,-0.000640
31.561,62.8501,-0.000640
31.577,62.8501,-0.000640
31.593,62.8501,-0.000640
31.609,62.8501,-0.000640
31.625,62.8501,-0.000527
31.641,62.8501,-0.000527
31.657,62.8501,-0.000527
31.673,62.8501,-0.000527
31.688,62.8501,-0.000527
31.705,62.8501,-0.000527
31.721,62.8501,-0.000527
31.737,62.8501,-0.000527
31.753,62.8501,-0.000527
31.769,62.8501,-0.000527
31.785,62.8501,-0.000527
31.801,62.8501,-0.000527
31.816,62.8501,-0.000527
31.833,62.8501,-0.000527
31.848,62.8501,-0.000527
31.865,62.8501,-0.000489
31.881,62.8501,-0.000489
31.897,62.8501,-0.000489
31.913,62.8501,-0.000489
31.929,62.8501,-0.000489
31.945,62.8501,-0.000489
31.960,62.8501,-0.000489
31.977,62.8501,-0.000489
31.992,62.8501,-0.000489
32.009,62.8501,-0.000489
32.025,62.8501,-0.000489
32.042,62.8501,-0.000489
32.064,62.8501,-0.000489
32.080,62.8501,-0.000489
32.111,62.8501,-0.000489
32.141,62.8501,-0.000518
32.162,62.8501,-0.000518
32.188,62.8501,-0.000518
32.217,62.8501,-0.000518
32.233,62.8501,-0.000518
32.249,62.8501,-0.000518
32.266,62.8501,-0.000518
32.281,62.8501,-0.000518
32.297,62.8501,-0.000518
32.313,62.8501,-0.000518
32.329,62.8501,-0.000518
32.344,62.8501,-0.000518
32.360,62.8501,-0.000518
32.388,62.8501,-0.000574
32.405,62.8501,-0.000574
32.421,62.8501,-0.000574
32.436,62.8501,-0.000574
32.453,62.8501,-0.000574
32.468,62.8501,-0.000574
32.484,62.8501,-0.000574
32.501,62.8501,-0.000574
32.516,62.8501,-0.000574
32.532,62.8501,-0.000574
32.549,62.8501,-0.000574
32.564,62.8501,-0.000574
32.584,62.8501,-0.000574
32.606,62.8501,-0.000574
32.637,62.8501,-0.000574
32.652,62.8501,-0.000574
32.668,62.8501,-0.000574
32.684,62.8501,-0.000574
32.714,62.8501,-0.000574
32.744,62.8501,-0.000574
32.760,62.8501,-0.000574
32.776,62.8501,-0.000574
32.791,62.8501,-0.000574
32.807,62.8501,-0.000574
32.822,62.8501,-0.000574
32.838,62.8501,-0.000574
32.853,62.8501,-0.000574
32.869,62.8501,-0.000565
32.885,62.8501,-0.000565
32.916,62.8501,-0.000565
32.942,62.8501,-0.000565
32.960,62.8501,-0.000565
32.977,62.8501,-0.000565
32.993,62.8501,-0.000565
33.009,62.8501,-0.000565
33.040,62.8501,-0.000565
33.070,62.8501,-0.000565
33.102,62.8501,-0.000565
33.117,62.8501,-0.000537
33.133,62.8501,-0.000537
33.150,62.8501,-0.000537
33.165,62.8501,-0.000537
33.182,62.8501,-0.000537
33.198,62.8501,-0.000537
33.213,62.8501,-0.000537
33.229,62.8501,-0.000537
33.246,62.8501,-0.000537
33.272,62.8501,-0.000537
33.304,62.8501,-0.000537
33.333,62.8501,-0.000537
33.349,62.8501,-0.000537
33.365,62.8501,-0.000537
33.395,62.8501,-0.000537
33.426,62.8501,-0.000546
33.447,62.8501,-0.000546
33.472,62.8501,-0.000546
33.503,62.8501,-0.000546
33.518,62.8501,-0.000546
33.549,62.8501,-0.000546
33.566,62.8501,-0.000546
33.581,62.8501,-0.000546
33.597,62.8501,-0.000546
33.613,62.8501,-0.000546
33.631,62.8501,-0.000546
33.658,62.8501,-0.000546
33.677,62.8501,-0.000546
33.693,62.8501,-0.000546
33.709,62.8501,-0.000546
33.725,62.8501,-0.000546
33.741,62.8501,-0.000546
33.757,62.8501,-0.000546
33.773,62.8501,-0.000546
33.789,62.8501,-0.000546
33.805,62.8501,-0.000546
33.821,62.8501,-0.000546
33.837,62.8501,-0.000546
33.853,62.8501,-0.000546
33.869,62.8501,-0.000546
33.885,62.8501,-0.000546
33.901,62.8501,-0.000508
33.917,62.8501,-0.000508
33.934,62.8501,-0.000508
33.949,62.8501,-0.000508
33.965,62.8501,-0.000508
33.981,62.8501,-0.000508
33.997,62.8501,-0.000508
34.014,62.8501,-0.000508
34.043,62.8501,-0.000508
34.062,62.8501,-0.000508
34.090,62.8501,-0.000508
34.109,62.8501,-0.000508
34.125,62.8501,-0.000508
34.141,62.8501,-0.000508
34.157,62.8501,-0.000555
34.174,62.8501,-0.000555
34.197,62.8501,-0.000555
34.213,62.8501,-0.000555
34.246,62.8501,-0.000555
34.276,62.8501,-0.000555
34.307,62.8501,-0.000555
34.323,62.8501,-0.000555
34.338,62.8501,-0.000555
34.369,62.8501,-0.000555
34.386,62.8501,-0.000555
34.416,62.8501,-0.000574
34.431,62.8501,-0.000574
34.448,62.8501,-0.000574
34.477,62.8501,-0.000574
34.493,62.8501,-0.000574
34.508,62.8501,-0.000574
34.525,62.8501,-0.000574
34.541,62.8501,-0.000574
34.556,62.8501,-0.000574
34.573,62.8501,-0.000574
34.601,62.8501,-0.000574
34.623,62.8501,-0.000574
34.648,62.8501,-0.000574
34.665,62.8501,-0.000574
34.681,62.8501,-0.000574
34.697,62.8501,-0.000584
34.713,62.8501,-0.000584
34.730,62.8501,-0.000584
34.745,62.8501,-0.000584
34.760,62.8501,-0.000584
34.776,62.8501,-0.000584
34.793,62.8501,-0.000584
34.812,62.8501,-0.000584
34.837,62.8501,-0.000584
34.857,62.8501,-0.000584
34.872,62.8501,-0.000584
34.888,62.8501,-0.000584
34.904,62.8501,-0.000584
34.920,62.8501,-0.000584
34.936,62.8501,-0.000584
34.952,62.8501,-0.000584
34.968,62.8501,-0.000584
34.985,62.8501,-0.000584
35.001,62.8501,-0.000584
35.017,62.8501,-0.000584
35.032,62.8501,-0.000584
35.048,62.8501,-0.000584
35.064,62.8501,-0.000584
35.081,62.8501,-0.000584
35.096,62.8501,-0.000584
35.112,62.8501,-0.000584
35.129,62.8501,-0.000584
35.145,62.8501,-0.000584
35.161,62.8501,-0.000621
35.177,62.8501,-0.000621
35.193,62.8501,-0.000621
35.208,62.8501,-0.000621
35.226,62.8501,-0.000621
35.255,62.8501,-0.000621
35.273,62.8501,-0.000621
35.289,62.8501,-0.000621
35.305,62.8501,-0.000621
35.320,62.8501,-0.000621
35.336,62.8501,-0.000621
35.352,62.8501,-0.000621
35.369,62.8501,-0.000621
35.385,62.8501,-0.000687
35.400,62.8501,-0.000687
35.418,62.8501,-0.000687
35.441,62.8501,-0.000687
35.472,62.8501,-0.000687
35.503,62.8501,-0.000687
35.534,62.8500,-0.000687
35.564,62.8494,-0.000687
35.596,62.8478,-0.000687
35.627,62.8457,-0.000753
35.657,62.8429,-0.000753
35.674,62.8411,-0.000753
35.703,62.8373,-0.000753
35.721,62.8346,-0.000753
35.737,62.8321,-0.000753
35.752,62.8295,-0.000753
35.768,62.8266,-0.000753
35.785,62.8232,-0.000753
35.801,62.8201,-0.000753
35.818,62.8161,-0.000753
35.841,62.8109,-0.000753
35.871,62.8031,-0.000753
35.901,62.7948,-0.000207
35.917,62.7901,-0.000207
35.932,62.7854,-0.000207
35.948,62.7802,-0.000207
35.964,62.7751,-0.000207
35.981,62.7693,-0.000207
36.011,62.7583,-0.000207
36.041,62.7471,-0.000207
36.056,62.7407,-0.000207
36.072,62.7343,-0.000207
36.091,62.7263,-0.000207
36.118,62.7143,0.002495
36.136,62.7058,0.002495
36.153,62.6978,0.002495
36.181,62.6843,0.002495
36.200,62.6743,0.002495
36.216,62.6661,0.002495
36.232,62.6573,0.002495
36.258,62.6430,0.002495
36.279,62.6312,0.002495
36.303,62.6171,0.002495
36.322,62.6063,0.002495
36.337,62.5967,0.002495
36.353,62.5867,0.002495
36.370,62.5761,0.006825
36.386,62.5654,0.006825
36.414,62.5471,0.006825
36.433,62.5337,0.006825
36.449,62.5227,0.006825
36.465,62.5109,0.006825
36.482,62.4988,0.006825
36.497,62.4876,0.006825
36.513,62.4757,0.006825
36.529,62.4637,0.006825
36.545,62.4514,0.006825
36.561,62.4385,0.006825
36.578,62.4257,0.006825
36.600,62.4074,0.006825
36.632,62.3816,0.006825
36.662,62.3550,0.011983
36.692,62.3282,0.011983
36.723,62.3004,0.011983
36.754,62.2733,0.011983
36.769,62.2583,0.011983
36.799,62.2291,0.011983
36.816,62.2136,0.011983
36.831,62.1981,0.011983
36.847,62.1826,0.011983
36.864,62.1656,0.011983
36.893,62.1349,0.018149
36.911,62.1168,0.018149
36.929,62.0970,0.018149
36.955,62.0689,0.018149
36.975,62.0474,0.018149
36.991,62.0295,0.018149
37.007,62.0122,0.018149
37.023,61.9936,0.018149
37.039,61.9759,0.018149
37.055,61.9567,0.018149
37.071,61.9383,0.018149
37.087,61.9198,0.018149
37.103,61.9007,0.018149
37.119,61.8812,0.018149
37.135,61.8617,0.010515
37.151,61.8422,0.010515
37.167,61.8220,0.010515
37.183,61.8020,0.010515
37.199,61.7810,0.010515
37.215,61.7604,0.010515
37.232,61.7385,0.010515
37.247,61.7193,0.010515
37.263,61.6987,0.010515
37.279,61.6778,0.010515
37.301,61.6477,0.010515
37.323,61.6174,0.010515
37.339,61.5966,0.010515
37.355,61.5735,0.010515
37.371,61.5510,0.010515
37.387,61.5285,0.010515
37.403,61.5057,-0.000405
37.419,61.4825,-0.000405
37.435,61.4606,-0.000405
37.451,61.4379,-0.000405
37.467,61.4142,-0.000405
37.483,61.3895,-0.000405
37.499,61.3654,-0.000405
37.515,61.3427,-0.000405
37.531,61.3183,-0.000405
37.547,61.2931,-0.000405
37.563,61.2692,-0.000405
37.579,61.2445,-0.000405
37.595,61.2192,-0.000405
37.614,61.1878,-0.000405
37.633,61.1582,-0.000405
37.664,61.1092,-0.000386
37.694,61.0587,-0.000386
37.710,61.0311,-0.000386
37.726,61.0060,-0.000386
37.757,60.9538,-0.000386
37.788,60.9003,-0.000386
37.803,60.8749,-0.000386
37.819,60.8481,-0.000386
37.850,60.7937,-0.000386
37.866,60.7647,-0.000386
37.882,60.7366,-0.000329
37.898,60.7085,-0.000329
37.915,60.6777,-0.000329
37.943,60.6255,-0.000329
37.961,60.5920,-0.000329
37.978,60.5609,-0.000329
38.004,60.5120,-0.000329
38.026,60.4716,-0.000329
38.043,60.4389,-0.000329
38.066,60.3936,-0.000329
38.097,60.3343,-0.000329
38.128,60.2723,-0.000329
38.158,60.2135,-0.000254
38.175,60.1803,-0.000254
38.205,60.1178,-0.000254
38.222,60.0833,-0.000254
38.251,60.0237,-0.000254
38.281,59.9599,-0.000254
38.298,59.9270,-0.000254
38.313,59.8945,-0.000254
38.330,59.8599,-0.000254
38.346,59.8238,-0.000254
38.362,59.7917,-0.000254
38.377,59.7583,-0.000254
38.405,59.6998,-0.000113
38.422,59.6649,-0.000113
38.438,59.6315,-0.000113
38.454,59.5992,-0.000113
38.470,59.5647,-0.000113
38.498,59.5066,-0.000113
38.517,59.4696,-0.000113
38.534,59.4360,-0.000113
38.560,59.3845,-0.000113
38.591,59.3217,-0.000113
38.614,59.2797,-0.000113
38.630,59.2481,-0.000094
38.645,59.2187,-0.000094
38.661,59.1865,-0.000094
38.678,59.1558,-0.000094
38.698,59.1187,-0.000094
38.715,59.0861,-0.000094
38.746,59.0297,-0.000094
38.776,58.9735,-0.000094
38.806,58.9198,-0.000094
38.822,58.8920,-0.000094
38.837,58.8652,-0.000094
38.856,58.8315,-0.000094
38.884,58.7838,-0.000132
38.902,58.7530,-0.000132
38.917,58.7265,-0.000132
38.938,58.6906,-0.000132
38.954,58.6631,-0.000132
38.970,58.6367,-0.000132
38.986,58.6098,-0.000132
39.003,58.5830,-0.000132
39.018,58.5578,-0.000132
39.034,58.5316,-0.000132
39.051,58.5037,-0.000132
39.070,58.4744,-0.000132
39.100,58.4274,-0.000132
39.130,58.3791,-0.000132
39.146,58.3549,-0.000094
39.162,58.3303,-0.000094
39.178,58.3064,-0.000094
39.194,58.2823,-0.000094
39.210,58.2584,-0.000094
39.226,58.2347,-0.000094
39.243,58.2098,-0.000094
39.270,58.1700,-0.000094
39.290,58.1423,-0.000094
39.306,58.1185,-0.000094
39.323,58.0963,-0.000094
39.338,58.0739,-0.000094
39.355,58.0515,-0.000094
39.370,58.0302,-0.000094
39.386,58.0087,-0.000094
39.402,57.9875,-0.000028
39.418,57.9653,-0.000028
39.434,57.9444,-0.000028
39.450,57.9235,-0.000028
39.466,57.9027,-0.000028
39.482,57.8814,-0.000028
39.499,57.8605,-0.000028
39.529,57.8227,-0.000028
39.552,57.7949,-0.000028
39.575,57.7666,-0.000028
39.594,57.7439,-0.000028
39.610,57.7246,-0.000028
39.626,57.7062,-0.000028
39.642,57.6871,0.000075
39.658,57.6687,0.000075
39.674,57.6504,0.000075
39.690,57.6321,0.000075
39.706,57.6150,0.000075
39.722,57.5966,0.000075
39.738,57.5796,0.000075
39.754,57.5626,0.000075
39.770,57.5449,0.000075
39.786,57.5285,0.000075
39.802,57.5119,0.000075
39.818,57.4954,0.000075
39.835,57.4778,0.000075
39.853,57.4593,0.000075
39.883,57.4297,0.000169
39.914,57.3997,0.000169
39.930,57.3850,0.000169
39.946,57.3703,0.000169
39.967,57.3507,0.000169
39.992,57.3281,0.000169
40.010,57.3121,0.000169
40.026,57.2981,0.000169
40.042,57.2837,0.000169
40.059,57.2703,0.000169
40.085,57.2481,0.000169
40.108,57.2295,0.000169
40.131,57.2111,0.000169
40.147,57.1986,0.000198
40.163,57.1862,0.000198
40.192,57.1641,0.000198
40.223,57.1416,0.000198
40.238,57.1311,0.000198
40.269,57.1094,0.000198
40.285,57.0980,0.000198
40.301,57.0882,0.000198
40.316,57.0778,0.000198
40.332,57.0674,0.000198
40.348,57.0576,0.000198
40.379,57.0391,0.000207
40.394,57.0299,0.000207
40.410,57.0204,0.000207
40.425,57.0116,0.000207
40.442,57.0025,0.000207
40.460,56.9924,0.000207
40.487,56.9785,0.000207
40.506,56.9686,0.000207
40.523,56.9602,0.000207
40.548,56.9476,0.000207
40.582,56.9322,0.000207
40.597,56.9255,0.000207
40.614,56.9183,0.000235
40.629,56.9120,0.000235
40.648,56.9046,0.000235
40.671,56.8953,0.000235
40.702,56.8840,0.000235
40.734,56.8731,0.000235
40.764,56.8633,0.000235
40.795,56.8543,0.000235
40.810,56.8500,0.000235
40.841,56.8418,0.000235
40.857,56.8380,0.000235
40.888,56.8308,0.000217
40.903,56.8278,0.000217
40.919,56.8246,0.000217
40.935,56.8216,0.000217
40.965,56.8164,0.000217
40.981,56.8140,0.000217
40.997,56.8118,0.000217
41.013,56.8098,0.000217
41.029,56.8079,0.000217
41.045,56.8063,0.000217
41.062,56.8047,0.000217
41.078,56.8036,0.000217
41.093,56.8025,0.000217
41.109,56.8016,0.000217
41.125,56.8010,0.000217
41.142,56.8005,0.000217
41.158,56.8003,0.000179
41.173,56.8001,0.000179
41.192,56.8001,0.000179
41.213,56.8001,0.000179
41.244,56.8001,0.000179
41.260,56.8001,0.000179
41.291,56.8001,0.000179
41.321,56.8001,0.000179
41.336,56.8001,0.000179
41.367,56.8003,0.000179
41.382,56.8005,0.000179
41.398,56.8010,0.000273
41.413,56.8017,0.000273
41.430,56.8026,0.000273
41.445,56.8036,0.000273
41.461,56.8048,0.000273
41.477,56.8063,0.000273
41.493,56.8081,0.000273
41.509,56.8098,0.000273
41.525,56.8119,0.000273
41.541,56.8141,0.000273
41.559,56.8169,0.000273
41.586,56.8213,0.000273
41.605,56.8249,0.000273
41.623,56.8287,0.000273
41.647,56.8337,0.000273
41.663,56.8380,0.000273
41.686,56.8430,0.000188
41.702,56.8473,0.000188
41.717,56.8514,0.000188
41.733,56.8559,0.000188
41.750,56.8610,0.000188
41.765,56.8656,0.000188
41.781,56.8707,0.000188
41.797,56.8763,0.000188
41.813,56.8817,0.000188
41.829,56.8874,0.000188
41.845,56.8934,0.000188
41.861,56.8995,0.000188
41.877,56.9057,0.000188
41.893,56.9121,0.000151
41.909,56.9189,0.000151
41.926,56.9263,0.000151
41.941,56.9327,0.000151
41.957,56.9402,0.000151
41.973,56.9475,0.000151
41.992,56.9569,0.000151
42.019,56.9702,0.000151
42.037,56.9795,0.000151
42.054,56.9883,0.000151
42.069,56.9966,0.000151
42.085,57.0051,0.000151
42.101,57.0142,0.000151
42.121,57.0260,0.000151
42.145,57.0402,0.000151
42.165,57.0521,0.000151
42.181,57.0622,0.000226
42.198,57.0731,0.000226
42.220,57.0871,0.000226
42.243,57.1032,0.000226
42.259,57.1138,0.000226
42.276,57.1254,0.000226
42.298,57.1412,0.000226
42.329,57.1639,0.000226
42.360,57.1872,0.000226
42.376,57.1992,0.000226
42.408,57.2245,0.000245
42.439,57.2502,0.000245
42.469,57.2751,0.000245
42.486,57.2897,0.000245
42.516,57.3159,0.000245
42.532,57.3301,0.000245
42.563,57.3579,0.000245
42.579,57.3726,0.000245
42.595,57.3878,0.000245
42.611,57.4029,0.000245
42.633,57.4246,0.000245
42.655,57.4462,0.000254
42.675,57.4660,0.000254
42.691,57.4814,0.000254
42.707,57.4988,0.000254
42.723,57.5143,0.000254
42.739,57.5312,0.000254
42.755,57.5484,0.000254
42.771,57.5651,0.000254
42.798,57.5943,0.000254
42.814,57.6124,0.000254
42.830,57.6300,0.000254
42.846,57.6480,0.000254
42.863,57.6682,0.000254
42.887,57.6961,0.000254
42.918,57.7328,0.000198
42.934,57.7511,0.000198
42.965,57.7881,0.000198
42.995,57.8261,0.000198
43.011,57.8459,0.000198
43.044,57.8888,0.000198
43.073,57.9247,0.000198
43.106,57.9694,0.000198
43.134,58.0061,0.000198
43.149,58.0271,0.000160
43.166,58.0497,0.000160
43.182,58.0721,0.000160
43.198,58.0936,0.000160
43.214,58.1160,0.000160
43.230,58.1405,0.000160
43.248,58.1664,0.000160
43.273,58.2023,0.000160
43.295,58.2335,0.000160
43.321,58.2724,0.000160
43.342,58.3027,0.000160
43.358,58.3274,0.000160
43.373,58.3515,0.000085
43.390,58.3768,0.000085
43.407,58.4035,0.000085
43.427,58.4349,0.000085
43.442,58.4599,0.000085
43.475,58.5120,0.000085
43.504,58.5595,0.000085
43.520,58.5838,0.000085
43.535,58.6096,0.000085
43.550,58.6344,0.000085
43.565,58.6595,0.000085
43.584,58.6926,0.000085
43.602,58.7220,0.000085
43.629,58.7674,0.000019
43.647,58.7986,0.000019
43.674,58.8469,0.000019
43.694,58.8817,0.000019
43.710,58.9103,0.000019
43.728,58.9425,0.000019
43.752,58.9862,0.000019
43.774,59.0261,0.000019
43.789,59.0540,0.000019
43.805,59.0836,0.000019
43.822,59.1149,0.000019
43.838,59.1467,0.000019
43.855,59.1785,0.000019
43.878,59.2202,0.000019
43.908,59.2801,-0.000113
43.940,59.3424,-0.000113
43.970,59.4011,-0.000113
43.986,59.4329,-0.000113
44.017,59.4952,-0.000113
44.048,59.5587,-0.000113
44.063,59.5902,-0.000113
44.079,59.6203,-0.000113
44.094,59.6524,-0.000113
44.110,59.6844,-0.000113
44.125,59.7180,-0.000226
44.142,59.7536,-0.000226
44.172,59.8165,-0.000226
44.189,59.8536,-0.000226
44.206,59.8879,-0.000226
44.222,59.9216,-0.000226
44.238,59.9539,-0.000226
44.254,59.9889,-0.000226
44.275,60.0338,-0.000226
44.298,60.0777,-0.000226
44.317,60.1178,-0.000226
44.334,60.1515,-0.000226
44.349,60.1814,-0.000226
44.366,60.2141,-0.000254
44.381,60.2441,-0.000254
44.398,60.2775,-0.000254
44.414,60.3085,-0.000254
44.430,60.3390,-0.000254
44.455,60.3870,-0.000254
44.483,60.4416,-0.000254
44.501,60.4757,-0.000254
44.518,60.5067,-0.000254
44.534,60.5357,-0.000254
44.549,60.5637,-0.000254
44.565,60.5940,-0.000254
44.582,60.6246,-0.000254
44.608,60.6708,-0.000254
44.639,60.7270,-0.000235
44.670,60.7812,-0.000235
44.702,60.8362,-0.000235
44.732,60.8883,-0.000235
44.763,60.9393,-0.000235
44.778,60.9662,-0.000235
44.810,61.0188,-0.000235
44.841,61.0688,-0.000235
44.871,61.1189,-0.000235
44.902,61.1670,-0.000235
44.933,61.2144,-0.000235
44.949,61.2398,-0.000235
44.965,61.2639,-0.000235
44.995,61.3096,-0.000235
45.011,61.3331,-0.000235
45.027,61.3570,-0.000235
45.043,61.3803,-0.000235
45.059,61.4045,-0.000235
45.075,61.4266,-0.000235
45.091,61.4495,-0.000235
45.107,61.4725,-0.000235
45.124,61.4971,-0.000235
45.140,61.5190,-0.000235
45.167,61.5561,-0.000245
45.187,61.5845,-0.000245
45.203,61.6052,-0.000245
45.219,61.6274,-0.000245
45.235,61.6475,-0.000245
45.251,61.6699,-0.000245
45.267,61.6901,-0.000245
45.283,61.7102,-0.000245
45.299,61.7306,-0.000245
45.315,61.7511,-0.000245
45.331,61.7709,-0.000245
45.347,61.7906,-0.000245
45.363,61.8106,-0.000245
45.379,61.8298,-0.000245
45.395,61.8491,-0.000339
45.411,61.8683,-0.000339
45.427,61.8887,-0.000339
45.443,61.9059,-0.000339
45.460,61.9255,-0.000339
45.491,61.9609,-0.000339
45.507,61.9793,-0.000339
45.523,61.9963,-0.000339
45.553,62.0297,-0.000339
45.569,62.0467,-0.000339
45.585,62.0641,-0.000339
45.601,62.0803,-0.000339
45.624,62.1049,-0.000339
45.648,62.1293,-0.000339
45.665,62.1460,-0.000339
45.681,62.1620,-0.000480
45.697,62.1769,-0.000480
45.713,62.1932,-0.000480
45.729,62.2077,-0.000480
45.746,62.2244,-0.000480
45.771,62.2469,-0.000480
45.802,62.2758,-0.000480
45.832,62.3021,-0.000480
45.848,62.3153,-0.000480
45.864,62.3293,-0.000480
45.879,62.3415,-0.000480
45.911,62.3675,-0.000442
45.941,62.3923,-0.000442
45.972,62.4152,-0.000442
46.006,62.4415,-0.000442
46.033,62.4611,-0.000442
46.049,62.4721,-0.000442
46.065,62.4833,-0.000442
46.081,62.4942,-0.000442
46.111,62.5141,-0.000442
46.126,62.5243,-0.000442
46.142,62.5342,-0.000424
46.157,62.5442,-0.000424
46.175,62.5547,-0.000424
46.190,62.5640,-0.000424
46.205,62.5732,-0.000424
46.222,62.5826,-0.000424
46.238,62.5918,-0.000424
46.253,62.6003,-0.000424
46.270,62.6096,-0.000424
46.286,62.6178,-0.000424
46.302,62.6261,-0.000424
46.318,62.6343,-0.000424
46.333,62.6420,-0.000424
46.350,62.6498,-0.000424
46.366,62.6576,-0.000424
46.381,62.6645,-0.000461
46.397,62.6716,-0.000461
46.413,62.6786,-0.000461
46.429,62.6855,-0.000461
46.446,62.6921,-0.000461
46.461,62.6983,-0.000461
46.478,62.7050,-0.000461
46.510,62.7165,-0.000461
46.525,62.7220,-0.000461
46.542,62.7275,-0.000461
46.557,62.7325,-0.000461
46.573,62.7375,-0.000461
46.589,62.7423,-0.000461
46.608,62.7479,-0.000461
46.623,62.7520,-0.000461
46.648,62.7583,-0.000461
46.664,62.7622,-0.000461
46.695,62.7695,-0.000555
46.727,62.7760,-0.000555
46.757,62.7813,-0.000555
46.787,62.7860,-0.000555
46.818,62.7901,-0.000555
46.848,62.7934,-0.000555
46.864,62.7951,-0.000555
46.880,62.7963,-0.000659
46.896,62.7974,-0.000659
46.912,62.7983,-0.000659
46.927,62.7990,-0.000659
46.958,62.7999,-0.000659
46.975,62.8000,-0.000659
46.990,62.8000,-0.000659
47.006,62.8000,-0.000659
47.021,62.8000,-0.000659
47.037,62.8000,-0.000659
47.054,62.8000,-0.000659
47.069,62.8000,-0.000659
47.086,62.8000,-0.000659
47.102,62.8000,-0.000659
47.117,62.8000,-0.000659
47.133,62.8000,-0.000697
47.150,62.8000,-0.000697
47.166,62.8000,-0.000697
47.181,62.8000,-0.000697
47.197,62.8000,-0.000697
47.223,62.8000,-0.000697
47.239,62.8000,-0.000697
47.255,62.8000,-0.000697
47.271,62.8000,-0.000697
47.288,62.8000,-0.000697
47.303,62.8000,-0.000697
47.319,62.8000,-0.000697
47.335,62.8000,-0.000697
47.351,62.8000,-0.000697
47.367,62.8000,-0.000697
47.384,62.8000,-0.000650
47.400,62.8000,-0.000650
47.415,62.8000,-0.000650
47.432,62.8000,-0.000650
47.453,62.8000,-0.000650
47.484,62.8000,-0.000650
47.515,62.8000,-0.000650
47.531,62.8000,-0.000650
47.562,62.8000,-0.000650
47.592,62.8000,-0.000650
47.607,62.8000,-0.000650
47.623,62.8000,-0.000574
47.639,62.8000,-0.000574
47.655,62.8000,-0.000574
47.671,62.8000,-0.000574
47.687,62.8000,-0.000574
47.703,62.8000,-0.000574
47.722,62.8000,-0.000574
47.750,62.8000,-0.000574
47.767,62.8000,-0.000574
47.796,62.8000,-0.000574
47.813,62.8000,-0.000574
47.829,62.8000,-0.000574
47.845,62.8000,-0.000574
47.862,62.8000,-0.000574
47.878,62.8000,-0.000574
47.904,62.8000,-0.000565
47.925,62.8000,-0.000565
47.941,62.8000,-0.000565
47.957,62.8000,-0.000565
47.973,62.8000,-0.000565
47.989,62.8000,-0.000565
48.005,62.8000,-0.000565
48.021,62.8000,-0.000565
48.037,62.8000,-0.000565
48.053,62.8000,-0.000565
48.069,62.8000,-0.000565
48.085,62.8000,-0.000565
48.101,62.8000,-0.000565
48.117,62.8000,-0.000565
48.133,62.8000,-0.000574
48.149,62.8000,-0.000574
48.165,62.8000,-0.000574
48.181,62.8000,-0.000574
48.197,62.8000,-0.000574
48.213,62.8000,-0.000574
48.229,62.8000,-0.000574
48.245,62.8000,-0.000574
48.261,62.8000,-0.000574
48.292,62.8000,-0.000574
48.309,62.8000,-0.000574
48.324,62.8000,-0.000574
48.340,62.8000,-0.000574
48.357,62.8000,-0.000574
48.383,62.8000,-0.000565
48.404,62.8000,-0.000565
48.420,62.8000,-0.000565
48.437,62.8000,-0.000565
48.452,62.8000,-0.000565
48.468,62.8000,-0.000565
48.486,62.8000,-0.000565
48.507,62.8000,-0.000565
48.539,62.8000,-0.000565
48.556,62.8000,-0.000565
48.586,62.8000,-0.000565
48.603,62.8000,-0.000565
48.634,62.8000,-0.000555
48.649,62.8000,-0.000555
48.679,62.8000,-0.000555
48.710,62.8000,-0.000555
48.725,62.8000,-0.000555
48.741,62.8000,-0.000555
48.756,62.8000,-0.000555
48.771,62.8000,-0.000555
48.796,62.8000,-0.000555
48.818,62.8000,-0.000555
48.836,62.8000,-0.000555
48.851,62.8000,-0.000555
48.868,62.8000,-0.000555
48.884,62.8000,-0.000555
48.911,62.8000,-0.000574
48.932,62.8000,-0.000574
48.957,62.8000,-0.000574
48.975,62.8000,-0.000574
48.996,62.8000,-0.000574
49.012,62.8000,-0.000574
49.028,62.8000,-0.000574
49.044,62.8000,-0.000574
49.060,62.8000,-0.000574
49.075,62.8000,-0.000574
49.092,62.8000,-0.000574
49.108,62.8000,-0.000574
49.124,62.8000,-0.000574
49.139,62.8000,-0.000546
49.155,62.8000,-0.000546
49.171,62.8000,-0.000546
49.188,62.8000,-0.000546
49.203,62.8000,-0.000546
49.219,62.8000,-0.000546
49.235,62.8000,-0.000546
49.251,62.8000,-0.000546
49.268,62.8000,-0.000546
49.290,62.8000,-0.000546
49.313,62.8000,-0.000546
49.331,62.8000,-0.000546
49.355,62.8000,-0.000546
49.374,62.8000,-0.000546
49.390,62.8000,-0.000527
49.421,62.8000,-0.000527
49.438,62.8000,-0.000527
49.469,62.8000,-0.000527
49.484,62.8000,-0.000527
49.516,62.8000,-0.000527
49.531,62.8000,-0.000527
49.546,62.8000,-0.000527
49.563,62.8000,-0.000527
49.592,62.8000,-0.000527
49.610,62.8000,-0.000527
49.626,62.8000,-0.000527
49.641,62.8000,-0.000574
49.658,62.8000,-0.000574
49.675,62.8000,-0.000574
49.702,62.8000,-0.000574
49.721,62.8000,-0.000574
49.738,62.8000,-0.000574
49.753,62.8000,-0.000574
49.769,62.8000,-0.000574
49.785,62.8000,-0.000574
49.803,62.8000,-0.000574
49.826,62.8000,-0.000574
49.858,62.8000,-0.000574
49.889,62.8000,-0.000574
49.919,62.8000,-0.000612
49.950,62.8000,-0.000612
49.966,62.8000,-0.000612
49.982,62.8000,-0.000612
50.013,62.8000,-0.000612
50.043,62.8000,-0.000612
50.074,62.8000,-0.000612
50.089,62.8000,-0.000612
50.106,62.8000,-0.000612
50.121,62.8000,-0.000612
50.137,62.8000,-0.000621
50.153,62.8000,-0.000621
50.169,62.8000,-0.000621
50.186,62.8000,-0.000621
50.201,62.8000,-0.000621
50.217,62.8000,-0.000621
50.234,62.8000,-0.000621
50.260,62.8000,-0.000621
50.290,62.8000,-0.000621
50.306,62.8000,-0.000621
50.337,62.8000,-0.000621
50.368,62.8000,-0.000621
50.399,62.8000,-0.000621
50.420,62.8000,-0.000593
50.436,62.8000,-0.000593
50.452,62.8000,-0.000593
50.468,62.8000,-0.000593
50.484,62.8000,-0.000593
50.500,62.8000,-0.000593
50.516,62.8000,-0.000593
50.532,62.8000,-0.000593
50.548,62.8000,-0.000593
50.564,62.8000,-0.000593
50.580,62.8000,-0.000593
50.596,62.8000,-0.000593
50.612,62.8000,-0.000593
50.628,62.8000,-0.000584
50.644,62.8000,-0.000584
50.660,62.8000,-0.000584
50.676,62.8000,-0.000584
50.692,62.8000,-0.000584
50.708,62.8000,-0.000584
50.728,62.8000,-0.000584
50.753,62.8000,-0.000584
50.772,62.8000,-0.000584
50.790,62.8000,-0.000584
50.817,62.8000,-0.000584
50.836,62.8000,-0.000584
50.856,62.8000,-0.000584
50.879,62.8000,-0.000584
50.900,62.8000,-0.000650
50.916,62.8000,-0.000650
50.933,62.8000,-0.000650
50.948,62.8000,-0.000650
50.972,62.8000,-0.000650
50.988,62.8000,-0.000650
51.004,62.8000,-0.000650
51.020,62.8000,-0.000650
51.036,62.8000,-0.000650
51.052,62.8000,-0.000650
51.067,62.8000,-0.000650
51.084,62.8000,-0.000650
51.105,62.8000,-0.000650
51.131,62.8000,-0.000650
51.148,62.8000,-0.000650
51.164,62.8000,-0.000753
51.180,62.8000,-0.000753
51.197,62.8000,-0.000753
51.218,62.8000,-0.000753
51.249,62.7995,-0.000753
51.280,62.7983,-0.000753
51.296,62.7973,-0.000753
51.326,62.7951,-0.000753
51.357,62.7920,-0.000753
51.387,62.7884,-0.000810
51.404,62.7860,-0.000810
51.419,62.7836,-0.000810
51.436,62.7809,-0.000810
51.452,62.7782,-0.000810
51.468,62.7751,-0.000810
51.484,62.7719,-0.000810
51.500,62.7685,-0.000810
51.526,62.7626,-0.000810
51.541,62.7588,-0.000810
51.557,62.7549,-0.000810
51.572,62.7508,-0.000810
51.590,62.7459,-0.000810
51.620,62.7370,0.000264
51.637,62.7316,0.000264
51.654,62.7258,0.000264
51.669,62.7208,0.000264
51.684,62.7154,0.000264
51.700,62.7092,0.000264
51.717,62.7035,0.000264
51.733,62.6972,0.000264
51.749,62.6906,0.000264
51.764,62.6842,0.000264
51.781,62.6775,0.000264
51.797,62.6702,0.000264
51.813,62.6632,0.000264
51.829,62.6558,0.000264
51.845,62.6482,0.000264
51.860,62.6408,0.000264
51.876,62.6328,0.003398
51.893,62.6243,0.003398
51.908,62.6162,0.003398
51.925,62.6073,0.003398
51.942,62.5977,0.003398
51.959,62.5886,0.003398
51.991,62.5699,0.003398
52.021,62.5516,0.003398
52.051,62.5332,0.003398
52.067,62.5231,0.003398
52.083,62.5129,0.003398
52.098,62.5025,0.003398
52.117,62.4893,0.003398
52.145,62.4697,0.007888
52.162,62.4578,0.007888
52.184,62.4420,0.007888
52.207,62.4255,0.007888
52.227,62.4101,0.007888
52.243,62.3976,0.007888
52.259,62.3849,0.007888
52.274,62.3725,0.007888
52.291,62.3594,0.007888
52.306,62.3462,0.007888
52.322,62.3333,0.007888
52.338,62.3197,0.007888
52.354,62.3058,0.007888
52.371,62.2915,0.007888
52.387,62.2775,0.013320
52.403,62.2632,0.013320
52.418,62.2490,0.013320
52.435,62.2341,0.013320
52.451,62.2188,0.013320
52.466,62.2042,0.013320
52.482,62.1891,0.013320
52.499,62.1731,0.013320
52.515,62.1573,0.013320
52.530,62.1419,0.013320
52.546,62.1253,0.013320
52.563,62.1091,0.013320
52.578,62.0931,0.013320
52.607,62.0627,0.013320
52.624,62.0451,0.013320
52.640,62.0283,0.019975
52.655,62.0113,0.019975
52.672,61.9922,0.019975
52.700,61.9607,0.019975
52.719,61.9398,0.019975
52.735,61.9208,0.019975
52.751,61.9031,0.019975
52.767,61.8841,0.019975
52.783,61.8654,0.019975
52.799,61.8459,0.019975
52.816,61.8263,0.019975
52.832,61.8070,0.019975
52.847,61.7870,0.019975
52.864,61.7670,0.019975
52.880,61.7471,0.019975
52.895,61.7275,0.011795
52.911,61.7064,0.011795
52.927,61.6860,0.011795
52.943,61.6652,0.011795
52.959,61.6442,0.011795
52.975,61.6224,0.011795
52.992,61.6012,0.011795
53.007,61.5797,0.011795
53.023,61.5578,0.011795
53.039,61.5358,0.011795
53.055,61.5139,0.011795
53.071,61.4903,0.011795
53.087,61.4689,0.011795
53.104,61.4443,0.011795
53.135,61.3990,0.011795
53.151,61.3750,0.011795
53.167,61.3515,-0.000207
53.183,61.3288,-0.000207
53.198,61.3052,-0.000207
53.214,61.2821,-0.000207
53.232,61.2538,-0.000207
53.247,61.2322,-0.000207
53.276,61.1872,-0.000207
53.294,61.1584,-0.000207
53.310,61.1330,-0.000207
53.326,61.1077,-0.000207
53.343,61.0803,-0.000207
53.360,61.0531,-0.000207
53.384,61.0125,-0.000282
53.406,60.9777,-0.000282
53.422,60.9512,-0.000282
53.438,60.9233,-0.000282
53.454,60.8972,-0.000282
53.470,60.8691,-0.000282
53.486,60.8416,-0.000282
53.502,60.8135,-0.000282
53.518,60.7871,-0.000282
53.534,60.7583,-0.000282
53.550,60.7299,-0.000282
53.566,60.7013,-0.000282
53.582,60.6738,-0.000282
53.598,60.6452,-0.000282
53.614,60.6147,-0.000282
53.630,60.5861,-0.000282
53.646,60.5556,-0.000282
53.671,60.5113,-0.000207
53.696,60.4630,-0.000207
53.717,60.4240,-0.000207
53.733,60.3933,-0.000207
53.749,60.3625,-0.000207
53.765,60.3329,-0.000207
53.781,60.3016,-0.000207
53.797,60.2696,-0.000207
53.813,60.2393,-0.000207
53.829,60.2078,-0.000207
53.846,60.1733,-0.000207
53.868,60.1293,-0.000207
53.883,60.0989,-0.000207
53.912,60.0397,-0.000169
53.943,59.9743,-0.000169
53.959,59.9436,-0.000169
53.989,59.8793,-0.000169
54.005,59.8471,-0.000169
54.021,59.8137,-0.000169
54.037,59.7795,-0.000169
54.053,59.7449,-0.000169
54.070,59.7091,-0.000169
54.085,59.6776,-0.000169
54.106,59.6329,-0.000169
54.130,59.5826,-0.000169
54.149,59.5444,-0.000113
54.165,59.5095,-0.000113
54.181,59.4778,-0.000113
54.197,59.4464,-0.000113
54.222,59.3957,-0.000113
54.237,59.3648,-0.000113
54.253,59.3334,-0.000113
54.269,59.3029,-0.000113
54.286,59.2702,-0.000113
54.301,59.2398,-0.000113
54.317,59.2092,-0.000113
54.333,59.1788,-0.000113
54.349,59.1465,-0.000113
54.365,59.1178,-0.000113
54.381,59.0874,-0.000132
54.397,59.0576,-0.000132
54.413,59.0265,-0.000132
54.430,58.9966,-0.000132
54.452,58.9543,-0.000132
54.470,58.9224,-0.000132
54.499,58.8678,-0.000132
54.531,58.8134,-0.000132
54.561,58.7601,-0.000132
54.576,58.7339,-0.000132
54.592,58.7070,-0.000132
54.622,58.6560,-0.000122
54.637,58.6291,-0.000122
54.654,58.6014,-0.000122
54.683,58.5531,-0.000122
54.701,58.5241,-0.000122
54.718,58.4962,-0.000122
54.745,58.4524,-0.000122
54.765,58.4210,-0.000122
54.780,58.3957,-0.000122
54.797,58.3704,-0.000122
54.813,58.3458,-0.000122
54.829,58.3199,-0.000122
54.845,58.2961,-0.000122
54.861,58.2718,-0.000122
54.876,58.2479,-0.000038
54.892,58.2239,-0.000038
54.908,58.2001,-0.000038
54.925,58.1751,-0.000038
54.943,58.1485,-0.000038
54.961,58.1230,-0.000038
54.993,58.0766,-0.000038
55.024,58.0348,-0.000038
55.040,58.0110,-0.000038
55.071,57.9681,-0.000038
55.088,57.9466,-0.000038
55.117,57.9068,-0.000038
55.133,57.8861,-0.000038
55.148,57.8665,0.000047
55.164,57.8459,0.000047
55.183,57.8216,0.000047
55.209,57.7891,0.000047
55.229,57.7637,0.000047
55.245,57.7443,0.000047
55.261,57.7248,0.000047
55.276,57.7064,0.000047
55.300,57.6783,0.000047
55.315,57.6591,0.000047
55.331,57.6409,0.000047
55.348,57.6223,0.000047
55.364,57.6031,0.000047
55.379,57.5864,0.000047
55.395,57.5686,0.000160
55.411,57.5508,0.000160
55.429,57.5312,0.000160
55.456,57.5019,0.000160
55.476,57.4815,0.000160
55.492,57.4642,0.000160
55.507,57.4485,0.000160
55.524,57.4314,0.000160
55.540,57.4158,0.000160
55.556,57.3994,0.000160
55.572,57.3830,0.000160
55.597,57.3594,0.000160
55.628,57.3301,0.000160
55.643,57.3158,0.000160
55.674,57.2868,0.000226
55.689,57.2739,0.000226
55.706,57.2590,0.000226
55.736,57.2325,0.000226
55.752,57.2195,0.000226
55.768,57.2063,0.000226
55.784,57.1930,0.000226
55.816,57.1675,0.000226
55.846,57.1437,0.000226
55.876,57.1201,0.000226
55.907,57.0980,0.000264
55.924,57.0855,0.000264
55.940,57.0747,0.000264
55.956,57.0632,0.000264
55.971,57.0530,0.000264
55.989,57.0412,0.000264
56.015,57.0239,0.000264
56.035,57.0110,0.000264
56.052,57.0009,0.000264
56.068,56.9912,0.000264
56.093,56.9760,0.000264
56.115,56.9633,0.000264
56.131,56.9543,0.000320
56.147,56.9455,0.000320
56.163,56.9369,0.000320
56.180,56.9284,0.000320
56.197,56.9192,0.000320
56.218,56.9087,0.000320
56.247,56.8948,0.000320
56.279,56.8802,0.000320
56.309,56.8674,0.000320
56.339,56.8551,0.000320
56.356,56.8485,0.000320
56.371,56.8424,0.000320
56.387,56.8366,0.000282
56.404,56.8306,0.000282
56.420,56.8253,0.000282
56.447,56.8164,0.000282
56.467,56.8103,0.000282
56.483,56.8055,0.000282
56.499,56.8009,0.000282
56.515,56.7967,0.000282
56.531,56.7924,0.000282
56.548,56.7883,0.000282
56.563,56.7848,0.000282
56.579,56.7810,0.000282
56.595,56.7777,0.000282
56.616,56.7736,0.000282
56.632,56.7706,0.000282
56.662,56.7658,0.000226
56.692,56.7614,0.000226
56.722,56.7578,0.000226
56.739,56.7561,0.000226
56.755,56.7546,0.000226
56.771,56.7534,0.000226
56.788,56.7523,0.000226
56.817,56.7509,0.000226
56.835,56.7504,0.000226
56.851,56.7501,0.000226
56.874,56.7500,0.000226
56.890,56.7500,0.000226
56.906,56.7500,0.000198
56.922,56.7500,0.000198
56.938,56.7500,0.000198
56.954,56.7500,0.000198
56.970,56.7500,0.000198
56.986,56.7500,0.000198
57.002,56.7500,0.000198
57.018,56.7500,0.000198
57.034,56.7501,0.000198
57.050,56.7504,0.000198
57.066,56.7508,0.000198
57.082,56.7514,0.000198
57.100,56.7524,0.000198
57.128,56.7544,0.000282
57.146,56.7560,0.000282
57.162,56.7576,0.000282
57.178,56.7593,0.000282
57.194,56.7613,0.000282
57.210,56.7634,0.000282
57.227,56.7660,0.000282
57.243,56.7686,0.000282
57.258,56.7712,0.000282
57.274,56.7743,0.000282
57.293,56.7782,0.000282
57.312,56.7821,0.000282
57.342,56.7891,0.000282
57.358,56.7931,0.000282
57.388,56.8010,0.000198
57.421,56.8104,0.000198
57.451,56.8200,0.000198
57.467,56.8253,0.000198
57.498,56.8363,0.000198
57.514,56.8420,0.000198
57.530,56.8484,0.000198
57.546,56.8545,0.000198
57.575,56.8665,0.000198
57.595,56.8748,0.000198
57.613,56.8827,0.000198
57.629,56.8897,0.000198
57.652,56.9011,0.000179
57.673,56.9111,0.000179
57.690,56.9193,0.000179
57.706,56.9274,0.000179
57.722,56.9359,0.000179
57.737,56.9442,0.000179
57.754,56.9532,0.000179
57.770,56.9622,0.000179
57.786,56.9714,0.000179
57.802,56.9805,0.000179
57.817,56.9900,0.000179
57.834,56.9999,0.000179
57.849,57.0099,0.000179
57.865,57.0200,0.000282
57.882,57.0306,0.000282
57.898,57.0411,0.000282
57.914,57.0518,0.000282
57.930,57.0626,0.000282
57.957,57.0814,0.000282
57.973,57.0928,0.000282
57.989,57.1046,0.000282
58.004,57.1160,0.000282
58.022,57.1290,0.000282
58.052,57.1525,0.000282
58.069,57.1658,0.000282
58.086,57.1790,0.000282
58.101,57.1917,0.000282
58.116,57.2043,0.000226
58.133,57.2185,0.000226
58.150,57.2330,0.000226
58.169,57.2486,0.000226
58.193,57.2697,0.000226
58.213,57.2875,0.000226
58.228,57.3017,0.000226
58.244,57.3162,0.000226
58.260,57.3313,0.000226
58.277,57.3467,0.000226
58.292,57.3617,0.000226
58.308,57.3771,0.000226
58.324,57.3931,0.000226
58.340,57.4087,0.000226
58.356,57.4247,0.000226
58.372,57.4411,0.000198
58.388,57.4575,0.000198
58.405,57.4746,0.000198
58.420,57.4912,0.000198
58.436,57.5081,0.000198
58.453,57.5258,0.000198
58.479,57.5541,0.000198
58.495,57.5725,0.000198
58.518,57.5987,0.000198
58.549,57.6334,0.000198
58.564,57.6513,0.000198
58.580,57.6694,0.000198
58.610,57.7056,0.000198
58.625,57.7241,0.000198
58.656,57.7627,0.000198
58.672,57.7815,0.000198
58.687,57.8006,0.000198
58.719,57.8409,0.000198
58.736,57.8628,0.000198
58.765,57.9013,0.000198
58.785,57.9285,0.000198
58.811,57.9632,0.000198
58.830,57.9894,0.000198
58.847,58.0116,0.000198
58.862,58.0328,0.000198
58.879,58.0562,0.000151
58.894,58.0782,0.000151
58.910,58.1008,0.000151
58.926,58.1236,0.000151
58.943,58.1485,0.000151
58.959,58.1713,0.000151
58.974,58.1939,0.000151
59.003,58.2368,0.000151
59.019,58.2609,0.000151
59.035,58.2852,0.000151
59.051,58.3095,0.000151
59.068,58.3359,0.000151
59.083,58.3594,0.000151
59.099,58.3849,0.000151
59.115,58.4097,0.000151
59.131,58.4350,0.000151
59.148,58.4612,0.000151
59.163,58.4864,0.000038
59.180,58.5145,0.000038
59.196,58.5396,0.000038
59.211,58.5652,0.000038
59.227,58.5924,0.000038
59.243,58.6187,0.000038
59.259,58.6462,0.000038
59.275,58.6739,0.000038
59.291,58.7000,0.000038
59.314,58.7405,0.000038
59.336,58.7778,0.000038
59.355,58.8119,0.000038
59.371,58.8412,0.000038
59.387,58.8687,0.000038
59.403,58.8975,-0.000066
59.419,58.9263,-0.000066
59.435,58.9559,-0.000066
59.451,58.9858,-0.000066
59.467,59.0144,-0.000066
59.483,59.0441,-0.000066
59.500,59.0763,-0.000066
59.520,59.1138,-0.000066
59.536,59.1447,-0.000066
59.558,59.1870,-0.000066
59.582,59.2317,-0.000066
59.597,59.2625,-0.000066
59.628,59.3225,-0.000066
59.659,59.3839,-0.000141
59.690,59.4472,-0.000141
59.721,59.5087,-0.000141
59.751,59.5714,-0.000141
59.767,59.6036,-0.000141
59.798,59.6674,-0.000141
59.813,59.7010,-0.000141
59.830,59.7360,-0.000141
59.846,59.7705,-0.000141
59.862,59.8032,-0.000141
59.890,59.8643,-0.000254
59.909,59.9029,-0.000254
59.926,59.9373,-0.000254
59.941,59.9695,-0.000254
59.957,60.0009,-0.000254
59.973,60.0334,-0.000254
59.989,60.0670,-0.000254
60.005,60.0984,-0.000254
60.021,60.1299,-0.000254
60.037,60.1625,-0.000254
60.053,60.1937,-0.000254
60.069,60.2244,-0.000254
60.085,60.2564,-0.000254
60.109,60.3030,-0.000254
60.125,60.3337,-0.000254
60.141,60.3634,-0.000235
60.157,60.3938,-0.000235
60.173,60.4258,-0.000235
60.189,60.4542,-0.000235
60.205,60.4834,-0.000235
60.222,60.5154,-0.000235
60.238,60.5438,-0.000235
60.253,60.5729,-0.000235
60.269,60.6003,-0.000235
60.285,60.6297,-0.000235
60.301,60.6591,-0.000235
60.317,60.6870,-0.000235
60.333,60.7141,-0.000235
60.349,60.7423,-0.000235
60.365,60.7710,-0.000235
60.381,60.7975,-0.000122
60.397,60.8267,-0.000122
60.413,60.8521,-0.000122
60.429,60.8799,-0.000122
60.444,60.9058,-0.000122
60.461,60.9345,-0.000122
60.477,60.9604,-0.000122
60.493,60.9858,-0.000122
60.509,61.0121,-0.000122
60.525,61.0375,-0.000122
60.541,61.0646,-0.000122
60.556,61.0884,-0.000122
60.573,61.1150,-0.000122
60.589,61.1387,-0.000122
60.608,61.1680,-0.000122
60.631,61.2045,-0.000122
60.662,61.2527,-0.000254
60.684,61.2853,-0.000254
60.702,61.3106,-0.000254
60.717,61.3323,-0.000254
60.733,61.3569,-0.000254
60.748,61.3787,-0.000254
60.765,61.4024,-0.000254
60.781,61.4252,-0.000254
60.797,61.4483,-0.000254
60.812,61.4696,-0.000254
60.829,61.4921,-0.000254
60.845,61.5139,-0.000254
60.861,61.5360,-0.000254
60.876,61.5569,-0.000358
60.892,61.5786,-0.000358
60.909,61.6002,-0.000358
60.925,61.6214,-0.000358
60.941,61.6416,-0.000358
60.956,61.6622,-0.000358
60.973,61.6843,-0.000358
60.989,61.7034,-0.000358
61.004,61.7229,-0.000358
61.020,61.7426,-0.000358
61.037,61.7633,-0.000358
61.052,61.7817,-0.000358
61.069,61.8020,-0.000358
61.084,61.8200,-0.000358
61.101,61.8404,-0.000358
61.117,61.8583,-0.000358
61.132,61.8759,-0.000405
61.149,61.8958,-0.000405
61.166,61.9163,-0.000405
61.190,61.9419,-0.000405
61.208,61.9610,-0.000405
61.233,61.9880,-0.000405
61.254,62.0100,-0.000405
61.269,62.0265,-0.000405
61.285,62.0432,-0.000405
61.303,62.0617,-0.000405
61.325,62.0838,-0.000405
61.356,62.1149,-0.000405
61.387,62.1442,-0.000377
61.417,62.1729,-0.000377
61.449,62.2022,-0.000377
61.479,62.2299,-0.000377
61.501,62.2484,-0.000377
61.526,62.2711,-0.000377
61.543,62.2846,-0.000377
61.573,62.3097,-0.000377
61.589,62.3226,-0.000377
61.606,62.3358,-0.000377
61.621,62.3478,-0.000377
61.638,62.3610,-0.000405
61.653,62.3725,-0.000405
61.670,62.3848,-0.000405
61.685,62.3964,-0.000405
61.702,62.4085,-0.000405
61.725,62.4251,-0.000405
61.741,62.4361,-0.000405
61.757,62.4474,-0.000405
61.773,62.4577,-0.000405
61.793,62.4709,-0.000405
61.821,62.4886,-0.000405
61.837,62.4989,-0.000405
61.855,62.5094,-0.000405
61.882,62.5254,-0.000508
61.901,62.5368,-0.000508
61.918,62.5460,-0.000508
61.934,62.5547,-0.000508
61.949,62.5630,-0.000508
61.965,62.5717,-0.000508
61.981,62.5797,-0.000508
61.997,62.5882,-0.000508
62.013,62.5955,-0.000508
62.029,62.6032,-0.000508
62.045,62.6110,-0.000508
62.061,62.6178,-0.000508
62.077,62.6249,-0.000508
62.094,62.6323,-0.000508
62.109,62.6388,-0.000508
62.125,62.6450,-0.000508
62.141,62.6513,-0.000518
62.157,62.6574,-0.000518
62.173,62.6637,-0.000518
62.189,62.6689,-0.000518
62.205,62.6745,-0.000518
62.222,62.6805,-0.000518
62.237,62.6850,-0.000518
62.253,62.6899,-0.000518
62.280,62.6977,-0.000518
62.296,62.7022,-0.000518
62.312,62.7062,-0.000518
62.328,62.7103,-0.000518
62.345,62.7144,-0.000518
62.360,62.7179,-0.000518
62.376,62.7211,-0.000650
62.392,62.7244,-0.000650
62.408,62.7276,-0.000650
62.424,62.7303,-0.000650
62.441,62.7332,-0.000650
62.456,62.7355,-0.000650
62.472,62.7379,-0.000650
62.488,62.7399,-0.000650
62.504,62.7417,-0.000650
62.520,62.7435,-0.000650
62.537,62.7449,-0.000650
62.552,62.7462,-0.000650
62.568,62.7473,-0.000650
62.584,62.7483,-0.000650
62.600,62.7490,-0.000650
62.617,62.7495,-0.000650
62.638,62.7499,-0.000762
62.655,62.7500,-0.000762
62.684,62.7500,-0.000762
62.715,62.7500,-0.000762
62.730,62.7500,-0.000762
62.746,62.7500,-0.000762
62.762,62.7500,-0.000762
62.778,62.7500,-0.000762
62.793,62.7500,-0.000762
62.824,62.7500,-0.000762
62.841,62.7500,-0.000762
62.856,62.7500,-0.000762
62.872,62.7500,-0.000706
62.888,62.7500,-0.000706
62.909,62.7500,-0.000706
62.932,62.7500,-0.000706
62.952,62.7500,-0.000706
62.968,62.7500,-0.000706
62.984,62.7500,-0.000706
63.000,62.7500,-0.000706
63.016,62.7500,-0.000706
63.032,62.7500,-0.000706
63.048,62.7500,-0.000706
63.064,62.7500,-0.000706
63.080,62.7500,-0.000706
63.096,62.7500,-0.000706
63.112,62.7500,-0.000706
63.128,62.7500,-0.000640
63.144,62.7500,-0.000640
63.160,62.7500,-0.000640
63.176,62.7500,-0.000640
63.192,62.7500,-0.000640
63.208,62.7500,-0.000640
63.224,62.7500,-0.000640
63.240,62.7500,-0.000640
63.256,62.7500,-0.000640
63.273,62.7500,-0.000640
63.292,62.7500,-0.000640
63.320,62.7500,-0.000640
63.348,62.7500,-0.000640
63.364,62.7500,-0.000640
63.380,62.7500,-0.000546
63.395,62.7500,-0.000546
63.416,62.7500,-0.000546
63.442,62.7500,-0.000546
63.460,62.7500,-0.000546
63.477,62.7500,-0.000546
63.505,62.7500,-0.000546
63.524,62.7500,-0.000546
63.540,62.7500,-0.000546
63.569,62.7500,-0.000546
63.588,62.7500,-0.000546
63.604,62.7500,-0.000546
63.619,62.7500,-0.000546
63.636,62.7500,-0.000574
63.652,62.7500,-0.000574
63.668,62.7500,-0.000574
63.683,62.7500,-0.000574
63.699,62.7500,-0.000574
63.715,62.7500,-0.000574
63.732,62.7500,-0.000574
63.747,62.7500,-0.000574
63.764,62.7500,-0.000574
63.780,62.7500,-0.000574
63.796,62.7500,-0.000574
63.811,62.7500,-0.000574
63.827,62.7500,-0.000574
63.843,62.7500,-0.000574
63.870,62.7500,-0.000574
63.885,62.7500,-0.000574
63.902,62.7500,-0.000612
63.918,62.7500,-0.000612
63.934,62.7500,-0.000612
63.950,62.7500,-0.000612
63.965,62.7500,-0.000612
63.982,62.7500,-0.000612
63.997,62.7500,-0.000612
64.013,62.7500,-0.000612
64.031,62.7500,-0.000612
64.048,62.7500,-0.000612
64.078,62.7500,-0.000612
64.101,62.7500,-0.000612
64.124,62.7500,-0.000612
64.141,62.7500,-0.000546
64.158,62.7500,-0.000546
64.174,62.7500,-0.000546
64.190,62.7500,-0.000546
64.206,62.7500,-0.000546
64.223,62.7500,-0.000546
64.248,62.7500,-0.000546
64.264,62.7500,-0.000546
64.295,62.7500,-0.000546
64.326,62.7500,-0.000546
64.356,62.7500,-0.000546
64.387,62.7500,-0.000546
64.402,62.7500,-0.000593
64.432,62.7500,-0.000593
64.448,62.7500,-0.000593
64.479,62.7500,-0.000593
64.508,62.7500,-0.000593
64.525,62.7500,-0.000593
64.541,62.7500,-0.000593
64.558,62.7500,-0.000593
64.573,62.7500,-0.000593
64.590,62.7500,-0.000593
64.605,62.7500,-0.000593
64.622,62.7500,-0.000602
64.637,62.7500,-0.000602
64.656,62.7500,-0.000602
64.680,62.7500,-0.000602
64.701,62.7500,-0.000602
64.718,62.7500,-0.000602
64.734,62.7500,-0.000602
64.749,62.7500,-0.000602
64.765,62.7500,-0.000602
64.781,62.7500,-0.000602
64.797,62.7500,-0.000602
64.813,62.7500,-0.000602
64.830,62.7500,-0.000602
64.849,62.7500,-0.000602
64.880,62.7500,-0.000593
64.910,62.7500,-0.000593
64.926,62.7500,-0.000593
64.941,62.7500,-0.000593
64.961,62.7500,-0.000593
64.987,62.7500,-0.000593
65.005,62.7500,-0.000593
65.021,62.7500,-0.000593
65.037,62.7500,-0.000593
65.053,62.7500,-0.000593
65.069,62.7500,-0.000593
65.085,62.7500,-0.000593
65.101,62.7500,-0.000593
65.117,62.7500,-0.000612
65.133,62.7500,-0.000612
65.149,62.7500,-0.000612
65.165,62.7500,-0.000612
65.181,62.7500,-0.000612
65.197,62.7500,-0.000612
65.213,62.7500,-0.000612
65.229,62.7500,-0.000612
65.245,62.7500,-0.000612
65.261,62.7500,-0.000612
65.277,62.7500,-0.000612
65.293,62.7500,-0.000612
65.309,62.7500,-0.000612
65.325,62.7500,-0.000612
65.341,62.7500,-0.000612
65.357,62.7500,-0.000612
65.373,62.7500,-0.000612
65.389,62.7500,-0.000612
65.405,62.7500,-0.000612
65.421,62.7500,-0.000612
65.450,62.7500,-0.000612
65.466,62.7500,-0.000612
65.482,62.7500,-0.000612
65.498,62.7500,-0.000612
65.514,62.7500,-0.000612
65.530,62.7500,-0.000612
65.546,62.7500,-0.000612
65.562,62.7500,-0.000612
65.580,62.7500,-0.000612
65.595,62.7500,-0.000612
65.624,62.7500,-0.000631
65.642,62.7500,-0.000631
65.658,62.7500,-0.000631
65.674,62.7500,-0.000631
65.691,62.7500,-0.000631
65.709,62.7500,-0.000631
65.731,62.7500,-0.000631
65.763,62.7500,-0.000631
65.794,62.7500,-0.000631
65.825,62.7500,-0.000631
65.856,62.7500,-0.000631
65.886,62.7500,-0.000602
65.915,62.7500,-0.000602
65.931,62.7500,-0.000602
65.962,62.7500,-0.000602
65.989,62.7500,-0.000602
66.005,62.7500,-0.000602
66.021,62.7500,-0.000602
66.037,62.7500,-0.000602
66.053,62.7500,-0.000602
66.069,62.7500,-0.000602
66.084,62.7500,-0.000602
66.101,62.7500,-0.000602
66.117,62.7500,-0.000602
66.133,62.7500,-0.000602
66.149,62.7500,-0.000565
66.165,62.7500,-0.000565
66.180,62.7500,-0.000565
66.196,62.7500,-0.000565
66.213,62.7500,-0.000565
66.228,62.7500,-0.000565
66.245,62.7500,-0.000565
66.260,62.7500,-0.000565
66.277,62.7500,-0.000565
66.293,62.7500,-0.000565
66.309,62.7500,-0.000565
66.325,62.7500,-0.000565
66.341,62.7500,-0.000565
66.357,62.7500,-0.000565
66.372,62.7500,-0.000565
66.388,62.7500,-0.000546
66.405,62.7500,-0.000546
66.421,62.7500,-0.000546
66.437,62.7500,-0.000546
66.453,62.7500,-0.000546
66.468,62.7500,-0.000546
66.485,62.7500,-0.000546
66.513,62.7500,-0.000546
66.528,62.7500,-0.000546
66.545,62.7500,-0.000546
66.560,62.7500,-0.000546
66.577,62.7500,-0.000546
66.592,62.7500,-0.000546
66.609,62.7500,-0.000546
66.624,62.7500,-0.000546
66.640,62.7500,-0.000621
66.657,62.7500,-0.000621
66.673,62.7500,-0.000621
66.688,62.7500,-0.000621
66.704,62.7500,-0.000621
66.721,62.7500,-0.000621
66.736,62.7500,-0.000621
66.753,62.7500,-0.000621
66.768,62.7500,-0.000621
66.784,62.7500,-0.000621
66.800,62.7500,-0.000621
66.816,62.7500,-0.000621
66.832,62.7500,-0.000621
66.848,62.7500,-0.000621
66.866,62.7500,-0.000621
66.886,62.7500,-0.000621
66.907,62.7500,-0.000753
66.929,62.7500,-0.000753
66.945,62.7500,-0.000753
66.960,62.7500,-0.000753
66.976,62.7499,-0.000753
66.993,62.7497,-0.000753
67.009,62.7493,-0.000753
67.024,62.7487,-0.000753
67.052,62.7471,-0.000753
67.068,62.7459,-0.000753
67.084,62.7446,-0.000753
67.100,62.7431,-0.000753
67.116,62.7412,-0.000753
67.132,62.7394,-0.000753
67.147,62.7373,-0.000857
67.163,62.7349,-0.000857
67.180,62.7323,-0.000857
67.195,62.7297,-0.000857
67.211,62.7268,-0.000857
67.227,62.7237,-0.000857
67.244,62.7204,-0.000857
67.259,62.7170,-0.000857
67.275,62.7133,-0.000857
67.292,62.7094,-0.000857
67.308,62.7053,-0.000857
67.323,62.7012,-0.000857
67.339,62.6966,-0.000857
67.356,62.6916,-0.000857
67.372,62.6870,-0.000857
67.387,62.6821,0.000169
67.403,62.6770,0.000169
67.419,62.6715,0.000169
67.436,62.6657,0.000169
67.451,62.6600,0.000169
67.468,62.6540,0.000169
67.484,62.6477,0.000169
67.499,62.6416,0.000169
67.515,62.6349,0.000169
67.531,62.6282,0.000169
67.547,62.6212,0.000169
67.563,62.6140,0.000169
67.585,62.6034,0.000169
67.602,62.5960,0.000169
67.617,62.5884,0.003342
67.633,62.5806,0.003342
67.649,62.5719,0.003342
67.665,62.5637,0.003342
67.682,62.5551,0.003342
67.697,62.5465,0.003342
67.713,62.5371,0.003342
67.729,62.5283,0.003342
67.745,62.5189,0.003342
67.761,62.5093,0.003342
67.778,62.4993,0.003342
67.794,62.4890,0.003342
67.809,62.4797,0.003342
67.826,62.4684,0.003342
67.842,62.4577,0.003342
67.857,62.4475,0.003342
67.873,62.4370,0.007822
67.890,62.4251,0.007822
67.905,62.4144,0.007822
67.921,62.4033,0.007822
67.937,62.3912,0.007822
67.953,62.3798,0.007822
67.969,62.3677,0.007822
67.985,62.3553,0.007822
68.001,62.3429,0.007822
68.017,62.3302,0.007822
68.033,62.3168,0.007822
68.049,62.3042,0.007822
68.065,62.2906,0.007822
68.082,62.2765,0.007822
68.097,62.2637,0.007822
68.113,62.2500,0.007822
68.138,62.2274,0.013273
68.155,62.2133,0.013273
68.170,62.1990,0.013273
68.186,62.1847,0.013273
68.202,62.1698,0.013273
68.218,62.1541,0.013273
68.234,62.1391,0.013273
68.250,62.1240,0.013273
68.268,62.1055,0.013273
68.297,62.0772,0.013273
68.314,62.0598,0.013273
68.330,62.0436,0.013273
68.346,62.0271,0.013273
68.362,62.0100,0.013273
68.378,61.9927,0.020012
68.395,61.9748,0.020012
68.422,61.9447,0.020012
68.442,61.9229,0.020012
68.459,61.9044,0.020012
68.484,61.8742,0.020012
68.506,61.8497,0.020012
68.522,61.8308,0.020012
68.539,61.8088,0.020012
68.562,61.7838,0.020012
68.592,61.7468,0.020012
68.608,61.7261,0.020012
68.639,61.6871,0.021104
68.670,61.6476,0.021104
68.690,61.6225,0.021104
68.706,61.6005,0.021104
68.722,61.5804,0.021104
68.738,61.5584,0.021104
68.754,61.5363,0.021104
68.770,61.5150,0.021104
68.785,61.4939,0.021104
68.802,61.4711,0.021104
68.818,61.4487,0.021104
68.834,61.4261,0.021104
68.849,61.4041,0.021104
68.865,61.3813,0.021104
68.882,61.3571,0.021104
68.898,61.3342,0.009074
68.914,61.3106,0.009074
68.930,61.2867,0.009074
68.946,61.2636,0.009074
68.962,61.2387,0.009074
68.978,61.2154,0.009074
68.994,61.1889,0.009074
69.010,61.1648,0.009074
69.025,61.1412,0.009074
69.042,61.1142,0.009074
69.064,61.0802,0.009074
69.088,61.0414,0.009074
69.106,61.0133,0.009074
69.121,60.9865,0.009074
69.137,60.9616,0.009074
69.154,60.9345,-0.000311
69.169,60.9088,-0.000311
69.186,60.8807,-0.000311
69.202,60.8542,-0.000311
69.218,60.8277,-0.000311
69.233,60.8001,-0.000311
69.249,60.7727,-0.000311
69.265,60.7446,-0.000311
69.282,60.7160,-0.000311
69.297,60.6886,-0.000311
69.313,60.6606,-0.000311
69.330,60.6312,-0.000311
69.345,60.6029,-0.000311
69.362,60.5734,-0.000311
69.378,60.5441,-0.000235
69.393,60.5157,-0.000235
69.409,60.4860,-0.000235
69.426,60.4550,-0.000235
69.442,60.4252,-0.000235
69.458,60.3946,-0.000235
69.474,60.3647,-0.000235
69.490,60.3331,-0.000235
69.520,60.2776,-0.000235
69.537,60.2430,-0.000235
69.554,60.2111,-0.000235
69.570,60.1795,-0.000235
69.586,60.1465,-0.000235
69.602,60.1164,-0.000235
69.618,60.0832,-0.000235
69.633,60.0529,-0.000169
69.649,60.0203,-0.000169
69.665,59.9864,-0.000169
69.681,59.9547,-0.000169
69.697,59.9220,-0.000169
69.714,59.8861,-0.000169
69.736,59.8403,-0.000169
69.766,59.7762,-0.000169
69.789,59.7268,-0.000169
69.812,59.6803,-0.000169
69.828,59.6472,-0.000169
69.844,59.6125,-0.000169
69.875,59.5471,-0.000169
69.905,59.4840,-0.000113
69.922,59.4501,-0.000113
69.952,59.3900,-0.000113
69.983,59.3285,-0.000113
69.998,59.2978,-0.000113
70.013,59.2677,-0.000113
70.029,59.2364,-0.000113
70.052,59.1899,-0.000113
70.076,59.1463,-0.000113
70.093,59.1125,-0.000113
70.109,59.0815,-0.000113
70.126,59.0508,-0.000113
70.142,59.0204,-0.000179
70.157,58.9920,-0.000179
70.175,58.9580,-0.000179
70.194,58.9220,-0.000179
70.218,58.8798,-0.000179
70.238,58.8444,-0.000179
70.253,58.8166,-0.000179
70.269,58.7882,-0.000179
70.285,58.7592,-0.000179
70.301,58.7311,-0.000179
70.317,58.7024,-0.000179
70.333,58.6759,-0.000179
70.349,58.6477,-0.000179
70.365,58.6207,-0.000179
70.381,58.5940,-0.000198
70.397,58.5668,-0.000198
70.414,58.5382,-0.000198
70.429,58.5123,-0.000198
70.445,58.4871,-0.000198
70.461,58.4608,-0.000198
70.478,58.4329,-0.000198
70.502,58.3937,-0.000198
70.526,58.3545,-0.000198
70.544,58.3282,-0.000198
70.573,58.2828,-0.000198
70.589,58.2575,-0.000198
70.605,58.2322,-0.000198
70.622,58.2084,-0.000198
70.637,58.1844,-0.000066
70.653,58.1617,-0.000066
70.671,58.1330,-0.000066
70.696,58.0973,-0.000066
70.717,58.0678,-0.000066
70.735,58.0423,-0.000066
70.758,58.0087,-0.000066
70.789,57.9652,-0.000066
70.804,57.9439,-0.000066
70.835,57.9031,-0.000066
70.856,57.8744,-0.000066
70.872,57.8538,-0.000066
70.888,57.8323,0.000085
70.904,57.8120,0.000085
70.921,57.7877,0.000085
70.944,57.7601,0.000085
70.974,57.7226,0.000085
71.004,57.6863,0.000085
71.035,57.6486,0.000085
71.053,57.6255,0.000085
71.082,57.5926,0.000085
71.112,57.5579,0.000085
71.128,57.5399,0.000160
71.143,57.5226,0.000160
71.165,57.4985,0.000160
71.189,57.4731,0.000160
71.208,57.4526,0.000160
71.224,57.4346,0.000160
71.240,57.4180,0.000160
71.256,57.4025,0.000160
71.272,57.3856,0.000160
71.289,57.3678,0.000160
71.312,57.3456,0.000160
71.342,57.3151,0.000160
71.358,57.3011,0.000160
71.373,57.2862,0.000160
71.404,57.2568,0.000226
71.420,57.2431,0.000226
71.451,57.2154,0.000226
71.482,57.1887,0.000226
71.512,57.1627,0.000226
71.528,57.1500,0.000226
71.544,57.1365,0.000226
71.561,57.1228,0.000226
71.589,57.1004,0.000226
71.610,57.0845,0.000226
71.635,57.0652,0.000273
71.656,57.0503,0.000273
71.672,57.0390,0.000273
71.689,57.0268,0.000273
71.704,57.0161,0.000273
71.719,57.0056,0.000273
71.736,56.9945,0.000273
71.752,56.9833,0.000273
71.767,56.9738,0.000273
71.784,56.9636,0.000273
71.799,56.9535,0.000273
71.816,56.9435,0.000273
71.831,56.9341,0.000273
71.848,56.9245,0.000273
71.863,56.9155,0.000273
71.879,56.9064,0.000273
71.895,56.8976,0.000273
71.926,56.8814,0.000292
71.942,56.8729,0.000292
71.957,56.8651,0.000292
71.975,56.8566,0.000292
71.991,56.8487,0.000292
72.022,56.8339,0.000292
72.038,56.8273,0.000292
72.055,56.8198,0.000292
72.070,56.8134,0.000292
72.101,56.8009,0.000292
72.118,56.7945,0.000292
72.134,56.7887,0.000292
72.150,56.7829,0.000301
72.166,56.7774,0.000301
72.181,56.7722,0.000301
72.198,56.7669,0.000301
72.214,56.7617,0.000301
72.229,56.7572,0.000301
72.245,56.7525,0.000301
72.262,56.7479,0.000301
72.278,56.7437,0.000301
72.293,56.7399,0.000301
72.310,56.7359,0.000301
72.325,56.7324,0.000301
72.342,56.7289,0.000301
72.357,56.7257,0.000301
72.374,56.7225,0.000301
72.390,56.7198,0.000301
72.406,56.7170,0.000301
72.422,56.7146,0.000301
72.438,56.7122,0.000301
72.454,56.7102,0.000301
72.480,56.7072,0.000301
72.496,56.7056,0.000301
72.513,56.7043,0.000301
72.529,56.7030,0.000301
72.553,56.7017,0.000301
72.579,56.7007,0.000301
72.595,56.7003,0.000301
72.625,56.7000,0.000301
72.640,56.7000,0.000301
72.658,56.7000,0.000301
72.687,56.7000,0.000301
72.704,56.7000,0.000301
72.721,56.7000,0.000301
72.737,56.7000,0.000301
72.753,56.7000,0.000301
72.769,56.7000,0.000301
72.785,56.7000,0.000301
72.800,56.7000,0.000301
72.817,56.7000,0.000301
72.833,56.7000,0.000301
72.848,56.7000,0.000301
72.865,56.7000,0.000301
72.880,56.7000,0.000367
72.897,56.7000,0.000367
72.912,56.7000,0.000367
72.929,56.7000,0.000367
72.944,56.7000,0.000367
72.961,56.7000,0.000367
72.977,56.7000,0.000367
72.992,56.7000,0.000367
73.023,56.7000,0.000367
73.046,56.7000,0.000367
73.076,56.7000,0.000367
73.091,56.7000,0.000367
73.124,56.7000,0.000433
73.154,56.7000,0.000433
73.169,56.7000,0.000433
73.201,56.7000,0.000433
73.231,56.7000,0.000433
73.247,56.7000,0.000433
73.262,56.7000,0.000433
73.279,56.7000,0.000433
73.295,56.7000,0.000433
73.311,56.7000,0.000433
73.326,56.7000,0.000433
73.344,56.7003,0.000433
73.372,56.7012,0.000395
73.390,56.7020,0.000395
73.406,56.7030,0.000395
73.422,56.7043,0.000395
73.438,56.7056,0.000395
73.454,56.7071,0.000395
73.470,56.7090,0.000395
73.486,56.7108,0.000395
73.501,56.7129,0.000395
73.518,56.7154,0.000395
73.534,56.7179,0.000395
73.564,56.7231,0.000395
73.590,56.7282,0.000395
73.610,56.7327,0.000395
73.626,56.7361,0.000282
73.642,56.7401,0.000282
73.658,56.7441,0.000282
73.674,56.7484,0.000282
73.690,56.7526,0.000282
73.706,56.7573,0.000282
73.722,56.7624,0.000282
73.738,56.7671,0.000282
73.754,56.7723,0.000282
73.770,56.7778,0.000282
73.786,56.7835,0.000282
73.802,56.7891,0.000282
73.818,56.7950,0.000282
73.835,56.8017,0.000282
73.860,56.8118,0.000282
73.886,56.8226,0.000254
73.918,56.8368,0.000254
73.949,56.8510,0.000254
73.964,56.8584,0.000254
73.979,56.8662,0.000254
73.995,56.8740,0.000254
74.011,56.8822,0.000254
74.026,56.8905,0.000254
74.042,56.8991,0.000254
74.058,56.9082,0.000254
74.084,56.9229,0.000254
74.100,56.9325,0.000254
74.116,56.9418,0.000292
74.132,56.9516,0.000292
74.147,56.9612,0.000292
74.164,56.9718,0.000292
74.180,56.9823,0.000292
74.196,56.9924,0.000292
74.213,57.0038,0.000292
74.241,57.0239,0.000292
74.260,57.0364,0.000292
74.276,57.0482,0.000292
74.292,57.0598,0.000292
74.308,57.0714,0.000292
74.324,57.0835,0.000292
74.341,57.0968,0.000292
74.356,57.1087,0.000292
74.372,57.1212,0.000282
74.388,57.1341,0.000282
74.405,57.1480,0.000282
74.427,57.1667,0.000282
74.443,57.1805,0.000282
74.475,57.2074,0.000282
74.506,57.2355,0.000282
74.523,57.2502,0.000282
74.551,57.2768,0.000282
74.567,57.2920,0.000282
74.598,57.3208,0.000282
74.613,57.3362,0.000282
74.645,57.3680,0.000254
74.660,57.3829,0.000254
74.675,57.3987,0.000254
74.692,57.4154,0.000254
74.708,57.4331,0.000254
74.724,57.4496,0.000254
74.740,57.4668,0.000254
74.756,57.4844,0.000254
74.775,57.5042,0.000254
74.801,57.5337,0.000254
74.820,57.5554,0.000254
74.835,57.5730,0.000254
74.852,57.5913,0.000254
74.867,57.6098,0.000198
74.884,57.6294,0.000198
74.900,57.6493,0.000198
74.915,57.6672,0.000198
74.932,57.6865,0.000198
74.948,57.7065,0.000198
74.964,57.7277,0.000198
74.980,57.7469,0.000198
74.995,57.7670,0.000198
75.012,57.7872,0.000198
75.029,57.8086,0.000198
75.048,57.8350,0.000198
75.064,57.8566,0.000198
75.080,57.8764,0.000198
75.095,57.8975,0.000198
75.111,57.9186,0.000198
75.139,57.9559,0.000104
75.154,57.9777,0.000104
75.170,58.0002,0.000104
75.187,58.0226,0.000104
75.207,58.0518,0.000104
75.234,58.0921,0.000104
75.251,58.1154,0.000104
75.266,58.1388,0.000104
75.283,58.1630,0.000104
75.299,58.1870,0.000104
75.314,58.2098,0.000104
75.331,58.2351,0.000104
75.349,58.2645,0.000104
75.373,58.2994,0.000104
75.403,58.3472,0.000056
75.433,58.3961,0.000056
75.465,58.4464,0.000056
75.496,58.4973,0.000056
75.527,58.5490,0.000056
75.542,58.5759,0.000056
75.558,58.6006,0.000056
75.589,58.6545,0.000056
75.619,58.7070,0.000056
75.634,58.7333,0.000056
75.650,58.7609,0.000056
75.677,58.8089,0.000028
75.693,58.8385,0.000028
75.709,58.8665,0.000028
75.726,58.8977,0.000028
75.745,58.9317,0.000028
75.773,58.9848,0.000028
75.789,59.0133,0.000028
75.808,59.0483,0.000028
75.836,59.1020,0.000028
75.853,59.1355,0.000028
75.869,59.1658,0.000028
75.885,59.1965,0.000028
75.902,59.2283,-0.000075
75.917,59.2589,-0.000075
75.933,59.2915,-0.000075
75.950,59.3229,-0.000075
75.965,59.3546,-0.000075
75.982,59.3875,-0.000075
76.000,59.4241,-0.000075
76.018,59.4614,-0.000075
76.034,59.4932,-0.000075
76.064,59.5564,-0.000075
76.079,59.5877,-0.000075
76.095,59.6202,-0.000075
76.110,59.6533,-0.000075
76.125,59.6860,-0.000075
76.142,59.7209,-0.000217
76.157,59.7526,-0.000217
76.175,59.7912,-0.000217
76.205,59.8536,-0.000217
76.231,59.9057,-0.000217
76.246,59.9374,-0.000217
76.262,59.9699,-0.000217
76.278,60.0033,-0.000217
76.294,60.0352,-0.000217
76.310,60.0665,-0.000217
76.326,60.0987,-0.000217
76.343,60.1333,-0.000217
76.358,60.1628,-0.000217
76.374,60.1928,-0.000207
76.390,60.2257,-0.000207
76.413,60.2709,-0.000207
76.438,60.3171,-0.000207
76.454,60.3462,-0.000207
76.470,60.3771,-0.000207
76.486,60.4070,-0.000207
76.502,60.4372,-0.000207
76.518,60.4658,-0.000207
76.540,60.5056,-0.000207
76.555,60.5337,-0.000207
76.578,60.5759,-0.000207
76.599,60.6120,-0.000207
76.614,60.6399,-0.000207
76.630,60.6666,-0.000160
76.646,60.6950,-0.000160
76.663,60.7241,-0.000160
76.678,60.7511,-0.000160
76.694,60.7776,-0.000160
76.710,60.8048,-0.000160
76.726,60.8331,-0.000160
76.742,60.8583,-0.000160
76.758,60.8850,-0.000160
76.774,60.9114,-0.000160
76.790,60.9378,-0.000160
76.806,60.9637,-0.000160
76.822,60.9895,-0.000160
76.838,61.0153,-0.000160
76.854,61.0410,-0.000160
76.870,61.0665,-0.000254
76.886,61.0918,-0.000254
76.902,61.1166,-0.000254
76.918,61.1411,-0.000254
76.934,61.1656,-0.000254
76.950,61.1902,-0.000254
76.966,61.2134,-0.000254
76.982,61.2373,-0.000254
76.998,61.2627,-0.000254
77.014,61.2848,-0.000254
77.031,61.3095,-0.000254
77.046,61.3308,-0.000254
77.063,61.3549,-0.000254
77.078,61.3777,-0.000254
77.094,61.3997,-0.000254
77.110,61.4214,-0.000254
77.127,61.4458,-0.000254
77.148,61.4757,-0.000348
77.164,61.4963,-0.000348
77.195,61.5383,-0.000348
77.226,61.5781,-0.000348
77.256,61.6173,-0.000348
77.286,61.6550,-0.000348
77.302,61.6746,-0.000348
77.318,61.6947,-0.000348
77.334,61.7144,-0.000348
77.350,61.7335,-0.000348
77.366,61.7529,-0.000348
77.382,61.7724,-0.000348
77.398,61.7912,-0.000405
77.414,61.8093,-0.000405
77.430,61.8280,-0.000405
77.446,61.8468,-0.000405
77.462,61.8640,-0.000405
77.478,61.8834,-0.000405
77.494,61.9001,-0.000405
77.510,61.9183,-0.000405
77.526,61.9346,-0.000405
77.542,61.9517,-0.000405
77.558,61.9697,-0.000405
77.574,61.9855,-0.000405
77.590,62.0018,-0.000405
77.605,62.0182,-0.000405
77.622,62.0348,-0.000405
77.638,62.0505,-0.000386
77.654,62.0665,-0.000386
77.669,62.0819,-0.000386
77.686,62.0975,-0.000386
77.701,62.1123,-0.000386
77.718,62.1277,-0.000386
77.733,62.1421,-0.000386
77.750,62.1568,-0.000386
77.766,62.1718,-0.000386
77.782,62.1856,-0.000386
77.798,62.1995,-0.000386
77.822,62.2205,-0.000386
77.838,62.2338,-0.000386
77.853,62.2469,-0.000386
77.870,62.2606,-0.000386
77.896,62.2817,-0.000386
77.921,62.3008,-0.000386
77.938,62.3145,-0.000405
77.969,62.3378,-0.000405
78.000,62.3603,-0.000405
78.015,62.3709,-0.000405
78.046,62.3920,-0.000405
78.062,62.4034,-0.000405
78.078,62.4137,-0.000405
78.094,62.4241,-0.000405
78.110,62.4340,-0.000405
78.126,62.4446,-0.000405
78.141,62.4539,-0.000405
78.157,62.4635,-0.000395
78.174,62.4733,-0.000395
78.190,62.4828,-0.000395
78.206,62.4919,-0.000395
78.221,62.5002,-0.000395
78.238,62.5093,-0.000395
78.253,62.5176,-0.000395
78.269,62.5258,-0.000395
78.285,62.5339,-0.000395
78.302,62.5420,-0.000395
78.318,62.5499,-0.000395
78.333,62.5572,-0.000395
78.364,62.5711,-0.000395
78.380,62.5779,-0.000395
78.395,62.5846,-0.000461
78.412,62.5913,-0.000461
78.427,62.5975,-0.000461
78.444,62.6037,-0.000461
78.459,62.6098,-0.000461
78.475,62.6156,-0.000461
78.492,62.6215,-0.000461
78.508,62.6266,-0.000461
78.524,62.6322,-0.000461
78.544,62.6387,-0.000461
78.562,62.6437,-0.000461
78.586,62.6504,-0.000461
78.604,62.6554,-0.000461
78.620,62.6594,-0.000461
78.635,62.6631,-0.000546
78.651,62.6668,-0.000546
78.667,62.6704,-0.000546
78.684,62.6738,-0.000546
78.709,62.6785,-0.000546
78.739,62.6837,-0.000546
78.756,62.6862,-0.000546
78.786,62.6903,-0.000546
78.802,62.6921,-0.000546
78.833,62.6951,-0.000546
78.864,62.6974,-0.000546
78.895,62.6989,-0.000546
78.910,62.6996,-0.000687
78.942,62.7000,-0.000687
78.972,62.7000,-0.000687
78.987,62.7000,-0.000687
79.003,62.7000,-0.000687
79.019,62.7000,-0.000687
79.035,62.7000,-0.000687
79.052,62.7000,-0.000687
79.081,62.7000,-0.000687
79.100,62.7000,-0.000687
79.116,62.7000,-0.000687
79.131,62.7000,-0.000772
79.147,62.7000,-0.000772
79.163,62.7000,-0.000772
79.180,62.7000,-0.000772
79.195,62.7000,-0.000772
79.211,62.7000,-0.000772
79.227,62.7000,-0.000772
79.243,62.7000,-0.000772
79.259,62.7000,-0.000772
79.275,62.7000,-0.000772
79.292,62.7000,-0.000772
79.308,62.7000,-0.000772
79.323,62.7000,-0.000772
79.339,62.7000,-0.000772
79.356,62.7000,-0.000772
79.371,62.7000,-0.000659
79.387,62.7000,-0.000659
79.403,62.7000,-0.000659
79.432,62.7000,-0.000659
79.449,62.7000,-0.000659
79.465,62.7000,-0.000659
79.480,62.7000,-0.000659
79.496,62.7000,-0.000659
79.512,62.7000,-0.000659
79.528,62.7000,-0.000659
79.544,62.7000,-0.000659
79.560,62.7000,-0.000659
79.576,62.7000,-0.000659
79.592,62.7000,-0.000659
79.608,62.7000,-0.000659
79.624,62.7000,-0.000612
79.640,62.7000,-0.000612
79.657,62.7000,-0.000612
79.672,62.7000,-0.000612
79.688,62.7000,-0.000612
79.704,62.7000,-0.000612
79.720,62.7000,-0.000612
79.736,62.7000,-0.000612
79.752,62.7000,-0.000612
79.768,62.7000,-0.000612
79.785,62.7000,-0.000612
79.800,62.7000,-0.000612
79.816,62.7000,-0.000612
79.833,62.7000,-0.000612
79.853,62.7000,-0.000612
79.875,62.7000,-0.000574
79.896,62.7000,-0.000574
79.912,62.7000,-0.000574
79.928,62.7000,-0.000574
79.944,62.7000,-0.000574
79.969,62.7000,-0.000574
79.985,62.7000,-0.000574
80.001,62.7000,-0.000574
80.018,62.7000,-0.000574
80.038,62.7000,-0.000574
80.062,62.7000,-0.000574
80.081,62.7000,-0.000574
80.097,62.7000,-0.000574
80.113,62.7000,-0.000574
80.129,62.7000,-0.000574
80.145,62.7000,-0.000574
80.162,62.7000,-0.000574
80.179,62.7000,-0.000574
80.200,62.7000,-0.000574
80.231,62.7000,-0.000574
80.262,62.7000,-0.000574
80.293,62.7000,-0.000574
80.309,62.7000,-0.000574
80.325,62.7000,-0.000574
80.341,62.7000,-0.000574
80.372,62.7000,-0.000602
80.403,62.7000,-0.000602
80.433,62.7000,-0.000602
80.449,62.7000,-0.000602
80.465,62.7000,-0.000602
80.481,62.7000,-0.000602
80.497,62.7000,-0.000602
80.522,62.7000,-0.000602
80.538,62.7000,-0.000602
80.554,62.7000,-0.000602
80.570,62.7000,-0.000602
80.587,62.7000,-0.000602
80.604,62.7000,-0.000602
80.633,62.7000,-0.000574
80.650,62.7000,-0.000574
80.665,62.7000,-0.000574
80.682,62.7000,-0.000574
80.698,62.7000,-0.000574
80.714,62.7000,-0.000574
80.730,62.7000,-0.000574
80.746,62.7000,-0.000574
80.762,62.7000,-0.000574
80.778,62.7000,-0.000574
80.793,62.7000,-0.000574
80.810,62.7000,-0.000574
80.826,62.7000,-0.000574
80.842,62.7000,-0.000574
80.857,62.7000,-0.000574
80.874,62.7000,-0.000593
80.889,62.7000,-0.000593
80.906,62.7000,-0.000593
80.921,62.7000,-0.000593
80.938,62.7000,-0.000593
80.954,62.7000,-0.000593
80.969,62.7000,-0.000593
80.986,62.7000,-0.000593
81.002,62.7000,-0.000593
81.018,62.7000,-0.000593
81.033,62.7000,-0.000593
81.050,62.7000,-0.000593
81.078,62.7000,-0.000593
81.095,62.7000,-0.000593
81.111,62.7000,-0.000593
81.127,62.7000,-0.000593
81.143,62.7000,-0.000593
81.158,62.7000,-0.000593
81.175,62.7000,-0.000593
81.191,62.7000,-0.000593
81.207,62.7000,-0.000593
81.223,62.7000,-0.000593
81.239,62.7000,-0.000593
81.254,62.7000,-0.000593
81.271,62.7000,-0.000593
81.286,62.7000,-0.000593
81.302,62.7000,-0.000593
81.318,62.7000,-0.000593
81.334,62.7000,-0.000593
81.351,62.7000,-0.000593
81.366,62.7000,-0.000546
81.382,62.7000,-0.000546
81.399,62.7000,-0.000546
81.414,62.7000,-0.000546
81.431,62.7000,-0.000546
81.447,62.7000,-0.000546
81.463,62.7000,-0.000546
81.478,62.7000,-0.000546
81.495,62.7000,-0.000546
81.510,62.7000,-0.000546
81.527,62.7000,-0.000546
81.543,62.7000,-0.000546
81.559,62.7000,-0.000546
81.574,62.7000,-0.000546
81.590,62.7000,-0.000546
81.607,62.7000,-0.000546
81.637,62.7000,-0.000574
81.653,62.7000,-0.000574
81.669,62.7000,-0.000574
81.685,62.7000,-0.000574
81.703,62.7000,-0.000574
81.722,62.7000,-0.000574
81.748,62.7000,-0.000574
81.765,62.7000,-0.000574
81.780,62.7000,-0.000574
81.797,62.7000,-0.000574
81.812,62.7000,-0.000574
81.828,62.7000,-0.000574
81.845,62.7000,-0.000574
81.860,62.7000,-0.000574
81.877,62.7000,-0.000640
81.894,62.7000,-0.000640
81.910,62.7000,-0.000640
81.934,62.7000,-0.000640
81.949,62.7000,-0.000640
81.980,62.7000,-0.000640
81.996,62.7000,-0.000640
82.012,62.7000,-0.000640
82.042,62.7000,-0.000640
82.060,62.7000,-0.000640
82.090,62.7000,-0.000640
82.120,62.7000,-0.000640
82.152,62.7000,-0.000640
82.180,62.7000,-0.000659
82.197,62.7000,-0.000659
82.212,62.7000,-0.000659
82.243,62.7000,-0.000659
82.259,62.7000,-0.000659
82.275,62.7000,-0.000659
82.291,62.7000,-0.000659
82.307,62.7000,-0.000659
82.323,62.7000,-0.000659
82.339,62.7000,-0.000659
82.355,62.7000,-0.000659
82.371,62.7000,-0.000659
82.388,62.7000,-0.000659
82.412,62.7000,-0.000593
82.443,62.7000,-0.000593
82.474,62.7000,-0.000593
82.505,62.7000,-0.000593
82.535,62.7000,-0.000593
82.566,62.7000,-0.000593
82.597,62.7000,-0.000593
82.627,62.7000,-0.000593
82.643,62.7000,-0.000584
82.659,62.7000,-0.000584
82.683,62.7000,-0.000584
82.705,62.7000,-0.000584
82.730,62.7000,-0.000584
82.751,62.7000,-0.000584
82.771,62.7000,-0.000584
82.787,62.7000,-0.000584
82.803,62.7000,-0.000584
82.819,62.7000,-0.000584
82.834,62.7000,-0.000584
82.851,62.7000,-0.000584
82.867,62.7000,-0.000584
82.884,62.7000,-0.000584
82.899,62.7000,-0.000697
82.915,62.7000,-0.000697
82.931,62.7000,-0.000697
82.947,62.7000,-0.000697
82.963,62.7000,-0.000697
82.979,62.7000,-0.000697
82.995,62.7000,-0.000697
83.011,62.7000,-0.000697
83.027,62.7000,-0.000697
83.043,62.7000,-0.000697
83.059,62.7000,-0.000697
83.075,62.7000,-0.000697
83.091,62.7000,-0.000697
83.107,62.7000,-0.000697
83.125,62.7000,-0.000697
83.154,62.7000,-0.000744
83.171,62.7000,-0.000744
83.187,62.7000,-0.000744
83.203,62.7000,-0.000744
83.219,62.7000,-0.000744
83.245,62.7000,-0.000744
83.262,62.7000,-0.000744
83.278,62.7000,-0.000744
83.293,62.7000,-0.000744
83.309,62.7000,-0.000744
83.325,62.6998,-0.000744
83.355,62.6989,-0.000744
83.373,62.6982,-0.000744
83.403,62.6962,-0.000772
83.420,62.6948,-0.000772
83.437,62.6932,-0.000772
83.465,62.6900,-0.000772
83.484,62.6875,-0.000772
83.501,62.6849,-0.000772
83.526,62.6811,-0.000772
83.557,62.6754,-0.000772
83.588,62.6690,-0.000772
83.619,62.6621,-0.000772
83.634,62.6583,-0.000772
83.650,62.6542,-0.000414
83.666,62.6498,-0.000414
83.698,62.6409,-0.000414
83.728,62.6312,-0.000414
83.743,62.6263,-0.000414
83.767,62.6183,-0.000414
83.783,62.6124,-0.000414
83.799,62.6065,-0.000414
83.815,62.6005,-0.000414
83.831,62.5943,-0.000414
83.847,62.5879,-0.000414
83.862,62.5812,-0.000414
83.878,62.5742,-0.000414
83.894,62.5672,0.002033
83.910,62.5600,0.002033
83.927,62.5525,0.002033
83.943,62.5445,0.002033
83.959,62.5368,0.002033
83.975,62.5283,0.002033
83.991,62.5201,0.002033
84.008,62.5115,0.002033
84.036,62.4962,0.002033
84.054,62.4855,0.002033
84.070,62.4766,0.002033
84.086,62.4671,0.002033
84.103,62.4573,0.002033
84.119,62.4474,0.002033
84.134,62.4377,0.002033
84.150,62.4277,0.006100
84.167,62.4170,0.006100
84.182,62.4067,0.006100
84.199,62.3957,0.006100
84.214,62.3852,0.006100
84.230,62.3737,0.006100
84.247,62.3620,0.006100
84.269,62.3463,0.006100
84.300,62.3225,0.006100
84.316,62.3101,0.006100
84.347,62.2862,0.006100
84.362,62.2742,0.006100
84.378,62.2617,0.010769
84.395,62.2485,0.010769
84.426,62.2218,0.010769
84.457,62.1951,0.010769
84.488,62.1680,0.010769
84.503,62.1538,0.010769
84.535,62.1248,0.010769
84.550,62.1102,0.010769
84.566,62.0951,0.010769
84.583,62.0786,0.010769
84.599,62.0628,0.010769
84.617,62.0445,0.010769
84.642,62.0200,0.010769
84.662,61.9999,0.017141
84.679,61.9824,0.017141
84.694,61.9666,0.017141
84.711,61.9485,0.017141
84.727,61.9316,0.017141
84.743,61.9142,0.017141
84.758,61.8976,0.017141
84.774,61.8800,0.017141
84.791,61.8612,0.017141
84.806,61.8437,0.017141
84.837,61.8077,0.017141
84.853,61.7888,0.017141
84.869,61.7706,0.023156
84.886,61.7508,0.023156
84.901,61.7319,0.023156
84.917,61.7128,0.023156
84.933,61.6927,0.023156
84.949,61.6730,0.023156
84.966,61.6524,0.023156
84.981,61.6327,0.023156
84.997,61.6129,0.023156
85.014,61.5912,0.023156
85.030,61.5706,0.023156
85.046,61.5496,0.023156
85.061,61.5285,0.023156
85.078,61.5069,0.023156
85.093,61.4859,0.023156
85.109,61.4642,0.023156
85.125,61.4417,0.012567
85.141,61.4199,0.012567
85.157,61.3979,0.012567
85.173,61.3751,0.012567
85.189,61.3522,0.012567
85.205,61.3296,0.012567
85.221,61.3059,0.012567
85.237,61.2831,0.012567
85.254,61.2589,0.012567
85.269,61.2352,0.012567
85.285,61.2114,0.012567
85.301,61.1872,0.012567
85.317,61.1633,0.012567
85.333,61.1392,0.012567
85.363,61.0922,0.012567
85.380,61.0664,0.012567
85.395,61.0422,-0.000301
85.412,61.0153,-0.000301
85.427,60.9909,-0.000301
85.443,60.9637,-0.000301
85.459,60.9383,-0.000301
85.475,60.9132,-0.000301
85.491,60.8860,-0.000301
85.507,60.8595,-0.000301
85.523,60.8328,-0.000301
85.540,60.8046,-0.000301
85.556,60.7768,-0.000301
85.571,60.7509,-0.000301
85.587,60.7235,-0.000301
85.603,60.6967,-0.000301
85.621,60.6656,-0.000301
85.647,60.6193,-0.000264
85.667,60.5826,-0.000264
85.683,60.5532,-0.000264
85.699,60.5246,-0.000264
85.715,60.4971,-0.000264
85.731,60.4666,-0.000264
85.748,60.4355,-0.000264
85.763,60.4071,-0.000264
85.779,60.3776,-0.000264
85.795,60.3479,-0.000264
85.812,60.3151,-0.000264
85.827,60.2874,-0.000264
85.843,60.2565,-0.000264
85.859,60.2255,-0.000264
85.888,60.1689,-0.000264
85.905,60.1355,-0.000264
85.927,60.0917,-0.000207
85.959,60.0273,-0.000207
85.990,59.9656,-0.000207
86.021,59.9032,-0.000207
86.036,59.8700,-0.000207
86.067,59.8039,-0.000207
86.098,59.7411,-0.000207
86.114,59.7066,-0.000207
86.130,59.6713,-0.000207
86.146,59.6390,-0.000066
86.161,59.6065,-0.000066
86.177,59.5730,-0.000066
86.193,59.5407,-0.000066
86.223,59.4779,-0.000066
86.242,59.4387,-0.000066
86.270,59.3803,-0.000066
86.288,59.3448,-0.000066
86.304,59.3114,-0.000066
86.320,59.2800,-0.000066
86.336,59.2487,-0.000066
86.352,59.2167,-0.000066
86.368,59.1852,-0.000066
86.384,59.1542,-0.000066
86.400,59.1240,-0.000066
86.424,59.0760,-0.000094
86.441,59.0453,-0.000094
86.470,58.9880,-0.000094
86.490,58.9506,-0.000094
86.517,58.9027,-0.000094
86.536,58.8674,-0.000094
86.552,58.8377,-0.000094
86.567,58.8097,-0.000094
86.583,58.7810,-0.000094
86.600,58.7521,-0.000094
86.616,58.7221,-0.000094
86.631,58.6957,-0.000188
86.648,58.6676,-0.000188
86.664,58.6394,-0.000188
86.680,58.6110,-0.000188
86.696,58.5837,-0.000188
86.712,58.5565,-0.000188
86.728,58.5300,-0.000188
86.744,58.5025,-0.000188
86.760,58.4761,-0.000188
86.775,58.4503,-0.000188
86.793,58.4216,-0.000188
86.810,58.3918,-0.000188
86.826,58.3677,-0.000188
86.841,58.3430,-0.000188
86.857,58.3169,-0.000188
86.888,58.2681,-0.000066
86.904,58.2431,-0.000066
86.920,58.2195,-0.000066
86.935,58.1958,-0.000066
86.951,58.1711,-0.000066
86.977,58.1323,-0.000066
86.993,58.1085,-0.000066
87.009,58.0845,-0.000066
87.025,58.0611,-0.000066
87.041,58.0369,-0.000066
87.058,58.0132,-0.000066
87.073,57.9920,-0.000066
87.090,57.9688,-0.000066
87.106,57.9461,-0.000066
87.122,57.9239,-0.000066
87.137,57.9022,0.000000
87.153,57.8802,0.000000
87.171,57.8563,0.000000
87.198,57.8199,0.000000
87.217,57.7945,0.000000
87.233,57.7737,0.000000
87.250,57.7519,0.000000
87.265,57.7324,0.000000
87.282,57.7113,0.000000
87.297,57.6916,0.000000
87.314,57.6714,0.000000
87.330,57.6514,0.000000
87.346,57.6318,0.000000
87.362,57.6119,0.000000
87.377,57.5934,0.000075
87.393,57.5745,0.000075
87.409,57.5559,0.000075
87.425,57.5372,0.000075
87.441,57.5188,0.000075
87.458,57.5000,0.000075
87.473,57.4825,0.000075
87.500,57.4531,0.000075
87.516,57.4355,0.000075
87.532,57.4183,0.000075
87.547,57.4013,0.000075
87.563,57.3847,0.000075
87.580,57.3668,0.000075
87.595,57.3513,0.000075
87.611,57.3348,0.000075
87.628,57.3183,0.000179
87.643,57.3024,0.000179
87.659,57.2868,0.000179
87.676,57.2708,0.000179
87.691,57.2559,0.000179
87.708,57.2393,0.000179
87.731,57.2177,0.000179
87.756,57.1945,0.000179
87.771,57.1815,0.000179
87.787,57.1676,0.000179
87.804,57.1526,0.000179
87.819,57.1395,0.000179
87.835,57.1256,0.000179
87.852,57.1114,0.000179
87.878,57.0903,0.000179
87.893,57.0779,0.000235
87.925,57.0524,0.000235
87.947,57.0357,0.000235
87.963,57.0234,0.000235
87.982,57.0092,0.000235
88.003,56.9944,0.000235
88.032,56.9735,0.000235
88.053,56.9589,0.000235
88.069,56.9476,0.000235
88.085,56.9371,0.000235
88.101,56.9268,0.000235
88.117,56.9165,0.000235
88.133,56.9067,0.000292
88.149,56.8967,0.000292
88.165,56.8871,0.000292
88.181,56.8773,0.000292
88.197,56.8683,0.000292
88.214,56.8588,0.000292
88.229,56.8497,0.000292
88.246,56.8412,0.000292
88.261,56.8329,0.000292
88.278,56.8242,0.000292
88.298,56.8134,0.000292
88.324,56.8015,0.000292
88.341,56.7932,0.000292
88.358,56.7856,0.000292
88.386,56.7730,0.000292
88.405,56.7652,0.000292
88.421,56.7585,0.000292
88.438,56.7515,0.000292
88.464,56.7417,0.000292
88.486,56.7335,0.000292
88.501,56.7286,0.000292
88.517,56.7232,0.000292
88.533,56.7179,0.000292
88.549,56.7127,0.000292
88.565,56.7081,0.000292
88.581,56.7033,0.000292
88.597,56.6989,0.000292
88.613,56.6947,0.000292
88.629,56.6906,0.000301
88.645,56.6868,0.000301
88.661,56.6831,0.000301
88.677,56.6796,0.000301
88.693,56.6764,0.000301
88.709,56.6733,0.000301
88.725,56.6703,0.000301
88.741,56.6677,0.000301
88.757,56.6652,0.000301
88.773,56.6627,0.000301
88.789,56.6607,0.000301
88.805,56.6587,0.000301
88.821,56.6570,0.000301
88.837,56.6555,0.000301
88.853,56.6540,0.000301
88.869,56.6529,0.000320
88.885,56.6520,0.000320
88.901,56.6512,0.000320
88.917,56.6507,0.000320
88.933,56.6503,0.000320
88.950,56.6501,0.000320
88.975,56.6501,0.000320
89.005,56.6501,0.000320
89.037,56.6501,0.000320
89.067,56.6501,0.000320
89.097,56.6506,0.000320
89.127,56.6517,0.000339
89.144,56.6527,0.000339
89.176,56.6550,0.000339
89.206,56.6578,0.000339
89.221,56.6596,0.000339
89.237,56.6615,0.000339
89.253,56.6637,0.000339
89.269,56.6661,0.000339
89.285,56.6687,0.000339
89.301,56.6716,0.000339
89.317,56.6744,0.000339
89.338,56.6788,0.000339
89.360,56.6835,0.000207
89.381,56.6883,0.000207
89.398,56.6925,0.000207
89.421,56.6986,0.000207
89.451,56.7071,0.000207
89.468,56.7122,0.000207
89.498,56.7219,0.000207
89.528,56.7320,0.000207
89.545,56.7382,0.000207
89.576,56.7499,0.000207
89.591,56.7559,0.000207
89.622,56.7685,0.000207
89.648,56.7794,0.000169
89.663,56.7866,0.000169
89.679,56.7939,0.000169
89.696,56.8017,0.000169
89.712,56.8094,0.000169
89.728,56.8174,0.000169
89.743,56.8254,0.000169
89.760,56.8339,0.000169
89.775,56.8427,0.000169
89.791,56.8510,0.000169
89.807,56.8598,0.000169
89.824,56.8690,0.000169
89.839,56.8783,0.000169
89.856,56.8883,0.000169
89.871,56.8976,0.000311
89.888,56.9077,0.000311
89.903,56.9180,0.000311
89.919,56.9277,0.000311
89.936,56.9384,0.000311
89.952,56.9491,0.000311
89.971,56.9625,0.000311
89.994,56.9781,0.000311
90.015,56.9934,0.000311
90.032,57.0056,0.000311
90.048,57.0177,0.000311
90.064,57.0293,0.000311
90.079,57.0410,0.000311
90.096,57.0539,0.000311
90.111,57.0662,0.000311
90.128,57.0792,0.000311
90.143,57.0920,0.000311
90.170,57.1143,0.000311
90.193,57.1339,0.000311
90.209,57.1468,0.000311
90.225,57.1610,0.000311
90.255,57.1878,0.000311
90.272,57.2036,0.000311
90.301,57.2314,0.000311
90.317,57.2452,0.000311
90.332,57.2599,0.000311
90.364,57.2914,0.000311
90.395,57.3218,0.000282
90.417,57.3438,0.000282
90.441,57.3693,0.000282
90.458,57.3864,0.000282
90.474,57.4033,0.000282
90.490,57.4205,0.000282
90.505,57.4374,0.000282
90.522,57.4557,0.000282
90.537,57.4727,0.000282
90.553,57.4908,0.000282
90.570,57.5093,0.000282
90.586,57.5280,0.000282
90.601,57.5456,0.000282
90.617,57.5644,0.000207
90.633,57.5835,0.000207
90.650,57.6033,0.000207
90.665,57.6219,0.000207
90.681,57.6414,0.000207
90.704,57.6694,0.000207
90.733,57.7064,0.000207
90.750,57.7276,0.000207
90.767,57.7494,0.000207
90.783,57.7694,0.000207
90.799,57.7905,0.000207
90.814,57.8108,0.000207
90.830,57.8323,0.000207
90.846,57.8538,0.000207
90.863,57.8764,0.000207
90.878,57.8975,0.000113
90.894,57.9193,0.000113
90.910,57.9414,0.000113
90.926,57.9643,0.000113
90.942,57.9869,0.000113
90.958,58.0094,0.000113
90.974,58.0329,0.000113
90.990,58.0560,0.000113
91.006,58.0796,0.000113
91.022,58.1026,0.000113
91.038,58.1272,0.000113
91.054,58.1507,0.000113
91.070,58.1748,0.000113
91.087,58.2005,0.000113
91.102,58.2237,0.000113
91.118,58.2484,0.000113
91.134,58.2746,0.000113
91.150,58.2999,0.000038
91.166,58.3240,0.000038
91.185,58.3538,0.000038
91.211,58.3973,0.000038
91.241,58.4453,0.000038
91.256,58.4718,0.000038
91.272,58.4975,0.000038
91.288,58.5237,0.000038
91.305,58.5518,0.000038
91.320,58.5789,0.000038
91.336,58.6072,0.000038
91.352,58.6332,0.000038
91.368,58.6626,0.000038
91.384,58.6891,0.000038
91.400,58.7189,-0.000009
91.416,58.7456,-0.000009
91.432,58.7752,-0.000009
91.449,58.8047,-0.000009
91.464,58.8318,-0.000009
91.480,58.8620,-0.000009
91.496,58.8912,-0.000009
91.512,58.9202,-0.000009
91.528,58.9497,-0.000009
91.545,58.9818,-0.000009
91.561,59.0132,-0.000009
91.583,59.0550,-0.000009
91.614,59.1124,-0.000009
91.644,59.1734,-0.000104
91.675,59.2322,-0.000104
91.690,59.2637,-0.000104
91.721,59.3254,-0.000104
91.752,59.3878,-0.000104
91.768,59.4198,-0.000104
91.794,59.4735,-0.000104
91.809,59.5056,-0.000104
91.825,59.5371,-0.000104
91.841,59.5717,-0.000104
91.857,59.6045,-0.000104
91.874,59.6409,-0.000104
91.889,59.6742,-0.000226
91.905,59.7062,-0.000226
91.930,59.7590,-0.000226
91.945,59.7901,-0.000226
91.966,59.8334,-0.000226
91.986,59.8755,-0.000226
92.013,59.9299,-0.000226
92.033,59.9717,-0.000226
92.050,60.0060,-0.000226
92.075,60.0538,-0.000226
92.105,60.1142,-0.000226
92.136,60.1733,-0.000188
92.151,60.2027,-0.000188
92.182,60.2637,-0.000188
92.212,60.3200,-0.000188
92.228,60.3492,-0.000188
92.259,60.4069,-0.000188
92.275,60.4362,-0.000188
92.291,60.4655,-0.000188
92.306,60.4931,-0.000188
92.321,60.5201,-0.000188
92.347,60.5657,-0.000188
92.363,60.5945,-0.000188
92.379,60.6217,-0.000132
92.396,60.6519,-0.000132
92.419,60.6924,-0.000132
92.444,60.7349,-0.000132
92.475,60.7875,-0.000132
92.490,60.8129,-0.000132
92.507,60.8412,-0.000132
92.523,60.8679,-0.000132
92.551,60.9127,-0.000132
92.571,60.9445,-0.000132
92.587,60.9709,-0.000132
92.603,60.9961,-0.000132
92.618,61.0200,-0.000169
92.635,61.0458,-0.000169
92.651,61.0711,-0.000169
92.667,61.0959,-0.000169
92.690,61.1298,-0.000169
92.705,61.1534,-0.000169
92.737,61.2012,-0.000169
92.768,61.2457,-0.000169
92.798,61.2908,-0.000169
92.828,61.3322,-0.000169
92.859,61.3763,-0.000169
92.885,61.4126,-0.000235
92.902,61.4346,-0.000235
92.918,61.4562,-0.000235
92.933,61.4772,-0.000235
92.949,61.4988,-0.000235
92.966,61.5205,-0.000235
92.982,61.5414,-0.000235
92.997,61.5609,-0.000235
93.013,61.5822,-0.000235
93.030,61.6027,-0.000235
93.045,61.6215,-0.000235
93.062,61.6420,-0.000235
93.078,61.6618,-0.000235
93.094,61.6821,-0.000235
93.123,61.7164,-0.000235
93.145,61.7425,-0.000235
93.171,61.7727,-0.000339
93.190,61.7946,-0.000339
93.205,61.8115,-0.000339
93.221,61.8294,-0.000339
93.238,61.8478,-0.000339
93.254,61.8652,-0.000339
93.270,61.8829,-0.000339
93.285,61.8991,-0.000339
93.302,61.9166,-0.000339
93.317,61.9331,-0.000339
93.334,61.9501,-0.000339
93.350,61.9665,-0.000339
93.366,61.9824,-0.000339
93.381,61.9987,-0.000339
93.398,62.0142,-0.000339
93.428,62.0440,-0.000405
93.444,62.0597,-0.000405
93.460,62.0742,-0.000405
93.476,62.0891,-0.000405
93.492,62.1040,-0.000405
93.508,62.1183,-0.000405
93.524,62.1329,-0.000405
93.541,62.1474,-0.000405
93.557,62.1614,-0.000405
93.588,62.1870,-0.000405
93.604,62.2011,-0.000405
93.622,62.2150,-0.000405
93.649,62.2371,-0.000424
93.669,62.2523,-0.000424
93.685,62.2652,-0.000424
93.701,62.2771,-0.000424
93.726,62.2959,-0.000424
93.743,62.3083,-0.000424
93.764,62.3230,-0.000424
93.780,62.3342,-0.000424
93.796,62.3453,-0.000424
93.812,62.3560,-0.000424
93.828,62.3664,-0.000424
93.844,62.3770,-0.000424
93.860,62.3871,-0.000424
93.876,62.3974,-0.000424
93.893,62.4071,-0.000433
93.908,62.4164,-0.000433
93.925,62.4266,-0.000433
93.941,62.4358,-0.000433
93.962,62.4474,-0.000433
93.979,62.4565,-0.000433
93.995,62.4651,-0.000433
94.010,62.4732,-0.000433
94.027,62.4815,-0.000433
94.042,62.4895,-0.000433
94.058,62.4973,-0.000433
94.075,62.5051,-0.000433
94.090,62.5120,-0.000433
94.106,62.5198,-0.000433
94.123,62.5270,-0.000433
94.139,62.5334,-0.000433
94.154,62.5399,-0.000471
94.170,62.5464,-0.000471
94.186,62.5526,-0.000471
94.202,62.5585,-0.000471
94.218,62.5645,-0.000471
94.234,62.5702,-0.000471
94.250,62.5755,-0.000471
94.266,62.5811,-0.000471
94.282,62.5861,-0.000471
94.298,62.5909,-0.000471
94.315,62.5956,-0.000471
94.330,62.6001,-0.000471
94.346,62.6043,-0.000471
94.365,62.6093,-0.000471
94.392,62.6156,-0.000584
94.410,62.6196,-0.000584
94.431,62.6239,-0.000584
94.454,62.6282,-0.000584
94.474,62.6317,-0.000584
94.490,62.6344,-0.000584
94.506,62.6367,-0.000584
94.522,62.6389,-0.000584
94.538,62.6410,-0.000584
94.554,62.6427,-0.000584
94.570,62.6442,-0.000584
94.586,62.6457,-0.000584
94.602,62.6470,-0.000584
94.618,62.6478,-0.000725
94.634,62.6487,-0.000725
94.650,62.6493,-0.000725
94.666,62.6498,-0.000725
94.682,62.6501,-0.000725
94.698,62.6501,-0.000725
94.714,62.6501,-0.000725
94.730,62.6501,-0.000725
94.746,62.6501,-0.000725
94.762,62.6501,-0.000725
94.778,62.6501,-0.000725
94.794,62.6501,-0.000725
94.810,62.6501,-0.000725
