Elapsed Time (s),Position (mm),Force (N)
-0.020,60.9501,-0.000537
0.000,60.9501,-0.000537
0.028,60.9501,-0.000537
0.045,60.9501,-0.000537
0.062,60.9501,-0.000537
0.077,60.9501,-0.000537
0.093,60.9501,-0.000537
0.109,60.9501,-0.000537
0.127,60.9501,-0.000537
0.152,60.9501,-0.000537
0.174,60.9501,-0.000537
0.190,60.9501,-0.000537
0.214,60.9501,-0.000537
0.244,60.9501,-0.000405
0.275,60.9501,-0.000405
0.305,60.9501,-0.000405
0.320,60.9501,-0.000405
0.336,60.9501,-0.000405
0.352,60.9501,-0.000405
0.368,60.9501,-0.000405
0.384,60.9501,-0.000405
0.399,60.9501,-0.000405
0.436,60.9501,-0.000405
0.461,60.9501,-0.000405
0.492,60.9501,-0.000377
0.508,60.9501,-0.000377
0.524,60.9501,-0.000377
0.547,60.9501,-0.000377
0.569,60.9501,-0.000377
0.588,60.9501,-0.000377
0.607,60.9501,-0.000377
0.623,60.9501,-0.000377
0.647,60.9501,-0.000377
0.668,60.9501,-0.000377
0.684,60.9501,-0.000377
0.700,60.9501,-0.000377
0.716,60.9501,-0.000377
0.732,60.9501,-0.000377
0.748,60.9501,-0.000386
0.764,60.9501,-0.000386
0.780,60.9501,-0.000386
0.797,60.9501,-0.000386
0.812,60.9501,-0.000386
0.828,60.9501,-0.000386
0.844,60.9501,-0.000386
0.860,60.9501,-0.000386
0.876,60.9501,-0.000386
0.892,60.9501,-0.000386
0.908,60.9501,-0.000386
0.925,60.9501,-0.000386
0.955,60.9501,-0.000386
0.971,60.9501,-0.000386
0.987,60.9501,-0.000386
1.003,60.9501,-0.000386
1.020,60.9501,-0.000386
1.050,60.9501,-0.000386
1.067,60.9501,-0.000386
1.083,60.9501,-0.000386
1.099,60.9501,-0.000386
1.115,60.9501,-0.000386
1.131,60.9501,-0.000386
1.147,60.9501,-0.000386
1.163,60.9501,-0.000386
1.180,60.9501,-0.000386
1.195,60.9501,-0.000386
1.212,60.9501,-0.000386
1.227,60.9501,-0.000386
1.243,60.9501,-0.000377
1.259,60.9501,-0.000377
1.275,60.9501,-0.000377
1.291,60.9501,-0.000377
1.307,60.9501,-0.000377
1.323,60.9501,-0.000377
1.339,60.9501,-0.000377
1.355,60.9501,-0.000377
1.371,60.9501,-0.000377
1.387,60.9501,-0.000377
1.409,60.9501,-0.000377
1.437,60.9501,-0.000377
1.453,60.9501,-0.000377
1.468,60.9501,-0.000377
1.484,60.9501,-0.000377
1.514,60.9501,-0.000358
1.531,60.9501,-0.000358
1.546,60.9501,-0.000358
1.563,60.9501,-0.000358
1.579,60.9501,-0.000358
1.595,60.9501,-0.000358
1.610,60.9501,-0.000358
1.627,60.9501,-0.000358
1.643,60.9501,-0.000358
1.659,60.9501,-0.000358
1.674,60.9501,-0.000358
1.690,60.9501,-0.000358
1.709,60.9501,-0.000358
1.725,60.9501,-0.000358
1.747,60.9501,-0.000358
1.777,60.9501,-0.000339
1.808,60.9501,-0.000339
1.839,60.9501,-0.000339
1.870,60.9501,-0.000339
1.901,60.9501,-0.000339
1.932,60.9501,-0.000339
1.947,60.9501,-0.000339
1.962,60.9501,-0.000339
1.978,60.9501,-0.000348
1.995,60.9501,-0.000348
2.010,60.9501,-0.000348
2.027,60.9501,-0.000348
2.043,60.9501,-0.000348
2.070,60.9501,-0.000348
2.086,60.9501,-0.000348
2.101,60.9501,-0.000348
2.118,60.9501,-0.000348
2.134,60.9501,-0.000348
2.164,60.9501,-0.000348
2.181,60.9501,-0.000348
2.197,60.9501,-0.000348
2.214,60.9501,-0.000348
2.229,60.9501,-0.000358
2.245,60.9501,-0.000358
2.262,60.9501,-0.000358
2.278,60.9501,-0.000358
2.294,60.9501,-0.000358
2.309,60.9501,-0.000358
2.328,60.9501,-0.000358
2.343,60.9501,-0.000358
2.365,60.9501,-0.000358
2.396,60.9501,-0.000358
2.426,60.9501,-0.000358
2.458,60.9501,-0.000358
2.489,60.9501,-0.000320
2.520,60.9501,-0.000320
2.551,60.9501,-0.000320
2.581,60.9501,-0.000320
2.597,60.9501,-0.000320
2.626,60.9501,-0.000320
2.643,60.9501,-0.000320
2.658,60.9501,-0.000320
2.674,60.9501,-0.000320
2.690,60.9501,-0.000320
2.707,60.9501,-0.000320
2.722,60.9501,-0.000292
2.738,60.9501,-0.000292
2.754,60.9501,-0.000292
2.770,60.9501,-0.000292
2.786,60.9501,-0.000292
2.802,60.9501,-0.000292
2.819,60.9501,-0.000292
2.835,60.9501,-0.000292
2.850,60.9501,-0.000292
2.866,60.9501,-0.000292
2.883,60.9501,-0.000292
2.899,60.9501,-0.000292
2.916,60.9501,-0.000292
2.939,60.9501,-0.000292
2.969,60.9501,-0.000292
3.000,60.9501,-0.000311
3.016,60.9501,-0.000311
3.047,60.9501,-0.000311
3.063,60.9501,-0.000311
3.079,60.9501,-0.000311
3.110,60.9501,-0.000311
3.143,60.9501,-0.000311
3.172,60.9501,-0.000311
3.188,60.9501,-0.000311
3.203,60.9501,-0.000311
3.236,60.9501,-0.000358
3.252,60.9501,-0.000358
3.279,60.9501,-0.000358
3.299,60.9501,-0.000358
3.326,60.9501,-0.000358
3.346,60.9501,-0.000358
3.362,60.9501,-0.000358
3.378,60.9501,-0.000358
3.394,60.9501,-0.000358
3.410,60.9501,-0.000358
3.426,60.9501,-0.000358
3.442,60.9501,-0.000358
3.458,60.9501,-0.000358
3.474,60.9501,-0.000358
3.490,60.9501,-0.000339
3.506,60.9501,-0.000339
3.522,60.9501,-0.000339
3.538,60.9501,-0.000339
3.554,60.9501,-0.000339
3.570,60.9501,-0.000339
3.586,60.9501,-0.000339
3.603,60.9501,-0.000339
3.633,60.9501,-0.000339
3.650,60.9501,-0.000339
3.673,60.9501,-0.000339
3.688,60.9501,-0.000339
3.704,60.9501,-0.000339
3.720,60.9501,-0.000339
3.736,60.9501,-0.000339
3.752,60.9501,-0.000442
3.768,60.9501,-0.000442
3.784,60.9501,-0.000442
3.800,60.9501,-0.000442
3.816,60.9501,-0.000442
3.832,60.9501,-0.000442
3.849,60.9501,-0.000442
3.867,60.9501,-0.000442
3.895,60.9501,-0.000442
3.912,60.9501,-0.000442
3.928,60.9501,-0.000442
3.944,60.9501,-0.000442
3.960,60.9501,-0.000442
3.976,60.9501,-0.000442
3.991,60.9501,-0.000442
4.009,60.9501,-0.000602
4.024,60.9501,-0.000602
4.043,60.9498,-0.000602
4.066,60.9492,-0.000602
4.097,60.9477,-0.000602
4.128,60.9456,-0.000602
4.159,60.9425,-0.000602
4.175,60.9408,-0.000602
4.205,60.9371,-0.000602
4.225,60.9340,-0.000602
4.242,60.9311,-0.000602
4.258,60.9285,-0.000621
4.273,60.9255,-0.000621
4.291,60.9220,-0.000621
4.313,60.9172,-0.000621
4.344,60.9100,-0.000621
4.359,60.9060,-0.000621
4.375,60.9022,-0.000621
4.405,60.8934,-0.000621
4.420,60.8891,-0.000621
4.437,60.8836,-0.000621
4.468,60.8736,-0.000621
4.484,60.8680,-0.000621
4.515,60.8569,0.000998
4.530,60.8507,0.000998
4.546,60.8450,0.000998
4.561,60.8388,0.000998
4.577,60.8320,0.000998
4.594,60.8251,0.000998
4.609,60.8181,0.000998
4.625,60.8108,0.000998
4.642,60.8031,0.000998
4.657,60.7958,0.000998
4.674,60.7876,0.000998
4.689,60.7800,0.000998
4.708,60.7701,0.000998
4.731,60.7581,0.000998
4.762,60.7413,0.000998
4.782,60.7296,0.003925
4.798,60.7200,0.003925
4.814,60.7107,0.003925
4.830,60.7010,0.003925
4.847,60.6907,0.003925
4.863,60.6807,0.003925
4.885,60.6657,0.003925
4.901,60.6556,0.003925
4.932,60.6343,0.003925
4.963,60.6130,0.003925
4.979,60.6012,0.003925
4.995,60.5893,0.007192
5.025,60.5663,0.007192
5.049,60.5482,0.007192
5.070,60.5316,0.007192
5.086,60.5191,0.007192
5.102,60.5058,0.007192
5.118,60.4929,0.007192
5.134,60.4793,0.007192
5.150,60.4655,0.007192
5.166,60.4520,0.007192
5.182,60.4381,0.007192
5.198,60.4240,0.007192
5.217,60.4069,0.007192
5.241,60.3843,0.012256
5.262,60.3652,0.012256
5.278,60.3496,0.012256
5.294,60.3345,0.012256
5.310,60.3192,0.012256
5.333,60.2955,0.012256
5.349,60.2801,0.012256
5.365,60.2644,0.012256
5.381,60.2479,0.012256
5.399,60.2285,0.012256
5.428,60.1990,0.012256
5.445,60.1799,0.012256
5.461,60.1627,0.012256
5.477,60.1454,0.012256
5.494,60.1262,0.008218
5.509,60.1093,0.008218
5.525,60.0908,0.008218
5.541,60.0731,0.008218
5.558,60.0543,0.008218
5.573,60.0355,0.008218
5.589,60.0163,0.008218
5.605,59.9980,0.008218
5.621,59.9787,0.008218
5.637,59.9586,0.008218
5.653,59.9382,0.008218
5.669,59.9197,0.008218
5.685,59.8997,0.008218
5.702,59.8776,0.008218
5.721,59.8521,0.008218
5.737,59.8323,0.008218
5.768,59.7919,0.000537
5.798,59.7515,0.000537
5.829,59.7098,0.000537
5.845,59.6876,0.000537
5.861,59.6658,0.000537
5.890,59.6244,0.000537
5.906,59.6016,0.000537
5.922,59.5790,0.000537
5.938,59.5562,0.000537
5.954,59.5315,0.000537
5.970,59.5097,0.000537
5.986,59.4859,-0.000019
6.002,59.4619,-0.000019
6.018,59.4374,-0.000019
6.034,59.4131,-0.000019
6.050,59.3890,-0.000019
6.067,59.3627,-0.000019
6.082,59.3389,-0.000019
6.098,59.3135,-0.000019
6.114,59.2885,-0.000019
6.130,59.2620,-0.000019
6.146,59.2371,-0.000019
6.163,59.2110,-0.000019
6.178,59.1861,-0.000019
6.195,59.1582,-0.000019
6.217,59.1220,-0.000019
6.233,59.0956,0.000038
6.263,59.0441,0.000038
6.293,58.9919,0.000038
6.310,58.9629,0.000038
6.341,58.9096,0.000038
6.371,58.8536,0.000038
6.387,58.8268,0.000038
6.403,58.7993,0.000038
6.433,58.7446,0.000038
6.449,58.7143,0.000038
6.465,58.6855,0.000179
6.481,58.6554,0.000179
6.497,58.6259,0.000179
6.513,58.5950,0.000179
6.529,58.5656,0.000179
6.545,58.5346,0.000179
6.561,58.5035,0.000179
6.577,58.4732,0.000179
6.593,58.4421,0.000179
6.609,58.4116,0.000179
6.625,58.3799,0.000179
6.641,58.3477,0.000179
6.657,58.3171,0.000179
6.673,58.2848,0.000179
6.689,58.2518,0.000179
6.704,58.2202,0.000179
6.720,58.1877,0.000292
6.737,58.1529,0.000292
6.753,58.1211,0.000292
6.769,58.0881,0.000292
6.784,58.0555,0.000292
6.800,58.0215,0.000292
6.817,57.9873,0.000292
6.833,57.9533,0.000292
6.848,57.9198,0.000292
6.865,57.8850,0.000292
6.881,57.8509,0.000292
6.897,57.8171,0.000292
6.913,57.7846,0.000292
6.930,57.7482,0.000292
6.960,57.6842,0.000292
6.992,57.6212,0.000311
7.008,57.5883,0.000311
7.024,57.5562,0.000311
7.040,57.5246,0.000311
7.062,57.4768,0.000311
7.085,57.4346,0.000311
7.103,57.3989,0.000311
7.120,57.3672,0.000311
7.135,57.3372,0.000311
7.152,57.3056,0.000311
7.167,57.2764,0.000311
7.186,57.2417,0.000311
7.209,57.1974,0.000311
7.224,57.1695,0.000292
7.254,57.1135,0.000292
7.285,57.0591,0.000292
7.316,57.0030,0.000292
7.346,56.9500,0.000292
7.376,56.8960,0.000292
7.392,56.8698,0.000292
7.407,56.8428,0.000292
7.424,56.8139,0.000292
7.440,56.7875,0.000292
7.455,56.7614,0.000292
7.471,56.7348,0.000358
7.487,56.7082,0.000358
7.504,56.6812,0.000358
7.519,56.6560,0.000358
7.544,56.6160,0.000358
7.563,56.5848,0.000358
7.579,56.5601,0.000358
7.595,56.5347,0.000358
7.611,56.5077,0.000358
7.641,56.4625,0.000358
7.671,56.4171,0.000358
7.687,56.3935,0.000358
7.702,56.3699,0.000358
7.719,56.3455,0.000471
7.734,56.3225,0.000471
7.750,56.2994,0.000471
7.767,56.2758,0.000471
7.782,56.2532,0.000471
7.804,56.2219,0.000471
7.825,56.1912,0.000471
7.846,56.1631,0.000471
7.863,56.1393,0.000471
7.879,56.1189,0.000471
7.895,56.0973,0.000471
7.910,56.0761,0.000471
7.927,56.0543,0.000471
7.943,56.0334,0.000471
7.958,56.0133,0.000471
7.974,55.9925,0.000602
7.991,55.9712,0.000602
8.007,55.9512,0.000602
8.022,55.9313,0.000602
8.038,55.9114,0.000602
8.054,55.8918,0.000602
8.070,55.8724,0.000602
8.086,55.8527,0.000602
8.102,55.8339,0.000602
8.119,55.8146,0.000602
8.135,55.7960,0.000602
8.150,55.7779,0.000602
8.166,55.7597,0.000602
8.183,55.7407,0.000602
8.198,55.7235,0.000602
8.214,55.7054,0.000602
8.230,55.6881,0.000706
8.247,55.6699,0.000706
8.262,55.6534,0.000706
8.278,55.6365,0.000706
8.296,55.6177,0.000706
8.321,55.5918,0.000706
8.342,55.5706,0.000706
8.358,55.5542,0.000706
8.374,55.5388,0.000706
8.390,55.5232,0.000706
8.407,55.5072,0.000706
8.422,55.4918,0.000706
8.438,55.4774,0.000706
8.454,55.4627,0.000706
8.470,55.4479,0.000706
8.486,55.4331,0.000706
8.502,55.4191,0.000762
8.518,55.4047,0.000762
8.534,55.3907,0.000762
8.551,55.3770,0.000762
8.566,55.3641,0.000762
8.582,55.3507,0.000762
8.598,55.3371,0.000762
8.614,55.3246,0.000762
8.630,55.3115,0.000762
8.646,55.2992,0.000762
8.662,55.2863,0.000762
8.678,55.2749,0.000762
8.694,55.2622,0.000762
8.710,55.2512,0.000762
8.726,55.2389,0.000762
8.742,55.2280,0.000762
8.758,55.2171,0.000810
8.774,55.2062,0.000810
8.791,55.1944,0.000810
8.816,55.1778,0.000810
8.838,55.1636,0.000810
8.855,55.1535,0.000810
8.878,55.1387,0.000810
8.894,55.1295,0.000810
8.925,55.1119,0.000810
8.955,55.0949,0.000810
8.988,55.0774,0.000810
9.017,55.0629,0.000810
9.033,55.0550,0.000828
9.049,55.0471,0.000828
9.065,55.0399,0.000828
9.080,55.0332,0.000828
9.096,55.0262,0.000828
9.126,55.0133,0.000828
9.142,55.0068,0.000828
9.158,55.0005,0.000828
9.174,54.9945,0.000828
9.190,54.9883,0.000828
9.217,54.9785,0.000828
9.234,54.9730,0.000828
9.250,54.9679,0.000894
9.266,54.9628,0.000894
9.286,54.9566,0.000894
9.311,54.9496,0.000894
9.330,54.9446,0.000894
9.346,54.9405,0.000894
9.362,54.9368,0.000894
9.378,54.9330,0.000894
9.394,54.9296,0.000894
9.410,54.9261,0.000894
9.426,54.9232,0.000894
9.442,54.9203,0.000894
9.458,54.9177,0.000894
9.474,54.9150,0.000894
9.490,54.9127,0.000894
9.506,54.9108,0.000932
9.522,54.9088,0.000932
9.538,54.9069,0.000932
9.554,54.9055,0.000932
9.570,54.9041,0.000932
9.586,54.9029,0.000932
9.602,54.9020,0.000932
9.618,54.9012,0.000932
9.634,54.9007,0.000932
9.653,54.9002,0.000932
9.669,54.9001,0.000932
9.697,54.9001,0.000932
9.714,54.9001,0.000932
9.730,54.9001,0.000932
9.746,54.9001,0.000932
9.774,54.9001,0.000875
9.790,54.9001,0.000875
9.805,54.9001,0.000875
9.822,54.9001,0.000875
9.840,54.9001,0.000875
9.868,54.9001,0.000875
9.886,54.9001,0.000875
9.902,54.9001,0.000875
9.917,54.9001,0.000875
9.933,54.9001,0.000875
9.950,54.9001,0.000875
9.965,54.9001,0.000875
9.981,54.9001,0.000875
9.997,54.9001,0.000951
10.014,54.9001,0.000951
10.032,54.9001,0.000951
10.047,54.9001,0.000951
10.069,54.9001,0.000951
10.101,54.9001,0.000951
10.116,54.9001,0.000951
10.146,54.9001,0.000951
10.162,54.9001,0.000951
10.193,54.9001,0.000951
10.208,54.9001,0.000951
10.224,54.9001,0.000951
10.240,54.9001,0.001073
10.271,54.9001,0.001073
10.302,54.9001,0.001073
10.331,54.9001,0.001073
10.347,54.9001,0.001073
10.363,54.9001,0.001073
10.380,54.9001,0.001073
10.396,54.9001,0.001073
10.412,54.9001,0.001073
10.427,54.9001,0.001073
10.443,54.9001,0.001073
10.460,54.9003,0.001073
10.475,54.9006,0.001073
10.491,54.9012,0.001045
10.507,54.9020,0.001045
10.524,54.9029,0.001045
10.540,54.9041,0.001045
10.555,54.9053,0.001045
10.571,54.9069,0.001045
10.587,54.9086,0.001045
10.604,54.9106,0.001045
10.619,54.9126,0.001045
10.636,54.9150,0.001045
10.652,54.9176,0.001045
10.667,54.9201,0.001045
10.683,54.9229,0.001045
10.700,54.9261,0.001045
10.715,54.9294,0.001045
10.731,54.9328,0.000885
10.747,54.9366,0.000885
10.763,54.9403,0.000885
10.779,54.9445,0.000885
10.796,54.9486,0.000885
10.811,54.9530,0.000885
10.827,54.9576,0.000885
10.851,54.9648,0.000885
10.868,54.9702,0.000885
10.883,54.9754,0.000885
10.900,54.9810,0.000885
10.915,54.9865,0.000885
10.931,54.9924,0.000885
10.948,54.9988,0.000885
10.963,55.0049,0.000885
10.979,55.0112,0.000781
10.995,55.0178,0.000781
11.011,55.0247,0.000781
11.027,55.0318,0.000781
11.043,55.0390,0.000781
11.059,55.0466,0.000781
11.075,55.0541,0.000781
11.092,55.0623,0.000781
11.108,55.0701,0.000781
11.123,55.0779,0.000781
11.142,55.0884,0.000781
11.160,55.0979,0.000781
11.185,55.1120,0.000781
11.204,55.1226,0.000781
11.219,55.1316,0.000781
11.235,55.1408,0.000885
11.251,55.1506,0.000885
11.269,55.1619,0.000885
11.294,55.1779,0.000885
11.315,55.1915,0.000885
11.331,55.2023,0.000885
11.348,55.2140,0.000885
11.372,55.2307,0.000885
11.394,55.2467,0.000885
11.410,55.2581,0.000885
11.426,55.2703,0.000885
11.442,55.2821,0.000885
11.458,55.2945,0.000885
11.474,55.3073,0.000904
11.490,55.3193,0.000904
11.506,55.3322,0.000904
11.525,55.3474,0.000904
11.541,55.3610,0.000904
11.556,55.3741,0.000904
11.587,55.4005,0.000904
11.603,55.4147,0.000904
11.634,55.4421,0.000904
11.650,55.4571,0.000904
11.666,55.4712,0.000904
11.682,55.4865,0.000904
11.698,55.5015,0.000904
11.714,55.5172,0.000904
11.730,55.5325,0.000857
11.746,55.5481,0.000857
11.764,55.5662,0.000857
11.789,55.5914,0.000857
11.810,55.6135,0.000857
11.829,55.6329,0.000857
11.844,55.6496,0.000857
11.867,55.6740,0.000857
11.882,55.6901,0.000857
11.897,55.7075,0.000857
11.913,55.7248,0.000857
11.944,55.7601,0.000857
11.975,55.7949,0.000857
11.991,55.8144,0.000857
12.007,55.8330,0.000857
12.039,55.8705,0.000857
12.069,55.9084,0.000857
12.085,55.9279,0.000857
12.101,55.9475,0.000857
12.117,55.9682,0.000857
12.147,56.0065,0.000857
12.178,56.0473,0.000857
12.194,56.0688,0.000857
12.210,56.0889,0.000857
12.226,56.1108,0.000762
12.242,56.1331,0.000762
12.258,56.1541,0.000762
12.274,56.1767,0.000762
12.291,56.2005,0.000762
12.306,56.2216,0.000762
12.322,56.2439,0.000762
12.338,56.2668,0.000762
12.358,56.2961,0.000762
12.381,56.3293,0.000762
12.402,56.3607,0.000762
12.418,56.3848,0.000762
12.434,56.4082,0.000762
12.450,56.4334,0.000762
12.474,56.4708,0.000762
12.490,56.4949,0.000762
12.506,56.5197,0.000659
12.522,56.5441,0.000659
12.538,56.5694,0.000659
12.554,56.5954,0.000659
12.570,56.6207,0.000659
12.586,56.6468,0.000659
12.602,56.6751,0.000659
12.618,56.6994,0.000659
12.634,56.7271,0.000659
12.650,56.7524,0.000659
12.666,56.7792,0.000659
12.682,56.8061,0.000659
12.697,56.8334,0.000659
12.715,56.8630,0.000659
12.735,56.8977,0.000659
12.750,56.9256,0.000574
12.780,56.9785,0.000574
12.796,57.0055,0.000574
12.811,57.0332,0.000574
12.841,57.0876,0.000574
12.858,57.1176,0.000574
12.873,57.1465,0.000574
12.889,57.1755,0.000574
12.907,57.2085,0.000574
12.922,57.2363,0.000574
12.937,57.2657,0.000574
12.954,57.2961,0.000574
12.970,57.3285,0.000574
12.985,57.3571,0.000574
13.002,57.3892,0.000574
13.030,57.4447,0.000424
13.045,57.4743,0.000424
13.062,57.5077,0.000424
13.077,57.5381,0.000424
13.095,57.5744,0.000424
13.110,57.6040,0.000424
13.137,57.6580,0.000424
13.158,57.7029,0.000424
13.184,57.7565,0.000424
13.205,57.7999,0.000424
13.221,57.8337,0.000424
13.238,57.8683,0.000424
13.254,57.9026,0.000311
13.271,57.9385,0.000311
13.286,57.9702,0.000311
13.301,58.0028,0.000311
13.317,58.0359,0.000311
13.334,58.0719,0.000311
13.355,58.1139,0.000311
13.371,58.1460,0.000311
13.400,58.2080,0.000311
13.416,58.2381,0.000311
13.447,58.2993,0.000311
13.463,58.3326,0.000311
13.493,58.3894,0.000282
13.510,58.4224,0.000282
13.525,58.4529,0.000282
13.542,58.4846,0.000282
13.558,58.5156,0.000282
13.583,58.5647,0.000282
13.599,58.5935,0.000282
13.615,58.6227,0.000282
13.631,58.6523,0.000282
13.648,58.6843,0.000282
13.664,58.7117,0.000282
13.679,58.7400,0.000282
13.695,58.7690,0.000282
13.711,58.7977,0.000282
13.727,58.8264,0.000282
13.744,58.8547,0.000245
13.759,58.8824,0.000245
13.776,58.9110,0.000245
13.791,58.9378,0.000245
13.807,58.9652,0.000245
13.823,58.9925,0.000245
13.839,59.0197,0.000245
13.855,59.0466,0.000245
13.871,59.0739,0.000245
13.887,59.0998,0.000245
13.903,59.1261,0.000245
13.919,59.1520,0.000245
13.936,59.1788,0.000245
13.951,59.2043,0.000245
13.968,59.2299,0.000245
13.984,59.2565,0.000169
13.999,59.2810,0.000169
14.017,59.3081,0.000169
14.032,59.3308,0.000169
14.062,59.3762,0.000169
14.080,59.4033,0.000169
14.095,59.4265,0.000169
14.111,59.4503,0.000169
14.139,59.4928,0.000169
14.162,59.5265,0.000169
14.184,59.5569,0.000169
14.203,59.5831,0.000169
14.218,59.6045,0.000169
14.234,59.6270,0.000066
14.250,59.6491,0.000066
14.267,59.6716,0.000066
14.282,59.6929,0.000066
14.298,59.7148,0.000066
14.314,59.7355,0.000066
14.330,59.7576,0.000066
14.346,59.7781,0.000066
14.362,59.7993,0.000066
14.378,59.8191,0.000066
14.396,59.8416,0.000066
14.417,59.8688,0.000066
14.448,59.9077,0.000066
14.478,59.9438,-0.000028
14.495,59.9638,-0.000028
14.529,60.0048,-0.000028
14.556,60.0354,-0.000028
14.572,60.0528,-0.000028
14.587,60.0711,-0.000028
14.603,60.0885,-0.000028
14.619,60.1056,-0.000028
14.650,60.1388,-0.000028
14.666,60.1560,-0.000028
14.696,60.1881,-0.000028
14.715,60.2075,-0.000028
14.742,60.2345,-0.000085
14.760,60.2533,-0.000085
14.776,60.2686,-0.000085
14.792,60.2836,-0.000085
14.808,60.2988,-0.000085
14.824,60.3147,-0.000085
14.840,60.3292,-0.000085
14.856,60.3441,-0.000085
14.872,60.3582,-0.000085
14.888,60.3731,-0.000085
14.904,60.3876,-0.000085
14.920,60.4009,-0.000085
14.936,60.4150,-0.000085
14.952,60.4288,-0.000085
14.968,60.4417,-0.000151
14.984,60.4549,-0.000151
15.000,60.4684,-0.000151
15.016,60.4813,-0.000151
15.032,60.4934,-0.000151
15.048,60.5068,-0.000151
15.064,60.5182,-0.000151
15.080,60.5301,-0.000151
15.096,60.5425,-0.000151
15.112,60.5539,-0.000151
15.129,60.5666,-0.000151
15.158,60.5872,-0.000151
15.176,60.5986,-0.000151
15.198,60.6142,-0.000151
15.222,60.6294,-0.000151
15.237,60.6385,-0.000151
15.253,60.6485,-0.000179
15.269,60.6584,-0.000179
15.285,60.6679,-0.000179
15.302,60.6776,-0.000179
15.318,60.6873,-0.000179
15.345,60.7022,-0.000179
15.365,60.7128,-0.000179
15.383,60.7227,-0.000179
15.400,60.7308,-0.000179
15.421,60.7420,-0.000179
15.437,60.7492,-0.000179
15.452,60.7566,-0.000179
15.483,60.7709,-0.000217
15.499,60.7776,-0.000217
15.529,60.7905,-0.000217
15.560,60.8022,-0.000217
15.591,60.8139,-0.000217
15.607,60.8199,-0.000217
15.637,60.8300,-0.000217
15.652,60.8347,-0.000217
15.669,60.8397,-0.000217
15.685,60.8445,-0.000217
15.701,60.8491,-0.000217
15.730,60.8567,-0.000301
15.749,60.8616,-0.000301
15.765,60.8654,-0.000301
15.781,60.8688,-0.000301
15.797,60.8722,-0.000301
15.813,60.8754,-0.000301
15.829,60.8785,-0.000301
15.844,60.8811,-0.000301
15.861,60.8838,-0.000301
15.877,60.8862,-0.000301
15.892,60.8884,-0.000301
15.908,60.8904,-0.000301
15.924,60.8923,-0.000301
15.941,60.8940,-0.000301
15.956,60.8954,-0.000301
15.973,60.8966,-0.000480
15.988,60.8977,-0.000480
16.004,60.8986,-0.000480
16.020,60.8992,-0.000480
16.036,60.8997,-0.000480
16.053,60.9000,-0.000480
16.068,60.9001,-0.000480
16.084,60.9001,-0.000480
16.100,60.9001,-0.000480
16.117,60.9001,-0.000480
16.132,60.9001,-0.000480
16.148,60.9001,-0.000480
16.165,60.9001,-0.000480
16.181,60.9001,-0.000480
16.209,60.9001,-0.000480
16.229,60.9001,-0.000584
16.245,60.9001,-0.000584
16.261,60.9001,-0.000584
16.291,60.9001,-0.000584
16.307,60.9001,-0.000584
16.323,60.9001,-0.000584
16.340,60.9001,-0.000584
16.355,60.9001,-0.000584
16.371,60.9001,-0.000584
16.387,60.9001,-0.000584
16.403,60.9001,-0.000584
16.420,60.9001,-0.000584
16.435,60.9001,-0.000584
16.451,60.9001,-0.000584
16.468,60.9001,-0.000584
16.484,60.9001,-0.000584
16.499,60.9001,-0.000499
16.516,60.9001,-0.000499
16.531,60.9001,-0.000499
16.547,60.9001,-0.000499
16.563,60.9001,-0.000499
16.579,60.9001,-0.000499
16.597,60.9001,-0.000499
16.624,60.9001,-0.000499
16.643,60.9001,-0.000499
16.659,60.9001,-0.000499
16.675,60.9001,-0.000499
16.691,60.9001,-0.000499
16.707,60.9001,-0.000499
16.724,60.9001,-0.000499
16.739,60.9001,-0.000499
16.756,60.9001,-0.000405
16.771,60.9001,-0.000405
16.788,60.9001,-0.000405
16.810,60.9001,-0.000405
16.827,60.9001,-0.000405
16.857,60.9001,-0.000405
16.888,60.9001,-0.000405
16.919,60.9001,-0.000405
16.934,60.9001,-0.000405
16.950,60.9001,-0.000405
16.980,60.9001,-0.000395
16.996,60.9001,-0.000395
17.027,60.9001,-0.000395
17.045,60.9001,-0.000395
17.074,60.9001,-0.000395
17.091,60.9001,-0.000395
17.107,60.9001,-0.000395
17.123,60.9001,-0.000395
17.139,60.9001,-0.000395
17.155,60.9001,-0.000395
17.176,60.9001,-0.000395
17.199,60.9001,-0.000395
17.219,60.9001,-0.000395
17.235,60.9001,-0.000452
17.251,60.9001,-0.000452
17.267,60.9001,-0.000452
17.283,60.9001,-0.000452
17.304,60.9001,-0.000452
17.321,60.9001,-0.000452
17.351,60.9001,-0.000452
17.375,60.9001,-0.000452
17.391,60.9001,-0.000452
17.407,60.9001,-0.000452
17.423,60.9001,-0.000452
17.439,60.9001,-0.000452
17.455,60.9001,-0.000452
17.471,60.9001,-0.000452
17.487,60.9001,-0.000452
17.503,60.9001,-0.000386
17.519,60.9001,-0.000386
17.535,60.9001,-0.000386
17.551,60.9001,-0.000386
17.568,60.9001,-0.000386
17.583,60.9001,-0.000386
17.601,60.9001,-0.000386
17.630,60.9001,-0.000386
17.647,60.9001,-0.000386
17.663,60.9001,-0.000386
17.679,60.9001,-0.000386
17.695,60.9001,-0.000386
17.711,60.9001,-0.000386
17.727,60.9001,-0.000386
17.743,60.9001,-0.000386
17.759,60.9001,-0.000329
17.775,60.9001,-0.000329
17.791,60.9001,-0.000329
17.807,60.9001,-0.000329
17.823,60.9001,-0.000329
17.840,60.9001,-0.000329
17.856,60.9001,-0.000329
17.874,60.9001,-0.000329
17.895,60.9001,-0.000329
17.925,60.9001,-0.000329
17.941,60.9001,-0.000329
17.972,60.9001,-0.000329
17.987,60.9001,-0.000329
18.018,60.9001,-0.000395
18.049,60.9001,-0.000395
18.064,60.9001,-0.000395
18.079,60.9001,-0.000395
18.096,60.9001,-0.000395
18.125,60.9001,-0.000395
18.143,60.9001,-0.000395
18.160,60.9001,-0.000395
18.187,60.9001,-0.000395
18.207,60.9001,-0.000395
18.224,60.9001,-0.000395
18.239,60.9001,-0.000395
18.255,60.9001,-0.000386
18.270,60.9001,-0.000386
18.286,60.9001,-0.000386
18.303,60.9001,-0.000386
18.318,60.9001,-0.000386
18.335,60.9001,-0.000386
18.351,60.9001,-0.000386
18.366,60.9001,-0.000386
18.382,60.9001,-0.000386
18.400,60.9001,-0.000386
18.417,60.9001,-0.000386
18.433,60.9001,-0.000386
18.448,60.9001,-0.000386
18.465,60.9001,-0.000386
18.480,60.9001,-0.000386
18.510,60.9001,-0.000339
18.530,60.9001,-0.000339
18.546,60.9001,-0.000339
18.571,60.9001,-0.000339
18.590,60.9001,-0.000339
18.606,60.9001,-0.000339
18.622,60.9001,-0.000339
18.639,60.9001,-0.000339
18.654,60.9001,-0.000339
18.671,60.9001,-0.000339
18.686,60.9001,-0.000339
18.702,60.9001,-0.000339
18.719,60.9001,-0.000339
18.734,60.9001,-0.000339
18.750,60.9001,-0.000311
18.767,60.9001,-0.000311
18.783,60.9001,-0.000311
18.799,60.9001,-0.000311
18.814,60.9001,-0.000311
18.831,60.9001,-0.000311
18.849,60.9001,-0.000311
18.880,60.9001,-0.000311
18.897,60.9001,-0.000311
18.927,60.9001,-0.000311
18.942,60.9001,-0.000311
18.961,60.9001,-0.000311
18.989,60.9001,-0.000311
19.008,60.9001,-0.000311
19.035,60.9001,-0.000348
19.053,60.9001,-0.000348
19.068,60.9001,-0.000348
19.084,60.9001,-0.000348
19.100,60.9001,-0.000348
19.116,60.9001,-0.000348
19.133,60.9001,-0.000348
19.148,60.9001,-0.000348
19.165,60.9001,-0.000348
19.181,60.9001,-0.000348
19.197,60.9001,-0.000348
19.213,60.9001,-0.000348
19.234,60.9001,-0.000348
19.250,60.9001,-0.000348
19.265,60.9001,-0.000367
19.296,60.9001,-0.000367
19.326,60.9001,-0.000367
19.358,60.9001,-0.000367
19.373,60.9001,-0.000367
19.389,60.9001,-0.000367
19.405,60.9001,-0.000367
19.421,60.9001,-0.000367
19.437,60.9001,-0.000367
19.452,60.9001,-0.000367
19.468,60.9001,-0.000367
19.484,60.9001,-0.000367
19.500,60.9001,-0.000367
19.527,60.9001,-0.000367
19.556,60.9001,-0.000367
19.574,60.9001,-0.000367
19.590,60.9001,-0.000367
19.606,60.9001,-0.000367
19.622,60.9001,-0.000367
19.639,60.9001,-0.000367
19.654,60.9001,-0.000367
19.670,60.9001,-0.000367
19.686,60.9001,-0.000367
19.702,60.9001,-0.000367
19.718,60.9001,-0.000367
19.734,60.9001,-0.000367
19.750,60.9001,-0.000424
19.766,60.9001,-0.000424
19.782,60.9001,-0.000424
19.798,60.9001,-0.000424
19.814,60.9001,-0.000424
19.830,60.9001,-0.000424
19.846,60.9001,-0.000424
19.862,60.9001,-0.000424
19.878,60.9001,-0.000424
19.895,60.9001,-0.000424
19.926,60.9001,-0.000424
19.942,60.9001,-0.000424
19.958,60.9001,-0.000424
19.974,60.9001,-0.000424
19.990,60.9001,-0.000461
20.006,60.9001,-0.000461
20.022,60.9001,-0.000461
20.038,60.9001,-0.000461
20.054,60.9001,-0.000461
20.081,60.9001,-0.000461
20.098,60.9001,-0.000461
20.114,60.9001,-0.000461
20.130,60.9001,-0.000461
20.145,60.9001,-0.000461
20.161,60.9001,-0.000461
20.177,60.9001,-0.000461
20.193,60.9001,-0.000461
20.212,60.9001,-0.000461
20.238,60.9001,-0.000555
20.257,60.9001,-0.000555
20.273,60.9001,-0.000555
20.289,60.9001,-0.000555
20.305,60.9001,-0.000555
20.321,60.9001,-0.000555
20.337,60.9001,-0.000555
20.353,60.9001,-0.000555
20.369,60.9001,-0.000555
20.385,60.9001,-0.000555
20.402,60.9001,-0.000555
20.418,60.9001,-0.000555
20.438,60.9001,-0.000555
20.454,60.9000,-0.000555
20.485,60.8990,-0.000612
20.501,60.8982,-0.000612
20.532,60.8964,-0.000612
20.562,60.8936,-0.000612
20.577,60.8920,-0.000612
20.593,60.8902,-0.000612
20.621,60.8866,-0.000612
20.637,60.8842,-0.000612
20.653,60.8816,-0.000612
20.668,60.8789,-0.000612
20.686,60.8755,-0.000612
20.701,60.8727,-0.000612
20.717,60.8693,-0.000282
20.733,60.8659,-0.000282
20.751,60.8614,-0.000282
20.778,60.8548,-0.000282
20.797,60.8497,-0.000282
20.813,60.8449,-0.000282
20.829,60.8404,-0.000282
20.845,60.8356,-0.000282
20.861,60.8301,-0.000282
20.877,60.8249,-0.000282
20.893,60.8195,-0.000282
20.909,60.8140,-0.000282
20.925,60.8081,-0.000282
20.941,60.8019,-0.000282
20.957,60.7957,-0.000282
20.972,60.7893,0.002071
20.989,60.7825,0.002071
21.005,60.7756,0.002071
21.021,60.7685,0.002071
21.037,60.7614,0.002071
21.053,60.7539,0.002071
21.068,60.7467,0.002071
21.085,60.7386,0.002071
21.101,60.7307,0.002071
21.117,60.7225,0.002071
21.132,60.7142,0.002071
21.164,60.6972,0.002071
21.181,60.6878,0.002071
21.196,60.6791,0.002071
21.212,60.6698,0.002071
21.229,60.6595,0.002071
21.244,60.6504,0.002071
21.259,60.6408,0.005121
21.276,60.6306,0.005121
21.292,60.6198,0.005121
21.308,60.6095,0.005121
21.323,60.5992,0.005121
21.340,60.5877,0.005121
21.361,60.5728,0.005121
21.384,60.5557,0.005121
21.403,60.5427,0.005121
21.419,60.5309,0.005121
21.436,60.5180,0.005121
21.451,60.5064,0.005121
21.468,60.4939,0.005121
21.484,60.4810,0.005121
21.499,60.4686,0.008679
21.515,60.4556,0.008679
21.531,60.4422,0.008679
21.548,60.4284,0.008679
21.563,60.4154,0.008679
21.580,60.4013,0.008679
21.596,60.3874,0.008679
21.612,60.3720,0.008679
21.628,60.3586,0.008679
21.644,60.3436,0.008679
21.660,60.3285,0.008679
21.675,60.3147,0.008679
21.692,60.2992,0.008679
21.720,60.2709,0.008679
21.737,60.2554,0.008679
21.752,60.2399,0.014609
21.768,60.2239,0.014609
21.787,60.2038,0.014609
21.814,60.1765,0.014609
21.832,60.1572,0.014609
21.848,60.1405,0.014609
21.865,60.1227,0.014609
21.880,60.1060,0.014609
21.897,60.0877,0.014609
21.912,60.0695,0.014609
21.928,60.0524,0.014609
21.945,60.0337,0.014609
21.960,60.0158,0.014609
21.977,59.9956,0.014609
21.993,59.9774,0.014609
22.014,59.9519,0.008990
22.031,59.9309,0.008990
22.061,59.8941,0.008990
22.092,59.8563,0.008990
22.108,59.8370,0.008990
22.138,59.7975,0.008990
22.170,59.7565,0.008990
22.200,59.7153,0.008990
22.218,59.6925,0.008990
22.247,59.6523,0.008990
22.277,59.6103,0.000019
22.294,59.5879,0.000019
22.309,59.5660,0.000019
22.325,59.5428,0.000019
22.342,59.5190,0.000019
22.358,59.4958,0.000019
22.385,59.4560,0.000019
22.406,59.4245,0.000019
22.421,59.4020,0.000019
22.438,59.3767,0.000019
22.454,59.3518,0.000019
22.470,59.3277,0.000019
22.494,59.2898,0.000019
22.510,59.2657,0.000038
22.540,59.2177,0.000038
22.572,59.1671,0.000038
22.603,59.1159,0.000038
22.634,59.0647,0.000038
22.650,59.0357,0.000038
22.681,58.9848,0.000038
22.711,58.9333,0.000038
22.726,58.9070,0.000038
22.742,58.8801,0.000019
22.757,58.8525,0.000019
22.773,58.8238,0.000019
22.789,58.7967,0.000019
22.805,58.7669,0.000019
22.834,58.7151,0.000019
22.850,58.6864,0.000019
22.866,58.6571,0.000019
22.882,58.6277,0.000019
22.898,58.5972,0.000019
22.914,58.5671,0.000019
22.930,58.5373,0.000019
22.946,58.5074,0.000019
22.962,58.4751,0.000019
22.978,58.4454,0.000019
22.994,58.4154,0.000132
23.010,58.3842,0.000132
23.026,58.3517,0.000132
23.042,58.3197,0.000132
23.058,58.2880,0.000132
23.074,58.2579,0.000132
23.090,58.2245,0.000132
23.106,58.1935,0.000132
23.122,58.1612,0.000132
23.138,58.1276,0.000132
23.154,58.0942,0.000132
23.170,58.0626,0.000132
23.186,58.0293,0.000132
23.203,57.9930,0.000132
23.218,57.9612,0.000132
23.234,57.9280,0.000292
23.250,57.8930,0.000292
23.267,57.8576,0.000292
23.282,57.8261,0.000292
23.298,57.7918,0.000292
23.314,57.7583,0.000292
23.330,57.7248,0.000292
23.346,57.6904,0.000292
23.362,57.6563,0.000292
23.394,57.5915,0.000292
23.425,57.5303,0.000292
23.441,57.4980,0.000292
23.461,57.4573,0.000292
23.477,57.4264,0.000292
23.502,57.3762,0.000235
23.521,57.3389,0.000235
23.537,57.3095,0.000235
23.553,57.2789,0.000235
23.572,57.2413,0.000235
23.595,57.1965,0.000235
23.616,57.1576,0.000235
23.634,57.1257,0.000235
23.649,57.0967,0.000235
23.665,57.0685,0.000235
23.681,57.0380,0.000235
23.705,56.9942,0.000235
23.734,56.9444,0.000226
23.749,56.9168,0.000226
23.780,56.8605,0.000226
23.797,56.8339,0.000226
23.826,56.7824,0.000226
23.842,56.7561,0.000226
23.857,56.7299,0.000226
23.875,56.6992,0.000226
23.904,56.6517,0.000226
23.935,56.6003,0.000226
23.951,56.5752,0.000226
23.966,56.5497,0.000405
23.982,56.5244,0.000405
23.999,56.4974,0.000405
24.014,56.4741,0.000405
24.030,56.4484,0.000405
24.046,56.4243,0.000405
24.065,56.3958,0.000405
24.089,56.3577,0.000405
24.110,56.3269,0.000405
24.127,56.3022,0.000405
24.143,56.2789,0.000405
24.159,56.2548,0.000405
24.175,56.2325,0.000405
24.190,56.2095,0.000405
24.206,56.1870,0.000405
24.222,56.1644,0.000518
24.238,56.1417,0.000518
24.255,56.1186,0.000518
24.270,56.0974,0.000518
24.286,56.0756,0.000518
24.302,56.0540,0.000518
24.319,56.0319,0.000518
24.335,56.0108,0.000518
24.350,55.9895,0.000518
24.366,55.9690,0.000518
24.382,55.9482,0.000518
24.399,55.9273,0.000518
24.414,55.9072,0.000518
24.430,55.8868,0.000518
24.447,55.8666,0.000518
24.462,55.8479,0.000518
24.490,55.8129,0.000612
24.507,55.7936,0.000612
24.523,55.7748,0.000612
24.539,55.7561,0.000612
24.555,55.7372,0.000612
24.570,55.7186,0.000612
24.586,55.7010,0.000612
24.603,55.6818,0.000612
24.619,55.6644,0.000612
24.635,55.6473,0.000612
24.651,55.6295,0.000612
24.666,55.6125,0.000612
24.682,55.5956,0.000612
24.701,55.5754,0.000612
24.723,55.5526,0.000612
24.738,55.5373,0.000772
24.769,55.5057,0.000772
24.785,55.4908,0.000772
24.816,55.4603,0.000772
24.831,55.4450,0.000772
24.847,55.4308,0.000772
24.878,55.4023,0.000772
24.908,55.3755,0.000772
24.938,55.3487,0.000772
24.954,55.3349,0.000772
24.970,55.3209,0.000847
24.987,55.3075,0.000847
25.003,55.2937,0.000847
25.018,55.2817,0.000847
25.042,55.2621,0.000847
25.063,55.2465,0.000847
25.079,55.2338,0.000847
25.094,55.2223,0.000847
25.125,55.1995,0.000847
25.141,55.1879,0.000847
25.156,55.1772,0.000847
25.187,55.1558,0.000847
25.203,55.1454,0.000847
25.219,55.1347,0.000847
25.235,55.1243,0.000847
25.250,55.1148,0.000904
25.265,55.1051,0.000904
25.281,55.0949,0.000904
25.297,55.0853,0.000904
25.313,55.0762,0.000904
25.329,55.0669,0.000904
25.346,55.0574,0.000904
25.373,55.0425,0.000904
25.393,55.0316,0.000904
25.410,55.0231,0.000904
25.426,55.0151,0.000904
25.441,55.0074,0.000904
25.457,54.9997,0.000904
25.473,54.9920,0.000904
25.489,54.9849,0.000904
25.505,54.9779,0.000875
25.522,54.9703,0.000875
25.540,54.9628,0.000875
25.558,54.9555,0.000875
25.573,54.9493,0.000875
25.589,54.9433,0.000875
25.612,54.9352,0.000875
25.628,54.9294,0.000875
25.644,54.9239,0.000875
25.660,54.9187,0.000875
25.677,54.9135,0.000875
25.698,54.9072,0.000875
25.713,54.9027,0.000875
25.744,54.8943,0.000875
25.760,54.8902,0.000838
25.792,54.8827,0.000838
25.822,54.8764,0.000838
25.853,54.8707,0.000838
25.868,54.8680,0.000838
25.884,54.8655,0.000838
25.900,54.8630,0.000838
25.916,54.8610,0.000838
25.932,54.8590,0.000838
25.948,54.8573,0.000838
25.964,54.8557,0.000838
25.980,54.8543,0.000838
25.996,54.8532,0.000828
26.012,54.8522,0.000828
26.029,54.8513,0.000828
26.044,54.8507,0.000828
26.060,54.8504,0.000828
26.076,54.8501,0.000828
26.092,54.8501,0.000828
26.109,54.8501,0.000828
26.131,54.8501,0.000828
26.152,54.8501,0.000828
26.168,54.8501,0.000828
26.184,54.8501,0.000828
26.200,54.8501,0.000828
26.216,54.8501,0.000828
26.232,54.8501,0.000857
26.248,54.8501,0.000857
26.264,54.8502,0.000857
26.280,54.8505,0.000857
26.296,54.8509,0.000857
26.312,54.8515,0.000857
26.328,54.8523,0.000857
26.344,54.8533,0.000857
26.360,54.8547,0.000857
26.376,54.8559,0.000857
26.393,54.8577,0.000857
26.423,54.8613,0.000857
26.440,54.8636,0.000857
26.458,54.8662,0.000857
26.485,54.8709,0.000960
26.504,54.8743,0.000960
26.520,54.8776,0.000960
26.536,54.8807,0.000960
26.552,54.8843,0.000960
26.568,54.8882,0.000960
26.584,54.8922,0.000960
26.600,54.8961,0.000960
26.616,54.9006,0.000960
26.632,54.9049,0.000960
26.648,54.9099,0.000960
26.664,54.9146,0.000960
26.680,54.9199,0.000960
26.705,54.9281,0.000960
26.721,54.9338,0.000960
26.738,54.9398,0.000932
26.753,54.9454,0.000932
26.770,54.9523,0.000932
26.794,54.9619,0.000932
26.825,54.9754,0.000932
26.841,54.9818,0.000932
26.857,54.9891,0.000932
26.887,55.0038,0.000932
26.903,55.0110,0.000932
26.934,55.0266,0.000932
26.964,55.0427,0.000932
26.994,55.0588,0.000857
27.011,55.0694,0.000857
27.041,55.0861,0.000857
27.056,55.0956,0.000857
27.073,55.1058,0.000857
27.088,55.1155,0.000857
27.104,55.1258,0.000857
27.120,55.1361,0.000857
27.137,55.1470,0.000857
27.152,55.1577,0.000857
27.169,55.1691,0.000857
27.186,55.1809,0.000857
27.201,55.1918,0.000857
27.216,55.2027,0.000857
27.233,55.2152,0.000857
27.257,55.2333,0.000866
27.273,55.2457,0.000866
27.290,55.2584,0.000866
27.305,55.2708,0.000866
27.323,55.2851,0.000866
27.341,55.2999,0.000866
27.366,55.3212,0.000866
27.385,55.3374,0.000866
27.401,55.3510,0.000866
27.417,55.3651,0.000866
27.433,55.3799,0.000866
27.449,55.3938,0.000866
27.465,55.4082,0.000875
27.481,55.4230,0.000875
27.498,55.4385,0.000875
27.514,55.4536,0.000875
27.530,55.4694,0.000875
27.546,55.4845,0.000875
27.562,55.5004,0.000875
27.578,55.5169,0.000875
27.593,55.5319,0.000875
27.609,55.5486,0.000875
27.626,55.5657,0.000875
27.641,55.5817,0.000875
27.657,55.5985,0.000875
27.674,55.6169,0.000875
27.689,55.6333,0.000875
27.706,55.6509,0.000875
27.721,55.6685,0.000838
27.738,55.6869,0.000838
27.754,55.7055,0.000838
27.769,55.7226,0.000838
27.792,55.7499,0.000838
27.813,55.7740,0.000838
27.844,55.8112,0.000838
27.875,55.8490,0.000838
27.905,55.8861,0.000838
27.936,55.9246,0.000838
27.951,55.9442,0.000838
27.967,55.9651,0.000781
27.984,55.9865,0.000781
27.999,56.0069,0.000781
28.016,56.0283,0.000781
28.031,56.0498,0.000781
28.047,56.0714,0.000781
28.063,56.0929,0.000781
28.079,56.1149,0.000781
28.095,56.1373,0.000781
28.116,56.1680,0.000781
28.138,56.1981,0.000781
28.160,56.2286,0.000781
28.175,56.2515,0.000781
28.192,56.2760,0.000781
28.207,56.2982,0.000781
28.223,56.3224,0.000706
28.239,56.3472,0.000706
28.256,56.3710,0.000706
28.271,56.3946,0.000706
28.287,56.4196,0.000706
28.318,56.4673,0.000706
28.340,56.5014,0.000706
28.356,56.5272,0.000706
28.387,56.5774,0.000706
28.417,56.6259,0.000706
28.447,56.6762,0.000706
28.477,56.7261,0.000706
28.509,56.7803,0.000621
28.540,56.8323,0.000621
28.556,56.8615,0.000621
28.572,56.8892,0.000621
28.588,56.9170,0.000621
28.607,56.9502,0.000621
28.633,56.9973,0.000621
28.652,57.0324,0.000621
28.669,57.0634,0.000621
28.684,57.0911,0.000621
28.700,57.1200,0.000621
28.716,57.1498,0.000621
28.734,57.1831,0.000621
28.758,57.2281,0.000621
28.789,57.2877,0.000471
28.819,57.3472,0.000471
28.835,57.3768,0.000471
28.856,57.4189,0.000471
28.871,57.4485,0.000471
28.887,57.4802,0.000471
28.903,57.5125,0.000471
28.919,57.5446,0.000471
28.935,57.5766,0.000471
28.951,57.6088,0.000471
28.967,57.6424,0.000471
28.983,57.6747,0.000471
28.999,57.7084,0.000311
29.015,57.7413,0.000311
29.032,57.7774,0.000311
29.047,57.8097,0.000311
29.063,57.8424,0.000311
29.079,57.8764,0.000311
29.095,57.9103,0.000311
29.111,57.9450,0.000311
29.127,57.9782,0.000311
29.143,58.0113,0.000311
29.159,58.0446,0.000311
29.176,58.0789,0.000311
29.191,58.1092,0.000311
29.207,58.1417,0.000311
29.223,58.1749,0.000311
29.239,58.2068,0.000311
29.255,58.2389,0.000301
29.271,58.2699,0.000301
29.287,58.3024,0.000301
29.303,58.3329,0.000301
29.319,58.3637,0.000301
29.335,58.3948,0.000301
29.354,58.4313,0.000301
29.373,58.4682,0.000301
29.388,58.4966,0.000301
29.412,58.5418,0.000301
29.428,58.5714,0.000301
29.444,58.6012,0.000301
29.460,58.6312,0.000301
29.476,58.6606,0.000301
29.492,58.6879,0.000292
29.508,58.7175,0.000292
29.524,58.7462,0.000292
29.540,58.7743,0.000292
29.556,58.8021,0.000292
29.572,58.8303,0.000292
29.588,58.8590,0.000292
29.604,58.8860,0.000292
29.620,58.9142,0.000292
29.636,58.9410,0.000292
29.654,58.9705,0.000292
29.683,59.0198,0.000292
29.700,59.0483,0.000292
29.716,59.0752,0.000292
29.732,59.1006,0.000292
29.748,59.1263,0.000160
29.764,59.1517,0.000160
29.780,59.1783,0.000160
29.796,59.2031,0.000160
29.812,59.2289,0.000160
29.828,59.2531,0.000160
29.844,59.2782,0.000160
29.861,59.3047,0.000160
29.876,59.3277,0.000160
29.892,59.3508,0.000160
29.908,59.3757,0.000160
29.924,59.3993,0.000160
29.940,59.4245,0.000160
29.962,59.4558,0.000160
29.979,59.4790,0.000160
29.995,59.5020,0.000019
30.011,59.5253,0.000019
30.028,59.5495,0.000019
30.055,59.5874,0.000019
30.075,59.6138,0.000019
30.092,59.6378,0.000019
30.118,59.6721,0.000019
30.139,59.7004,0.000019
30.155,59.7219,0.000019
30.171,59.7426,0.000019
30.187,59.7633,0.000019
30.202,59.7826,0.000019
30.219,59.8035,0.000019
30.236,59.8242,0.000019
30.258,59.8516,-0.000047
30.288,59.8896,-0.000047
30.319,59.9254,-0.000047
30.335,59.9445,-0.000047
30.356,59.9691,-0.000047
30.381,59.9976,-0.000047
30.412,60.0326,-0.000047
30.429,60.0514,-0.000047
30.460,60.0848,-0.000047
30.483,60.1107,-0.000085
30.500,60.1272,-0.000085
30.515,60.1433,-0.000085
30.532,60.1602,-0.000085
30.548,60.1764,-0.000085
30.563,60.1922,-0.000085
30.580,60.2090,-0.000085
30.596,60.2244,-0.000085
30.611,60.2392,-0.000085
30.627,60.2544,-0.000085
30.644,60.2706,-0.000085
30.660,60.2856,-0.000085
30.676,60.2999,-0.000085
30.691,60.3143,-0.000085
30.711,60.3308,-0.000085
30.737,60.3541,-0.000113
30.756,60.3701,-0.000113
30.772,60.3840,-0.000113
30.799,60.4066,-0.000113
30.819,60.4229,-0.000113
30.836,60.4360,-0.000113
30.852,60.4485,-0.000113
30.867,60.4604,-0.000113
30.883,60.4727,-0.000113
30.900,60.4854,-0.000113
30.915,60.4965,-0.000113
30.932,60.5084,-0.000113
30.947,60.5195,-0.000113
30.963,60.5308,-0.000113
30.979,60.5419,-0.000113
30.996,60.5528,-0.000113
31.017,60.5666,-0.000151
31.033,60.5771,-0.000151
31.049,60.5877,-0.000151
31.064,60.5971,-0.000151
31.082,60.6083,-0.000151
31.101,60.6192,-0.000151
31.124,60.6326,-0.000151
31.145,60.6444,-0.000151
31.161,60.6533,-0.000151
31.176,60.6616,-0.000151
31.192,60.6703,-0.000151
31.209,60.6787,-0.000151
31.224,60.6865,-0.000151
31.240,60.6942,-0.000207
31.257,60.7022,-0.000207
31.273,60.7097,-0.000207
31.288,60.7168,-0.000207
31.304,60.7237,-0.000207
31.320,60.7307,-0.000207
31.336,60.7374,-0.000207
31.352,60.7440,-0.000207
31.368,60.7503,-0.000207
31.385,60.7568,-0.000207
31.403,60.7633,-0.000207
31.419,60.7691,-0.000207
31.449,60.7792,-0.000207
31.464,60.7843,-0.000207
31.480,60.7891,-0.000292
31.496,60.7938,-0.000292
31.513,60.7986,-0.000292
31.543,60.8066,-0.000292
31.572,60.8140,-0.000292
31.588,60.8175,-0.000292
31.605,60.8210,-0.000292
31.620,60.8242,-0.000292
31.637,60.8278,-0.000292
31.667,60.8326,-0.000292
31.684,60.8354,-0.000292
31.706,60.8386,-0.000292
31.728,60.8412,-0.000292
31.748,60.8433,-0.000480
31.765,60.8449,-0.000480
31.780,60.8461,-0.000480
31.796,60.8473,-0.000480
31.812,60.8483,-0.000480
31.829,60.8490,-0.000480
31.844,60.8496,-0.000480
31.860,60.8500,-0.000480
31.876,60.8501,-0.000480
31.892,60.8501,-0.000480
31.908,60.8501,-0.000480
31.924,60.8501,-0.000480
31.940,60.8501,-0.000480
31.956,60.8501,-0.000480
31.972,60.8501,-0.000565
31.988,60.8501,-0.000565
32.004,60.8501,-0.000565
32.020,60.8501,-0.000565
32.036,60.8501,-0.000565
32.052,60.8501,-0.000565
32.070,60.8501,-0.000565
32.098,60.8501,-0.000565
32.132,60.8501,-0.000565
32.161,60.8501,-0.000565
32.178,60.8501,-0.000565
32.195,60.8501,-0.000565
32.210,60.8501,-0.000565
32.226,60.8501,-0.000489
32.242,60.8501,-0.000489
32.262,60.8501,-0.000489
32.285,60.8501,-0.000489
32.306,60.8501,-0.000489
32.323,60.8501,-0.000489
32.346,60.8501,-0.000489
32.377,60.8501,-0.000489
32.408,60.8501,-0.000489
32.439,60.8501,-0.000489
32.470,60.8501,-0.000424
32.485,60.8501,-0.000424
32.501,60.8501,-0.000424
32.517,60.8501,-0.000424
32.532,60.8501,-0.000424
32.563,60.8501,-0.000424
32.581,60.8501,-0.000424
32.609,60.8501,-0.000424
32.626,60.8501,-0.000424
32.642,60.8501,-0.000424
32.658,60.8501,-0.000424
32.684,60.8501,-0.000424
32.704,60.8501,-0.000424
32.720,60.8501,-0.000424
32.749,60.8501,-0.000386
32.765,60.8501,-0.000386
32.796,60.8501,-0.000386
32.813,60.8501,-0.000386
32.842,60.8501,-0.000386
32.859,60.8501,-0.000386
32.882,60.8501,-0.000386
32.904,60.8501,-0.000386
32.923,60.8501,-0.000386
32.939,60.8501,-0.000386
32.955,60.8501,-0.000386
32.971,60.8501,-0.000320
32.987,60.8501,-0.000320
33.003,60.8501,-0.000320
33.019,60.8501,-0.000320
33.035,60.8501,-0.000320
33.051,60.8501,-0.000320
33.067,60.8501,-0.000320
33.083,60.8501,-0.000320
33.098,60.8501,-0.000320
33.115,60.8501,-0.000320
33.131,60.8501,-0.000320
33.146,60.8501,-0.000320
33.163,60.8501,-0.000320
33.179,60.8501,-0.000320
33.195,60.8501,-0.000320
33.211,60.8501,-0.000320
33.227,60.8501,-0.000320
33.244,60.8501,-0.000282
33.259,60.8501,-0.000282
33.274,60.8501,-0.000282
33.291,60.8501,-0.000282
33.306,60.8501,-0.000282
33.323,60.8501,-0.000282
33.338,60.8501,-0.000282
33.354,60.8501,-0.000282
33.376,60.8501,-0.000282
33.398,60.8501,-0.000282
33.418,60.8501,-0.000282
33.434,60.8501,-0.000282
33.451,60.8501,-0.000282
33.475,60.8501,-0.000311
33.491,60.8501,-0.000311
33.522,60.8501,-0.000311
33.538,60.8501,-0.000311
33.553,60.8501,-0.000311
33.584,60.8501,-0.000311
33.601,60.8501,-0.000311
33.631,60.8501,-0.000311
33.647,60.8501,-0.000311
33.678,60.8501,-0.000311
33.709,60.8501,-0.000311
33.740,60.8501,-0.000311
33.756,60.8501,-0.000311
33.772,60.8501,-0.000311
33.787,60.8501,-0.000339
33.803,60.8501,-0.000339
33.819,60.8501,-0.000339
33.834,60.8501,-0.000339
33.851,60.8501,-0.000339
33.866,60.8501,-0.000339
33.882,60.8501,-0.000339
33.898,60.8501,-0.000339
33.915,60.8501,-0.000339
33.943,60.8501,-0.000339
33.963,60.8501,-0.000339
33.979,60.8501,-0.000339
33.995,60.8501,-0.000339
34.011,60.8501,-0.000339
34.027,60.8501,-0.000339
34.043,60.8501,-0.000339
34.058,60.8501,-0.000339
34.074,60.8501,-0.000339
34.090,60.8501,-0.000339
34.107,60.8501,-0.000339
34.122,60.8501,-0.000339
34.138,60.8501,-0.000339
34.155,60.8501,-0.000339
34.175,60.8501,-0.000339
34.190,60.8501,-0.000339
34.221,60.8501,-0.000339
34.253,60.8501,-0.000311
34.283,60.8501,-0.000311
34.299,60.8501,-0.000311
34.330,60.8501,-0.000311
34.347,60.8501,-0.000311
34.362,60.8501,-0.000311
34.378,60.8501,-0.000311
34.394,60.8501,-0.000311
34.411,60.8501,-0.000311
34.428,60.8501,-0.000311
34.447,60.8501,-0.000311
34.469,60.8501,-0.000311
34.485,60.8501,-0.000358
34.516,60.8501,-0.000358
34.531,60.8501,-0.000358
34.547,60.8501,-0.000358
34.563,60.8501,-0.000358
34.593,60.8501,-0.000358
34.625,60.8501,-0.000358
34.656,60.8501,-0.000358
34.672,60.8501,-0.000358
34.703,60.8501,-0.000358
34.734,60.8501,-0.000377
34.750,60.8501,-0.000377
34.780,60.8501,-0.000377
34.796,60.8501,-0.000377
34.812,60.8501,-0.000377
34.842,60.8501,-0.000377
34.859,60.8501,-0.000377
34.874,60.8501,-0.000377
34.890,60.8501,-0.000377
34.906,60.8501,-0.000377
34.928,60.8501,-0.000377
34.950,60.8501,-0.000377
34.970,60.8501,-0.000301
34.987,60.8501,-0.000301
35.012,60.8501,-0.000301
35.042,60.8501,-0.000301
35.073,60.8501,-0.000301
35.089,60.8501,-0.000301
35.120,60.8501,-0.000301
35.135,60.8501,-0.000301
35.166,60.8501,-0.000301
35.197,60.8501,-0.000301
35.213,60.8501,-0.000301
35.245,60.8501,-0.000301
35.274,60.8501,-0.000311
35.292,60.8501,-0.000311
35.321,60.8501,-0.000311
35.338,60.8501,-0.000311
35.354,60.8501,-0.000311
35.378,60.8501,-0.000311
35.398,60.8501,-0.000311
35.429,60.8501,-0.000311
35.444,60.8501,-0.000311
35.460,60.8501,-0.000311
35.476,60.8501,-0.000311
35.492,60.8501,-0.000311
35.522,60.8501,-0.000339
35.538,60.8501,-0.000339
35.569,60.8501,-0.000339
35.585,60.8501,-0.000339
35.602,60.8501,-0.000339
35.631,60.8501,-0.000339
35.649,60.8501,-0.000339
35.666,60.8501,-0.000339
35.694,60.8501,-0.000339
35.713,60.8501,-0.000339
35.729,60.8501,-0.000339
35.745,60.8501,-0.000339
35.761,60.8501,-0.000395
35.777,60.8501,-0.000395
35.793,60.8501,-0.000395
35.809,60.8501,-0.000395
35.825,60.8501,-0.000395
35.841,60.8501,-0.000395
35.857,60.8501,-0.000395
35.873,60.8501,-0.000395
35.889,60.8501,-0.000395
35.912,60.8501,-0.000395
35.928,60.8501,-0.000395
35.944,60.8501,-0.000395
35.960,60.8501,-0.000395
35.976,60.8501,-0.000395
35.992,60.8501,-0.000395
36.008,60.8501,-0.000461
36.024,60.8501,-0.000461
36.041,60.8501,-0.000461
36.065,60.8501,-0.000461
36.096,60.8501,-0.000461
36.113,60.8501,-0.000461
36.142,60.8501,-0.000461
36.172,60.8497,-0.000461
36.188,60.8494,-0.000461
36.203,60.8488,-0.000461
36.220,60.8479,-0.000461
36.250,60.8458,-0.000565
36.281,60.8429,-0.000565
36.312,60.8393,-0.000565
36.327,60.8372,-0.000565
36.344,60.8349,-0.000565
36.359,60.8324,-0.000565
36.376,60.8297,-0.000565
36.392,60.8267,-0.000565
36.408,60.8235,-0.000565
36.423,60.8203,-0.000565
36.440,60.8168,-0.000565
36.466,60.8106,-0.000565
36.481,60.8070,-0.000565
36.496,60.8029,0.000000
36.513,60.7984,0.000000
36.529,60.7938,0.000000
36.544,60.7891,0.000000
36.561,60.7840,0.000000
36.576,60.7790,0.000000
36.593,60.7735,0.000000
36.608,60.7681,0.000000
36.625,60.7622,0.000000
36.640,60.7565,0.000000
36.657,60.7499,0.000000
36.672,60.7440,0.000000
36.688,60.7376,0.000000
36.705,60.7307,0.000000
36.720,60.7237,0.000000
36.736,60.7169,0.002579
36.752,60.7096,0.002579
36.769,60.7019,0.002579
36.785,60.6942,0.002579
36.801,60.6867,0.002579
36.817,60.6783,0.002579
36.833,60.6702,0.002579
36.848,60.6618,0.002579
36.864,60.6533,0.002579
36.880,60.6445,0.002579
36.896,60.6353,0.002579
36.913,60.6259,0.002579
36.928,60.6163,0.002579
36.944,60.6072,0.002579
36.961,60.5965,0.002579
36.991,60.5779,0.002579
37.021,60.5588,0.005667
37.037,60.5477,0.005667
37.053,60.5368,0.005667
37.068,60.5260,0.005667
37.085,60.5144,0.005667
37.100,60.5033,0.005667
37.116,60.4914,0.005667
37.132,60.4799,0.005667
37.150,60.4665,0.005667
37.166,60.4535,0.005667
37.184,60.4406,0.005667
37.207,60.4217,0.005667
37.222,60.4087,0.005667
37.244,60.3912,0.009479
37.260,60.3778,0.009479
37.277,60.3631,0.009479
37.293,60.3499,0.009479
37.308,60.3363,0.009479
37.324,60.3223,0.009479
37.341,60.3073,0.009479
37.357,60.2929,0.009479
37.372,60.2780,0.009479
37.389,60.2630,0.009479
37.404,60.2480,0.009479
37.420,60.2329,0.009479
37.437,60.2169,0.009479
37.452,60.2012,0.009479
37.469,60.1852,0.009479
37.484,60.1689,0.015842
37.500,60.1531,0.015842
37.516,60.1366,0.015842
37.532,60.1197,0.015842
37.548,60.1027,0.015842
37.578,60.0703,0.015842
37.609,60.0370,0.015842
37.625,60.0185,0.015842
37.642,59.9997,0.015842
37.658,59.9817,0.015842
37.673,59.9641,0.015842
37.689,59.9451,0.015842
37.706,59.9253,0.015842
37.722,59.9072,0.015842
37.737,59.8886,0.009696
37.753,59.8691,0.009696
37.770,59.8486,0.009696
37.785,59.8289,0.009696
37.802,59.8091,0.009696
37.817,59.7891,0.009696
37.834,59.7680,0.009696
37.849,59.7487,0.009696
37.865,59.7280,0.009696
37.881,59.7069,0.009696
37.898,59.6843,0.009696
37.913,59.6646,0.009696
37.929,59.6429,0.009696
37.945,59.6213,0.009696
37.961,59.5995,0.009696
37.977,59.5774,-0.000056
37.993,59.5549,-0.000056
38.009,59.5311,-0.000056
38.025,59.5095,-0.000056
38.041,59.4867,-0.000056
38.057,59.4630,-0.000056
38.075,59.4379,-0.000056
38.104,59.3949,-0.000056
38.134,59.3486,-0.000056
38.150,59.3248,-0.000056
38.166,59.3013,-0.000056
38.182,59.2769,-0.000056
38.198,59.2512,-0.000056
38.214,59.2265,-0.000056
38.230,59.2020,0.000009
38.246,59.1765,0.000009
38.262,59.1505,0.000009
38.278,59.1253,0.000009
38.294,59.0984,0.000009
38.310,59.0727,0.000009
38.330,59.0399,0.000009
38.351,59.0033,0.000009
38.382,58.9526,0.000009
38.398,58.9259,0.000009
38.413,58.8980,0.000009
38.429,58.8727,0.000009
38.460,58.8191,0.000009
38.490,58.7653,0.000047
38.521,58.7090,0.000047
38.537,58.6809,0.000047
38.552,58.6538,0.000047
38.584,58.5957,0.000047
38.613,58.5391,0.000047
38.631,58.5071,0.000047
38.661,58.4496,0.000047
38.691,58.3926,0.000047
38.707,58.3627,0.000047
38.723,58.3314,0.000151
38.739,58.2999,0.000151
38.756,58.2670,0.000151
38.771,58.2358,0.000151
38.787,58.2053,0.000151
38.803,58.1729,0.000151
38.822,58.1330,0.000151
38.846,58.0834,0.000151
38.867,58.0430,0.000151
38.884,58.0074,0.000151
38.907,57.9583,0.000151
38.937,57.8951,0.000151
38.953,57.8605,0.000151
38.984,57.7962,0.000292
39.020,57.7198,0.000292
39.046,57.6635,0.000292
39.077,57.5997,0.000292
39.107,57.5382,0.000292
39.124,57.5046,0.000292
39.154,57.4444,0.000292
39.171,57.4113,0.000292
39.187,57.3783,0.000292
39.203,57.3481,0.000292
39.219,57.3167,0.000292
39.246,57.2621,0.000282
39.277,57.2035,0.000282
39.294,57.1724,0.000282
39.310,57.1402,0.000282
39.325,57.1124,0.000282
39.341,57.0825,0.000282
39.358,57.0507,0.000282
39.379,57.0141,0.000282
39.400,56.9748,0.000282
39.430,56.9194,0.000282
39.461,56.8671,0.000282
39.476,56.8380,0.000320
39.508,56.7844,0.000320
39.537,56.7324,0.000320
39.554,56.7043,0.000320
39.584,56.6539,0.000320
39.600,56.6260,0.000320
39.630,56.5779,0.000320
39.646,56.5521,0.000320
39.662,56.5263,0.000320
39.677,56.4997,0.000320
39.693,56.4753,0.000320
39.709,56.4503,0.000320
39.725,56.4248,0.000442
39.742,56.3995,0.000442
39.757,56.3752,0.000442
39.773,56.3507,0.000442
39.789,56.3260,0.000442
39.806,56.3006,0.000442
39.822,56.2775,0.000442
39.838,56.2526,0.000442
39.854,56.2299,0.000442
39.870,56.2063,0.000442
39.885,56.1841,0.000442
39.901,56.1605,0.000442
39.918,56.1371,0.000442
39.933,56.1153,0.000442
39.949,56.0928,0.000442
39.966,56.0699,0.000442
39.981,56.0482,0.000442
39.998,56.0254,0.000527
40.013,56.0039,0.000527
40.033,55.9780,0.000527
40.062,55.9402,0.000527
40.078,55.9196,0.000527
40.094,55.8985,0.000527
40.110,55.8776,0.000527
40.125,55.8584,0.000527
40.142,55.8368,0.000527
40.171,55.8005,0.000527
40.189,55.7788,0.000527
40.205,55.7594,0.000527
40.221,55.7395,0.000527
40.238,55.7209,0.000527
40.254,55.7018,0.000631
40.269,55.6840,0.000631
40.285,55.6651,0.000631
40.303,55.6457,0.000631
40.318,55.6291,0.000631
40.341,55.6027,0.000631
40.357,55.5849,0.000631
40.373,55.5680,0.000631
40.389,55.5507,0.000631
40.407,55.5312,0.000631
40.433,55.5045,0.000631
40.453,55.4836,0.000631
40.470,55.4674,0.000631
40.485,55.4516,0.000631
40.502,55.4354,0.000744
40.517,55.4205,0.000744
40.533,55.4046,0.000744
40.549,55.3895,0.000744
40.565,55.3750,0.000744
40.581,55.3597,0.000744
40.598,55.3447,0.000744
40.613,55.3311,0.000744
40.629,55.3168,0.000744
40.645,55.3025,0.000744
40.661,55.2883,0.000744
40.677,55.2751,0.000744
40.693,55.2614,0.000744
40.709,55.2481,0.000744
40.725,55.2350,0.000744
40.741,55.2219,0.000819
40.757,55.2098,0.000819
40.774,55.1965,0.000819
40.789,55.1847,0.000819
40.805,55.1727,0.000819
40.821,55.1610,0.000819
40.837,55.1490,0.000819
40.853,55.1376,0.000819
40.870,55.1256,0.000819
40.894,55.1091,0.000819
40.910,55.0978,0.000819
40.927,55.0861,0.000819
40.957,55.0674,0.000819
40.974,55.0564,0.000819
40.990,55.0469,0.000866
41.006,55.0370,0.000866
41.022,55.0273,0.000866
41.038,55.0185,0.000866
41.054,55.0090,0.000866
41.070,55.0004,0.000866
41.090,54.9894,0.000866
41.114,54.9766,0.000866
41.134,54.9666,0.000866
41.150,54.9588,0.000866
41.166,54.9511,0.000866
41.182,54.9435,0.000866
41.198,54.9361,0.000866
41.215,54.9286,0.000866
41.230,54.9218,0.000866
41.246,54.9153,0.000904
41.261,54.9088,0.000904
41.278,54.9021,0.000904
41.294,54.8960,0.000904
41.311,54.8891,0.000904
41.329,54.8831,0.000904
41.345,54.8776,0.000904
41.375,54.8677,0.000904
41.393,54.8619,0.000904
41.421,54.8537,0.000904
41.454,54.8448,0.000904
41.470,54.8408,0.000904
41.486,54.8368,0.000885
41.502,54.8332,0.000885
41.519,54.8295,0.000885
41.545,54.8243,0.000885
41.566,54.8205,0.000885
41.583,54.8175,0.000885
41.606,54.8139,0.000885
41.637,54.8099,0.000885
41.652,54.8081,0.000885
41.668,54.8065,0.000885
41.699,54.8038,0.000885
41.729,54.8019,0.000951
41.745,54.8011,0.000951
41.762,54.8006,0.000951
41.793,54.8001,0.000951
41.823,54.8001,0.000951
41.838,54.8001,0.000951
41.854,54.8001,0.000951
41.870,54.8001,0.000951
41.886,54.8001,0.000951
41.902,54.8001,0.000951
41.918,54.8001,0.000951
41.934,54.8001,0.000951
41.951,54.8001,0.000951
41.978,54.8001,0.000951
41.997,54.8001,0.000998
42.014,54.8001,0.000998
42.030,54.8001,0.000998
42.046,54.8001,0.000998
42.063,54.8001,0.000998
42.078,54.8001,0.000998
42.094,54.8001,0.000998
42.110,54.8001,0.000998
42.126,54.8001,0.000998
42.142,54.8001,0.000998
42.158,54.8001,0.000998
42.174,54.8001,0.000998
42.195,54.8001,0.000998
42.212,54.8001,0.000998
42.242,54.8001,0.001007
42.273,54.8001,0.001007
42.304,54.8001,0.001007
42.319,54.8001,0.001007
42.335,54.8001,0.001007
42.351,54.8001,0.001007
42.366,54.8001,0.001007
42.382,54.8001,0.001007
42.397,54.8001,0.001007
42.413,54.8001,0.001007
42.429,54.8001,0.001007
42.446,54.8001,0.001007
42.475,54.8001,0.001017
42.493,54.8001,0.001017
42.510,54.8001,0.001017
42.525,54.8001,0.001017
42.541,54.8001,0.001017
42.558,54.8001,0.001017
42.574,54.8001,0.001017
42.590,54.8001,0.001017
42.606,54.8003,0.001017
42.621,54.8006,0.001017
42.637,54.8011,0.001017
42.653,54.8019,0.001017
42.670,54.8027,0.001017
42.686,54.8038,0.001017
42.701,54.8052,0.001017
42.718,54.8067,0.001017
42.734,54.8084,0.001017
42.750,54.8103,0.001007
42.765,54.8123,0.001007
42.782,54.8146,0.001007
42.797,54.8170,0.001007
42.814,54.8198,0.001007
42.830,54.8226,0.001007
42.845,54.8256,0.001007
42.862,54.8289,0.001007
42.877,54.8322,0.001007
42.893,54.8358,0.001007
42.910,54.8398,0.001007
42.925,54.8437,0.001007
42.941,54.8479,0.001007
42.957,54.8523,0.001007
42.974,54.8572,0.001007
43.001,54.8652,0.000941
43.021,54.8719,0.000941
43.038,54.8775,0.000941
43.054,54.8829,0.000941
43.070,54.8888,0.000941
43.093,54.8976,0.000941
43.110,54.9041,0.000941
43.125,54.9101,0.000941
43.141,54.9168,0.000941
43.158,54.9242,0.000941
43.174,54.9308,0.000941
43.190,54.9379,0.000941
43.205,54.9452,0.000941
43.221,54.9528,0.000941
43.238,54.9610,0.000941
43.254,54.9689,0.000894
43.269,54.9767,0.000894
43.285,54.9852,0.000894
43.301,54.9937,0.000894
43.317,55.0024,0.000894
43.333,55.0115,0.000894
43.350,55.0208,0.000894
43.365,55.0299,0.000894
43.381,55.0394,0.000894
43.397,55.0493,0.000894
43.413,55.0591,0.000894
43.430,55.0696,0.000894
43.445,55.0798,0.000894
43.463,55.0912,0.000894
43.493,55.1116,0.000904
43.509,55.1227,0.000904
43.525,55.1339,0.000904
43.541,55.1458,0.000904
43.557,55.1569,0.000904
43.574,55.1701,0.000904
43.589,55.1817,0.000904
43.605,55.1932,0.000904
43.622,55.2062,0.000904
43.647,55.2261,0.000904
43.663,55.2395,0.000904
43.679,55.2522,0.000904
43.695,55.2660,0.000904
43.711,55.2794,0.000904
43.727,55.2935,0.000904
43.743,55.3073,0.000913
43.759,55.3213,0.000913
43.775,55.3357,0.000913
43.791,55.3502,0.000913
43.808,55.3651,0.000913
43.823,55.3792,0.000913
43.839,55.3947,0.000913
43.856,55.4102,0.000913
43.871,55.4250,0.000913
43.888,55.4419,0.000913
43.903,55.4566,0.000913
43.919,55.4727,0.000913
43.935,55.4892,0.000913
43.951,55.5056,0.000913
43.968,55.5228,0.000913
43.984,55.5394,0.000857
43.999,55.5558,0.000857
44.018,55.5761,0.000857
44.045,55.6053,0.000857
44.063,55.6256,0.000857
44.080,55.6457,0.000857
44.095,55.6623,0.000857
44.111,55.6803,0.000857
44.127,55.6988,0.000857
44.143,55.7183,0.000857
44.159,55.7364,0.000857
44.175,55.7556,0.000857
44.199,55.7859,0.000857
44.215,55.8053,0.000857
44.231,55.8246,0.000791
44.247,55.8445,0.000791
44.263,55.8651,0.000791
44.280,55.8857,0.000791
44.295,55.9058,0.000791
44.311,55.9260,0.000791
44.329,55.9507,0.000791
44.354,55.9838,0.000791
44.375,56.0117,0.000791
44.391,56.0334,0.000791
44.408,56.0561,0.000791
44.432,56.0906,0.000791
44.464,56.1344,0.000791
44.480,56.1579,0.000791
44.510,56.2020,0.000753
44.542,56.2485,0.000753
44.572,56.2932,0.000753
44.604,56.3424,0.000753
44.635,56.3892,0.000753
44.667,56.4397,0.000753
44.697,56.4871,0.000753
44.713,56.5125,0.000753
44.728,56.5366,0.000753
44.759,56.5882,0.000640
44.790,56.6406,0.000640
44.806,56.6649,0.000640
44.829,56.7060,0.000640
44.855,56.7495,0.000640
44.883,56.7967,0.000640
44.902,56.8304,0.000640
44.918,56.8583,0.000640
44.934,56.8866,0.000640
44.950,56.9157,0.000640
44.967,56.9446,0.000640
44.991,56.9894,0.000489
45.007,57.0190,0.000489
45.038,57.0762,0.000489
45.054,57.1051,0.000489
45.084,57.1635,0.000489
45.100,57.1922,0.000489
45.116,57.2222,0.000489
45.152,57.2918,0.000489
45.178,57.3437,0.000489
45.194,57.3744,0.000489
45.209,57.4062,0.000489
45.225,57.4364,0.000348
45.241,57.4680,0.000348
45.272,57.5322,0.000348
45.288,57.5637,0.000348
45.317,57.6235,0.000348
45.333,57.6569,0.000348
45.348,57.6896,0.000348
45.365,57.7226,0.000348
45.381,57.7561,0.000348
45.396,57.7912,0.000348
45.413,57.8248,0.000348
45.429,57.8590,0.000348
45.446,57.8950,0.000348
45.475,57.9559,0.000217
45.493,57.9917,0.000217
45.512,58.0312,0.000217
45.536,58.0809,0.000217
45.556,58.1215,0.000217
45.575,58.1614,0.000217
45.591,58.1913,0.000217
45.614,58.2368,0.000217
45.629,58.2673,0.000217
45.660,58.3261,0.000217
45.691,58.3859,0.000217
45.706,58.4167,0.000217
45.738,58.4742,0.000235
45.754,58.5048,0.000235
45.785,58.5632,0.000235
45.801,58.5914,0.000235
45.817,58.6200,0.000235
45.840,58.6628,0.000235
45.857,58.6922,0.000235
45.872,58.7198,0.000235
45.889,58.7490,0.000235
45.904,58.7761,0.000235
45.920,58.8040,0.000235
45.936,58.8319,0.000235
45.953,58.8599,0.000235
45.968,58.8866,0.000254
45.984,58.9137,0.000254
46.000,58.9411,0.000254
46.016,58.9674,0.000254
46.033,58.9951,0.000254
46.048,59.0201,0.000254
46.068,59.0529,0.000254
46.086,59.0818,0.000254
46.110,59.1218,0.000254
46.129,59.1500,0.000254
46.145,59.1751,0.000254
46.161,59.2012,0.000254
46.176,59.2244,0.000254
46.192,59.2490,0.000254
46.208,59.2733,0.000254
46.224,59.2976,0.000141
46.240,59.3214,0.000141
46.257,59.3463,0.000141
46.273,59.3696,0.000141
46.288,59.3923,0.000141
46.304,59.4157,0.000141
46.320,59.4390,0.000141
46.336,59.4617,0.000141
46.352,59.4840,0.000141
46.376,59.5177,0.000141
46.403,59.5553,0.000141
46.422,59.5817,0.000141
46.438,59.6038,0.000141
46.454,59.6240,0.000141
46.471,59.6461,0.000038
46.486,59.6666,0.000038
46.502,59.6879,0.000038
46.518,59.7080,0.000038
46.534,59.7284,0.000038
46.550,59.7488,0.000038
46.566,59.7694,0.000038
46.582,59.7888,0.000038
46.598,59.8088,0.000038
46.614,59.8284,0.000038
46.631,59.8478,0.000038
46.646,59.8662,0.000038
46.662,59.8852,0.000038
46.679,59.9053,0.000038
46.697,59.9261,0.000038
46.712,59.9433,0.000038
46.742,59.9770,-0.000066
46.758,59.9960,-0.000066
46.774,60.0122,-0.000066
46.790,60.0296,-0.000066
46.806,60.0474,-0.000066
46.822,60.0639,-0.000066
46.838,60.0815,-0.000066
46.854,60.0972,-0.000066
46.871,60.1150,-0.000066
46.895,60.1392,-0.000066
46.927,60.1700,-0.000066
46.958,60.2005,-0.000066
46.989,60.2300,-0.000141
47.020,60.2575,-0.000141
47.035,60.2725,-0.000141
47.066,60.2993,-0.000141
47.097,60.3260,-0.000141
47.129,60.3522,-0.000141
47.158,60.3763,-0.000141
47.179,60.3926,-0.000141
47.205,60.4131,-0.000141
47.223,60.4266,-0.000141
47.252,60.4482,-0.000113
47.270,60.4609,-0.000113
47.286,60.4721,-0.000113
47.302,60.4833,-0.000113
47.318,60.4942,-0.000113
47.338,60.5081,-0.000113
47.361,60.5231,-0.000113
47.382,60.5362,-0.000113
47.398,60.5464,-0.000113
47.414,60.5563,-0.000113
47.429,60.5656,-0.000113
47.453,60.5791,-0.000113
47.469,60.5883,-0.000113
47.485,60.5972,-0.000141
47.501,60.6060,-0.000141
47.518,60.6162,-0.000141
47.537,60.6251,-0.000141
47.562,60.6377,-0.000141
47.581,60.6472,-0.000141
47.597,60.6548,-0.000141
47.613,60.6618,-0.000141
47.629,60.6692,-0.000141
47.645,60.6762,-0.000141
47.661,60.6832,-0.000141
47.677,60.6898,-0.000141
47.693,60.6962,-0.000141
47.709,60.7025,-0.000141
47.725,60.7084,-0.000141
47.741,60.7142,-0.000282
47.757,60.7200,-0.000282
47.774,60.7257,-0.000282
47.792,60.7322,-0.000282
47.822,60.7412,-0.000282
47.839,60.7462,-0.000282
47.869,60.7542,-0.000282
47.886,60.7587,-0.000282
47.916,60.7658,-0.000282
47.933,60.7695,-0.000282
47.950,60.7731,-0.000282
47.965,60.7761,-0.000282
47.981,60.7789,-0.000282
48.009,60.7838,-0.000452
48.039,60.7881,-0.000452
48.056,60.7902,-0.000452
48.071,60.7921,-0.000452
48.088,60.7938,-0.000452
48.103,60.7952,-0.000452
48.120,60.7964,-0.000452
48.136,60.7975,-0.000452
48.152,60.7984,-0.000452
48.168,60.7991,-0.000452
48.194,60.7998,-0.000452
48.215,60.8000,-0.000452
48.232,60.8000,-0.000602
48.248,60.8000,-0.000602
48.263,60.8000,-0.000602
48.279,60.8000,-0.000602
48.295,60.8000,-0.000602
48.311,60.8000,-0.000602
48.328,60.8000,-0.000602
48.343,60.8000,-0.000602
48.359,60.8000,-0.000602
48.375,60.8000,-0.000602
48.392,60.8000,-0.000602
48.408,60.8000,-0.000602
48.423,60.8000,-0.000602
48.439,60.8000,-0.000602
48.456,60.8000,-0.000602
48.472,60.8000,-0.000527
48.488,60.8000,-0.000527
48.505,60.8000,-0.000527
48.521,60.8000,-0.000527
48.536,60.8000,-0.000527
48.568,60.8000,-0.000527
48.599,60.8000,-0.000527
48.615,60.8000,-0.000527
48.632,60.8000,-0.000527
48.647,60.8000,-0.000527
48.662,60.8000,-0.000527
48.679,60.8000,-0.000527
48.695,60.8000,-0.000527
48.711,60.8000,-0.000527
48.726,60.8000,-0.000358
48.742,60.8000,-0.000358
48.762,60.8000,-0.000358
48.785,60.8000,-0.000358
48.806,60.8000,-0.000358
48.823,60.8000,-0.000358
48.838,60.8000,-0.000358
48.855,60.8000,-0.000358
48.871,60.8000,-0.000358
48.887,60.8000,-0.000358
48.903,60.8000,-0.000358
48.924,60.8000,-0.000358
48.955,60.8000,-0.000358
48.986,60.8000,-0.000292
49.002,60.8000,-0.000292
49.034,60.8000,-0.000292
49.050,60.8000,-0.000292
49.081,60.8000,-0.000292
49.097,60.8000,-0.000292
49.127,60.8000,-0.000292
49.142,60.8000,-0.000292
49.158,60.8000,-0.000292
49.174,60.8000,-0.000292
49.192,60.8000,-0.000292
49.207,60.8000,-0.000292
49.222,60.8000,-0.000292
49.238,60.8000,-0.000292
49.254,60.8000,-0.000292
49.271,60.8000,-0.000292
49.287,60.8000,-0.000292
49.302,60.8000,-0.000292
49.318,60.8000,-0.000292
49.334,60.8000,-0.000292
49.351,60.8000,-0.000292
49.366,60.8000,-0.000292
49.383,60.8000,-0.000292
49.398,60.8000,-0.000292
49.414,60.8000,-0.000292
49.430,60.8000,-0.000292
49.447,60.8000,-0.000292
49.463,60.8000,-0.000292
49.478,60.8000,-0.000320
49.494,60.8000,-0.000320
49.510,60.8000,-0.000320
49.526,60.8000,-0.000320
49.542,60.8000,-0.000320
49.559,60.8000,-0.000320
49.590,60.8000,-0.000320
49.606,60.8000,-0.000320
49.622,60.8000,-0.000320
49.638,60.8000,-0.000320
49.654,60.8000,-0.000320
49.683,60.8000,-0.000320
49.707,60.8000,-0.000320
49.728,60.8000,-0.000339
49.746,60.8000,-0.000339
49.762,60.8000,-0.000339
49.778,60.8000,-0.000339
49.794,60.8000,-0.000339
49.816,60.8000,-0.000339
49.838,60.8000,-0.000339
49.858,60.8000,-0.000339
49.874,60.8000,-0.000339
49.890,60.8000,-0.000339
49.906,60.8000,-0.000339
49.922,60.8000,-0.000339
49.938,60.8000,-0.000339
49.954,60.8000,-0.000339
49.970,60.8000,-0.000320
49.987,60.8000,-0.000320
50.002,60.8000,-0.000320
50.018,60.8000,-0.000320
50.034,60.8000,-0.000320
50.050,60.8000,-0.000320
50.066,60.8000,-0.000320
50.082,60.8000,-0.000320
50.098,60.8000,-0.000320
50.117,60.8000,-0.000320
50.146,60.8000,-0.000320
50.162,60.8000,-0.000320
50.178,60.8000,-0.000320
50.194,60.8000,-0.000320
50.210,60.8000,-0.000320
50.239,60.8000,-0.000329
50.255,60.8000,-0.000329
50.271,60.8000,-0.000329
50.287,60.8000,-0.000329
50.303,60.8000,-0.000329
50.319,60.8000,-0.000329
50.335,60.8000,-0.000329
50.351,60.8000,-0.000329
50.367,60.8000,-0.000329
50.383,60.8000,-0.000329
50.399,60.8000,-0.000329
50.415,60.8000,-0.000329
50.431,60.8000,-0.000329
50.447,60.8000,-0.000329
50.463,60.8000,-0.000329
50.479,60.8000,-0.000339
50.495,60.8000,-0.000339
50.511,60.8000,-0.000339
50.527,60.8000,-0.000339
50.543,60.8000,-0.000339
50.559,60.8000,-0.000339
50.575,60.8000,-0.000339
50.591,60.8000,-0.000339
50.607,60.8000,-0.000339
50.623,60.8000,-0.000339
50.639,60.8000,-0.000339
50.655,60.8000,-0.000339
50.671,60.8000,-0.000339
50.687,60.8000,-0.000339
50.703,60.8000,-0.000339
50.719,60.8000,-0.000339
50.735,60.8000,-0.000339
50.752,60.8000,-0.000339
50.783,60.8000,-0.000329
50.799,60.8000,-0.000329
50.815,60.8000,-0.000329
50.831,60.8000,-0.000329
50.853,60.8000,-0.000329
50.875,60.8000,-0.000329
50.895,60.8000,-0.000329
50.911,60.8000,-0.000329
50.926,60.8000,-0.000329
50.943,60.8000,-0.000329
50.959,60.8000,-0.000329
50.976,60.8000,-0.000329
50.991,60.8000,-0.000329
51.006,60.8000,-0.000377
51.022,60.8000,-0.000377
51.039,60.8000,-0.000377
51.054,60.8000,-0.000377
51.071,60.8000,-0.000377
51.087,60.8000,-0.000377
51.104,60.8000,-0.000377
51.122,60.8000,-0.000377
51.153,60.8000,-0.000377
51.169,60.8000,-0.000377
51.185,60.8000,-0.000377
51.201,60.8000,-0.000377
51.217,60.8000,-0.000377
51.238,60.8000,-0.000377
51.264,60.8000,-0.000377
51.280,60.8000,-0.000377
51.310,60.8000,-0.000377
51.340,60.8000,-0.000377
51.355,60.8000,-0.000377
51.372,60.8000,-0.000377
51.388,60.8000,-0.000377
51.403,60.8000,-0.000377
51.419,60.8000,-0.000377
51.435,60.8000,-0.000377
51.452,60.8000,-0.000377
51.475,60.8000,-0.000377
51.495,60.8000,-0.000377
51.515,60.8000,-0.000320
51.531,60.8000,-0.000320
51.548,60.8000,-0.000320
51.564,60.8000,-0.000320
51.586,60.8000,-0.000320
51.602,60.8000,-0.000320
51.632,60.8000,-0.000320
51.662,60.8000,-0.000320
51.694,60.8000,-0.000320
51.724,60.8000,-0.000320
51.739,60.8000,-0.000320
51.756,60.8000,-0.000311
51.772,60.8000,-0.000311
51.788,60.8000,-0.000311
51.804,60.8000,-0.000311
51.819,60.8000,-0.000311
51.835,60.8000,-0.000311
51.851,60.8000,-0.000311
51.876,60.8000,-0.000311
51.892,60.8000,-0.000311
51.907,60.8000,-0.000311
51.924,60.8000,-0.000311
51.940,60.8000,-0.000311
51.955,60.8000,-0.000311
51.972,60.8000,-0.000311
51.987,60.8000,-0.000311
52.003,60.8000,-0.000348
52.019,60.8000,-0.000348
52.039,60.8000,-0.000348
52.065,60.8000,-0.000348
52.083,60.8000,-0.000348
52.100,60.8000,-0.000348
52.116,60.8000,-0.000348
52.132,60.8000,-0.000348
52.147,60.8000,-0.000348
52.164,60.8000,-0.000348
52.180,60.8000,-0.000348
52.195,60.8000,-0.000348
52.211,60.8000,-0.000348
52.228,60.8000,-0.000348
52.244,60.8000,-0.000348
52.259,60.8000,-0.000348
52.275,60.8000,-0.000348
52.291,60.8000,-0.000348
52.307,60.8000,-0.000348
52.323,60.8000,-0.000348
52.339,60.8000,-0.000348
52.355,60.8000,-0.000348
52.371,60.8000,-0.000348
52.387,60.8000,-0.000348
52.405,60.8000,-0.000348
52.421,60.8000,-0.000348
52.436,60.8000,-0.000348
52.451,60.8000,-0.000348
52.467,60.8000,-0.000348
52.484,60.8000,-0.000348
52.499,60.8000,-0.000329
52.515,60.8000,-0.000329
52.532,60.8000,-0.000329
52.560,60.8000,-0.000329
52.579,60.8000,-0.000329
52.597,60.8000,-0.000329
52.622,60.8000,-0.000329
52.643,60.8000,-0.000329
52.662,60.8000,-0.000329
52.684,60.8000,-0.000329
52.699,60.8000,-0.000329
52.731,60.8000,-0.000329
52.762,60.8000,-0.000480
52.779,60.8000,-0.000480
52.808,60.8000,-0.000480
52.840,60.8000,-0.000480
52.855,60.8000,-0.000480
52.886,60.8000,-0.000480
52.916,60.8000,-0.000480
52.947,60.8000,-0.000480
52.964,60.8000,-0.000480
52.993,60.8000,-0.000555
53.011,60.8000,-0.000555
53.028,60.7999,-0.000555
53.056,60.7991,-0.000555
53.075,60.7984,-0.000555
53.091,60.7974,-0.000555
53.107,60.7964,-0.000555
53.123,60.7950,-0.000555
53.139,60.7936,-0.000555
53.155,60.7919,-0.000555
53.171,60.7901,-0.000555
53.187,60.7880,-0.000555
53.203,60.7857,-0.000555
53.219,60.7834,-0.000555
53.235,60.7807,-0.000555
53.251,60.7779,-0.000424
53.267,60.7750,-0.000424
53.283,60.7716,-0.000424
53.299,60.7683,-0.000424
53.315,60.7647,-0.000424
53.331,60.7608,-0.000424
53.347,60.7568,-0.000424
53.363,60.7525,-0.000424
53.379,60.7483,-0.000424
53.403,60.7412,-0.000424
53.425,60.7344,-0.000424
53.443,60.7289,-0.000424
53.459,60.7234,-0.000424
53.480,60.7160,0.001318
53.496,60.7101,0.001318
53.512,60.7041,0.001318
53.528,60.6981,0.001318
53.545,60.6915,0.001318
53.565,60.6832,0.001318
53.580,60.6764,0.001318
53.617,60.6600,0.001318
53.642,60.6482,0.001318
53.658,60.6408,0.001318
53.688,60.6258,0.001318
53.704,60.6173,0.001318
53.721,60.6080,0.001318
53.751,60.5919,0.004029
53.768,60.5822,0.004029
53.784,60.5727,0.004029
53.800,60.5631,0.004029
53.816,60.5537,0.004029
53.832,60.5438,0.004029
53.848,60.5335,0.004029
53.864,60.5237,0.004029
53.880,60.5130,0.004029
53.896,60.5022,0.004029
53.912,60.4912,0.004029
53.929,60.4798,0.004029
53.944,60.4690,0.004029
53.960,60.4581,0.004029
53.976,60.4456,0.004029
53.992,60.4346,0.004029
54.009,60.4221,0.004029
54.034,60.4026,0.007088
54.060,60.3819,0.007088
54.081,60.3654,0.007088
54.097,60.3517,0.007088
54.113,60.3389,0.007088
54.128,60.3257,0.007088
54.145,60.3117,0.007088
54.161,60.2975,0.007088
54.177,60.2843,0.007088
54.193,60.2701,0.007088
54.210,60.2543,0.007088
54.225,60.2404,0.007088
54.241,60.2262,0.012021
54.257,60.2111,0.012021
54.272,60.1960,0.012021
54.289,60.1799,0.012021
54.305,60.1648,0.012021
54.321,60.1484,0.012021
54.342,60.1272,0.012021
54.368,60.1013,0.012021
54.385,60.0839,0.012021
54.401,60.0667,0.012021
54.417,60.0502,0.012021
54.433,60.0330,0.012021
54.449,60.0154,0.012021
54.465,59.9973,0.012021
54.481,59.9806,0.012021
54.498,59.9617,0.007436
54.513,59.9431,0.007436
54.533,59.9208,0.007436
54.555,59.8950,0.007436
54.576,59.8703,0.007436
54.605,59.8361,0.007436
54.632,59.8024,0.007436
54.652,59.7790,0.007436
54.667,59.7590,0.007436
54.683,59.7392,0.007436
54.700,59.7182,0.007436
54.716,59.6979,0.007436
54.732,59.6767,0.007436
54.747,59.6565,0.007436
54.764,59.6342,-0.000104
54.779,59.6142,-0.000104
54.796,59.5914,-0.000104
54.811,59.5703,-0.000104
54.828,59.5482,-0.000104
54.844,59.5262,-0.000104
54.860,59.5035,-0.000104
54.875,59.4819,-0.000104
54.892,59.4587,-0.000104
54.908,59.4361,-0.000104
54.923,59.4131,-0.000104
54.940,59.3892,-0.000104
54.955,59.3654,-0.000104
54.975,59.3363,-0.000104
54.992,59.3116,-0.000104
55.018,59.2733,-0.000104
55.036,59.2459,-0.000038
55.052,59.2211,-0.000038
55.068,59.1963,-0.000038
55.083,59.1715,-0.000038
55.099,59.1465,-0.000038
55.115,59.1210,-0.000038
55.132,59.0948,-0.000038
55.157,59.0536,-0.000038
55.173,59.0264,-0.000038
55.189,59.0008,-0.000038
55.205,58.9745,-0.000038
55.222,58.9469,-0.000038
55.237,58.9213,-0.000038
55.253,58.8936,0.000047
55.269,58.8670,0.000047
55.285,58.8394,0.000047
55.301,58.8117,0.000047
55.317,58.7839,0.000047
55.334,58.7552,0.000047
55.349,58.7277,0.000047
55.366,58.6982,0.000047
55.381,58.6705,0.000047
55.400,58.6358,0.000047
55.423,58.5946,0.000047
55.453,58.5375,0.000047
55.469,58.5082,0.000047
55.500,58.4517,0.000141
55.516,58.4209,0.000141
55.531,58.3917,0.000141
55.547,58.3623,0.000141
55.578,58.3028,0.000141
55.608,58.2443,0.000141
55.624,58.2125,0.000141
55.654,58.1520,0.000141
55.670,58.1211,0.000141
55.700,58.0587,0.000141
55.716,58.0256,0.000141
55.732,57.9937,0.000273
55.748,57.9606,0.000273
55.764,57.9276,0.000273
55.780,57.8943,0.000273
55.796,57.8600,0.000273
55.812,57.8265,0.000273
55.829,57.7911,0.000273
55.844,57.7586,0.000273
55.861,57.7231,0.000273
55.876,57.6905,0.000273
55.892,57.6564,0.000273
55.908,57.6225,0.000273
55.924,57.5905,0.000273
55.940,57.5565,0.000273
55.956,57.5234,0.000273
55.972,57.4906,0.000292
55.988,57.4584,0.000292
56.004,57.4266,0.000292
56.020,57.3945,0.000292
56.036,57.3629,0.000292
56.052,57.3297,0.000292
56.068,57.2987,0.000292
56.084,57.2672,0.000292
56.100,57.2364,0.000292
56.116,57.2053,0.000292
56.133,57.1724,0.000292
56.163,57.1159,0.000292
56.180,57.0843,0.000292
56.196,57.0536,0.000292
56.212,57.0235,0.000292
56.228,56.9948,0.000292
56.256,56.9428,0.000198
56.273,56.9120,0.000198
56.303,56.8597,0.000198
56.320,56.8270,0.000198
56.336,56.7996,0.000198
56.352,56.7722,0.000198
56.368,56.7432,0.000198
56.390,56.7055,0.000198
56.413,56.6664,0.000198
56.432,56.6347,0.000198
56.449,56.6062,0.000198
56.475,56.5631,0.000273
56.496,56.5278,0.000273
56.512,56.5015,0.000273
56.528,56.4761,0.000273
56.544,56.4501,0.000273
56.560,56.4242,0.000273
56.576,56.3987,0.000273
56.592,56.3729,0.000273
56.608,56.3494,0.000273
56.624,56.3243,0.000273
56.641,56.2977,0.000273
56.660,56.2696,0.000273
56.675,56.2457,0.000273
56.691,56.2209,0.000273
56.722,56.1764,0.000442
56.738,56.1529,0.000442
56.769,56.1077,0.000442
56.799,56.0650,0.000442
56.817,56.0397,0.000442
56.847,55.9988,0.000442
56.864,55.9755,0.000442
56.880,55.9542,0.000442
56.896,55.9322,0.000442
56.912,55.9110,0.000442
56.928,55.8900,0.000442
56.944,55.8685,0.000442
56.960,55.8486,0.000442
56.976,55.8275,0.000659
56.992,55.8078,0.000659
57.008,55.7869,0.000659
57.024,55.7676,0.000659
57.040,55.7473,0.000659
57.056,55.7284,0.000659
57.073,55.7067,0.000659
57.094,55.6808,0.000659
57.110,55.6635,0.000659
57.141,55.6266,0.000659
57.171,55.5926,0.000659
57.202,55.5583,0.000659
57.231,55.5254,0.000744
57.249,55.5066,0.000744
57.278,55.4759,0.000744
57.296,55.4582,0.000744
57.311,55.4417,0.000744
57.334,55.4189,0.000744
57.355,55.3977,0.000744
57.372,55.3813,0.000744
57.402,55.3518,0.000744
57.418,55.3374,0.000744
57.449,55.3078,0.000744
57.480,55.2805,0.000687
57.509,55.2543,0.000687
57.526,55.2402,0.000687
57.541,55.2271,0.000687
57.557,55.2137,0.000687
57.572,55.2001,0.000687
57.589,55.1870,0.000687
57.605,55.1743,0.000687
57.620,55.1619,0.000687
57.637,55.1481,0.000687
57.653,55.1367,0.000687
57.668,55.1248,0.000687
57.684,55.1128,0.000687
57.704,55.0987,0.000687
57.729,55.0807,0.000772
57.748,55.0669,0.000772
57.765,55.0551,0.000772
57.781,55.0452,0.000772
57.797,55.0342,0.000772
57.813,55.0240,0.000772
57.829,55.0137,0.000772
57.844,55.0039,0.000772
57.860,54.9942,0.000772
57.883,54.9802,0.000772
57.900,54.9709,0.000772
57.915,54.9619,0.000772
57.931,54.9529,0.000772
57.952,54.9406,0.000772
57.976,54.9291,0.000772
57.995,54.9191,0.000970
58.012,54.9105,0.000970
58.027,54.9032,0.000970
58.043,54.8956,0.000970
58.059,54.8882,0.000970
58.076,54.8807,0.000970
58.092,54.8735,0.000970
58.107,54.8672,0.000970
58.123,54.8604,0.000970
58.140,54.8538,0.000970
58.155,54.8478,0.000970
58.171,54.8417,0.000970
58.188,54.8357,0.000970
58.204,54.8300,0.000970
58.220,54.8247,0.000932
58.235,54.8194,0.000932
58.251,54.8143,0.000932
58.267,54.8094,0.000932
58.284,54.8046,0.000932
58.299,54.8003,0.000932
58.315,54.7958,0.000932
58.332,54.7917,0.000932
58.348,54.7877,0.000932
58.363,54.7841,0.000932
58.380,54.7804,0.000932
58.395,54.7773,0.000932
58.422,54.7720,0.000932
58.438,54.7692,0.000932
58.455,54.7665,0.000932
58.470,54.7642,0.000828
58.487,54.7619,0.000828
58.502,54.7598,0.000828
58.518,54.7580,0.000828
58.535,54.7562,0.000828
58.550,54.7549,0.000828
58.566,54.7536,0.000828
58.582,54.7525,0.000828
58.598,54.7516,0.000828
58.614,54.7509,0.000828
58.630,54.7504,0.000828
58.646,54.7501,0.000828
58.662,54.7500,0.000828
58.678,54.7500,0.000828
58.694,54.7500,0.000828
58.711,54.7500,0.000828
58.726,54.7500,0.000866
58.742,54.7500,0.000866
58.758,54.7500,0.000866
58.774,54.7500,0.000866
58.791,54.7501,0.000866
58.806,54.7504,0.000866
58.822,54.7508,0.000866
58.838,54.7514,0.000866
58.854,54.7523,0.000866
58.870,54.7532,0.000866
58.886,54.7545,0.000866
58.902,54.7559,0.000866
58.920,54.7577,0.000866
58.946,54.7608,0.000866
58.966,54.7634,0.000866
58.983,54.7660,0.000866
58.998,54.7685,0.000866
59.014,54.7712,0.000960
59.030,54.7742,0.000960
59.047,54.7776,0.000960
59.069,54.7823,0.000960
59.100,54.7895,0.000960
59.131,54.7975,0.000960
59.146,54.8015,0.000960
59.177,54.8105,0.000960
59.207,54.8200,0.000960
59.223,54.8253,0.000960
59.253,54.8357,0.000988
59.270,54.8418,0.000988
59.288,54.8486,0.000988
59.316,54.8597,0.000988
59.334,54.8673,0.000988
59.350,54.8742,0.000988
59.366,54.8810,0.000988
59.382,54.8883,0.000988
59.398,54.8956,0.000988
59.414,54.9033,0.000988
59.430,54.9110,0.000988
59.446,54.9193,0.000988
59.462,54.9276,0.000988
59.478,54.9356,0.000988
59.494,54.9442,0.000922
59.510,54.9533,0.000922
59.526,54.9620,0.000922
59.542,54.9715,0.000922
59.558,54.9805,0.000922
59.574,54.9901,0.000922
59.590,54.9999,0.000922
59.607,55.0102,0.000922
59.622,55.0199,0.000922
59.638,55.0301,0.000922
59.655,55.0415,0.000922
59.674,55.0541,0.000922
59.704,55.0748,0.000922
59.734,55.0962,0.000922
59.750,55.1081,0.000941
59.766,55.1197,0.000941
59.782,55.1318,0.000941
59.798,55.1440,0.000941
59.814,55.1564,0.000941
59.830,55.1691,0.000941
59.853,55.1878,0.000941
59.874,55.2054,0.000941
59.895,55.2224,0.000941
59.911,55.2367,0.000941
59.927,55.2497,0.000941
59.951,55.2708,0.000941
59.981,55.2986,0.000941
59.997,55.3125,0.000941
60.028,55.3422,0.000885
60.058,55.3709,0.000885
60.074,55.3864,0.000885
60.105,55.4170,0.000885
60.136,55.4484,0.000885
60.166,55.4801,0.000885
60.181,55.4963,0.000885
60.197,55.5134,0.000885
60.214,55.5314,0.000885
60.229,55.5480,0.000847
60.246,55.5662,0.000847
60.262,55.5845,0.000847
60.277,55.6017,0.000847
60.293,55.6200,0.000847
60.310,55.6393,0.000847
60.329,55.6621,0.000847
60.351,55.6874,0.000847
60.382,55.7247,0.000847
60.412,55.7613,0.000847
60.442,55.8000,0.000847
60.473,55.8387,0.000800
60.504,55.8789,0.000800
60.520,55.9002,0.000800
60.550,55.9395,0.000800
60.567,55.9633,0.000800
60.596,56.0022,0.000800
60.614,56.0262,0.000800
60.629,56.0484,0.000800
60.646,56.0715,0.000800
60.661,56.0936,0.000800
60.678,56.1181,0.000800
60.694,56.1404,0.000800
60.710,56.1626,0.000800
60.725,56.1862,0.000744
60.741,56.2097,0.000744
60.757,56.2340,0.000744
60.774,56.2580,0.000744
60.790,56.2828,0.000744
60.805,56.3063,0.000744
60.821,56.3312,0.000744
60.837,56.3556,0.000744
60.854,56.3814,0.000744
60.870,56.4067,0.000744
60.885,56.4315,0.000744
60.901,56.4575,0.000744
60.918,56.4837,0.000744
60.933,56.5092,0.000744
60.950,56.5370,0.000744
60.966,56.5620,0.000650
60.981,56.5890,0.000650
60.998,56.6158,0.000650
61.014,56.6426,0.000650
61.029,56.6694,0.000650
61.046,56.6987,0.000650
61.062,56.7256,0.000650
61.089,56.7736,0.000650
61.110,56.8101,0.000650
61.126,56.8375,0.000650
61.142,56.8655,0.000650
61.157,56.8936,0.000650
61.174,56.9243,0.000650
61.189,56.9513,0.000650
61.205,56.9805,0.000650
61.221,57.0100,0.000650
61.238,57.0406,0.000650
61.253,57.0699,0.000499
61.269,57.1000,0.000499
61.285,57.1303,0.000499
61.301,57.1605,0.000499
61.317,57.1915,0.000499
61.334,57.2240,0.000499
61.349,57.2531,0.000499
61.366,57.2867,0.000499
61.381,57.3158,0.000499
61.397,57.3481,0.000499
61.416,57.3847,0.000499
61.444,57.4412,0.000499
61.461,57.4759,0.000499
61.478,57.5105,0.000499
61.493,57.5423,0.000499
61.510,57.5761,0.000358
61.526,57.6098,0.000358
61.547,57.6549,0.000358
61.568,57.6984,0.000358
61.589,57.7421,0.000358
61.605,57.7774,0.000358
61.621,57.8096,0.000358
61.637,57.8454,0.000358
61.660,57.8915,0.000358
61.676,57.9258,0.000358
61.692,57.9579,0.000358
61.708,57.9903,0.000358
61.724,58.0254,0.000358
61.740,58.0571,0.000358
61.756,58.0877,0.000292
61.772,58.1196,0.000292
61.788,58.1522,0.000292
61.804,58.1834,0.000292
61.820,58.2155,0.000292
61.836,58.2467,0.000292
61.852,58.2777,0.000292
61.868,58.3088,0.000292
61.884,58.3383,0.000292
61.900,58.3695,0.000292
61.916,58.3997,0.000292
61.932,58.4299,0.000292
61.948,58.4588,0.000292
61.964,58.4890,0.000292
61.980,58.5196,0.000292
61.996,58.5474,0.000301
62.012,58.5770,0.000301
62.028,58.6063,0.000301
62.044,58.6346,0.000301
62.060,58.6628,0.000301
62.076,58.6912,0.000301
62.093,58.7213,0.000301
62.109,58.7494,0.000301
62.125,58.7771,0.000301
62.140,58.8025,0.000301
62.156,58.8304,0.000301
62.172,58.8579,0.000301
62.188,58.8838,0.000301
62.215,58.9290,0.000301
62.231,58.9558,0.000301
62.247,58.9828,0.000245
62.263,59.0081,0.000245
62.279,59.0353,0.000245
62.295,59.0593,0.000245
62.311,59.0849,0.000245
62.327,59.1102,0.000245
62.348,59.1450,0.000245
62.373,59.1825,0.000245
62.391,59.2109,0.000245
62.407,59.2337,0.000245
62.423,59.2582,0.000245
62.439,59.2826,0.000245
62.455,59.3057,0.000245
62.471,59.3300,0.000245
62.488,59.3543,0.000245
62.503,59.3756,0.000094
62.519,59.3987,0.000094
62.535,59.4226,0.000094
62.551,59.4444,0.000094
62.567,59.4671,0.000094
62.583,59.4900,0.000094
62.601,59.5145,0.000094
62.632,59.5559,0.000094
62.649,59.5805,0.000094
62.678,59.6178,0.000094
62.695,59.6390,0.000094
62.711,59.6607,0.000094
62.727,59.6803,0.000094
62.743,59.6999,0.000094
62.770,59.7349,0.000009
62.787,59.7554,0.000009
62.803,59.7743,0.000009
62.819,59.7942,0.000009
62.836,59.8145,0.000009
62.851,59.8325,0.000009
62.867,59.8507,0.000009
62.883,59.8690,0.000009
62.899,59.8877,0.000009
62.914,59.9056,0.000009
62.931,59.9243,0.000009
62.947,59.9414,0.000009
62.963,59.9598,0.000009
62.979,59.9777,0.000009
63.003,60.0033,-0.000056
63.033,60.0344,-0.000056
63.049,60.0510,-0.000056
63.080,60.0822,-0.000056
63.096,60.0985,-0.000056
63.126,60.1285,-0.000056
63.156,60.1569,-0.000056
63.187,60.1853,-0.000056
63.204,60.2010,-0.000056
63.219,60.2150,-0.000056
63.234,60.2288,-0.000075
63.250,60.2428,-0.000075
63.267,60.2572,-0.000075
63.282,60.2704,-0.000075
63.298,60.2838,-0.000075
63.326,60.3069,-0.000075
63.342,60.3202,-0.000075
63.358,60.3328,-0.000075
63.375,60.3457,-0.000075
63.391,60.3584,-0.000075
63.406,60.3701,-0.000075
63.423,60.3824,-0.000075
63.438,60.3940,-0.000075
63.455,60.4064,-0.000075
63.471,60.4179,-0.000075
63.487,60.4289,-0.000094
63.502,60.4395,-0.000094
63.518,60.4505,-0.000094
63.534,60.4609,-0.000094
63.550,60.4713,-0.000094
63.567,60.4820,-0.000094
63.582,60.4922,-0.000094
63.598,60.5017,-0.000094
63.614,60.5114,-0.000094
63.630,60.5210,-0.000094
63.648,60.5311,-0.000094
63.663,60.5399,-0.000094
63.678,60.5484,-0.000094
63.694,60.5572,-0.000094
63.710,60.5656,-0.000094
63.727,60.5743,-0.000188
63.742,60.5821,-0.000188
63.758,60.5905,-0.000188
63.775,60.5981,-0.000188
63.790,60.6055,-0.000188
63.806,60.6129,-0.000188
63.830,60.6241,-0.000188
63.855,60.6342,-0.000188
63.883,60.6455,-0.000188
63.902,60.6529,-0.000188
63.918,60.6589,-0.000188
63.934,60.6648,-0.000188
63.949,60.6703,-0.000188
63.967,60.6762,-0.000188
63.983,60.6816,-0.000188
64.006,60.6889,-0.000245
64.038,60.6983,-0.000245
64.053,60.7024,-0.000245
64.085,60.7105,-0.000245
64.115,60.7175,-0.000245
64.146,60.7240,-0.000245
64.168,60.7282,-0.000245
64.190,60.7320,-0.000245
64.206,60.7345,-0.000245
64.222,60.7369,-0.000245
64.237,60.7390,-0.000452
64.254,60.7411,-0.000452
64.270,60.7428,-0.000452
64.286,60.7443,-0.000452
64.301,60.7457,-0.000452
64.317,60.7469,-0.000452
64.335,60.7480,-0.000452
64.363,60.7493,-0.000452
64.392,60.7499,-0.000452
64.408,60.7500,-0.000452
64.424,60.7500,-0.000452
64.440,60.7500,-0.000452
64.456,60.7500,-0.000452
64.473,60.7500,-0.000452
64.488,60.7500,-0.000659
64.504,60.7500,-0.000659
64.523,60.7500,-0.000659
64.550,60.7500,-0.000659
64.568,60.7500,-0.000659
64.585,60.7500,-0.000659
64.600,60.7500,-0.000659
64.616,60.7500,-0.000659
64.633,60.7500,-0.000659
64.649,60.7500,-0.000659
64.675,60.7500,-0.000659
64.696,60.7500,-0.000659
64.712,60.7500,-0.000659
64.728,60.7500,-0.000659
64.744,60.7500,-0.000471
64.760,60.7500,-0.000471
64.776,60.7500,-0.000471
64.792,60.7500,-0.000471
64.808,60.7500,-0.000471
64.824,60.7500,-0.000471
64.840,60.7500,-0.000471
64.856,60.7500,-0.000471
64.872,60.7500,-0.000471
64.888,60.7500,-0.000471
64.914,60.7500,-0.000471
64.929,60.7500,-0.000471
64.945,60.7500,-0.000471
64.961,60.7500,-0.000471
64.977,60.7500,-0.000471
64.993,60.7500,-0.000282
65.009,60.7500,-0.000282
65.025,60.7500,-0.000282
65.041,60.7500,-0.000282
65.057,60.7500,-0.000282
65.073,60.7500,-0.000282
65.089,60.7500,-0.000282
65.105,60.7500,-0.000282
65.121,60.7500,-0.000282
65.137,60.7500,-0.000282
65.153,60.7500,-0.000282
65.170,60.7500,-0.000282
65.185,60.7500,-0.000282
65.201,60.7500,-0.000282
65.217,60.7500,-0.000282
65.233,60.7500,-0.000320
65.249,60.7500,-0.000320
65.265,60.7500,-0.000320
65.281,60.7500,-0.000320
65.297,60.7500,-0.000320
65.313,60.7500,-0.000320
65.329,60.7500,-0.000320
65.345,60.7500,-0.000320
65.361,60.7500,-0.000320
65.377,60.7500,-0.000320
65.393,60.7500,-0.000320
65.410,60.7500,-0.000320
65.425,60.7500,-0.000320
65.449,60.7500,-0.000320
65.478,60.7500,-0.000480
65.496,60.7500,-0.000480
65.512,60.7500,-0.000480
65.528,60.7500,-0.000480
65.544,60.7500,-0.000480
65.560,60.7500,-0.000480
65.576,60.7500,-0.000480
65.592,60.7500,-0.000480
65.607,60.7500,-0.000480
65.624,60.7500,-0.000480
65.642,60.7500,-0.000480
65.661,60.7500,-0.000480
65.677,60.7500,-0.000480
65.708,60.7500,-0.000480
65.739,60.7500,-0.000452
65.770,60.7500,-0.000452
65.800,60.7500,-0.000452
65.818,60.7500,-0.000452
65.847,60.7500,-0.000452
65.864,60.7500,-0.000452
65.880,60.7500,-0.000452
65.897,60.7500,-0.000452
65.912,60.7500,-0.000452
65.928,60.7500,-0.000452
65.944,60.7500,-0.000452
65.959,60.7500,-0.000452
65.976,60.7500,-0.000292
66.002,60.7500,-0.000292
66.018,60.7500,-0.000292
66.049,60.7500,-0.000292
66.066,60.7500,-0.000292
66.096,60.7500,-0.000292
66.112,60.7500,-0.000292
66.130,60.7500,-0.000292
66.157,60.7500,-0.000292
66.177,60.7500,-0.000292
66.197,60.7500,-0.000292
66.218,60.7500,-0.000292
66.234,60.7500,-0.000292
66.264,60.7500,-0.000273
66.280,60.7500,-0.000273
66.296,60.7500,-0.000273
66.326,60.7500,-0.000273
66.356,60.7500,-0.000273
66.372,60.7500,-0.000273
66.402,60.7500,-0.000273
66.432,60.7500,-0.000273
66.448,60.7500,-0.000273
66.464,60.7500,-0.000292
66.481,60.7500,-0.000292
66.500,60.7500,-0.000292
66.526,60.7500,-0.000292
66.545,60.7500,-0.000292
66.569,60.7500,-0.000292
66.584,60.7500,-0.000292
66.600,60.7500,-0.000292
66.616,60.7500,-0.000292
66.634,60.7500,-0.000292
66.665,60.7500,-0.000292
66.680,60.7500,-0.000292
66.696,60.7500,-0.000292
66.713,60.7500,-0.000292
66.728,60.7500,-0.000386
66.745,60.7500,-0.000386
66.760,60.7500,-0.000386
66.777,60.7500,-0.000386
66.792,60.7500,-0.000386
66.809,60.7500,-0.000386
66.825,60.7500,-0.000386
66.851,60.7500,-0.000386
66.882,60.7500,-0.000386
66.912,60.7500,-0.000386
66.943,60.7500,-0.000386
66.974,60.7500,-0.000386
67.005,60.7500,-0.000386
67.020,60.7500,-0.000386
67.051,60.7500,-0.000386
67.067,60.7500,-0.000386
67.098,60.7500,-0.000386
67.128,60.7500,-0.000386
67.146,60.7500,-0.000386
67.175,60.7500,-0.000386
67.193,60.7500,-0.000386
67.208,60.7500,-0.000386
67.224,60.7500,-0.000320
67.240,60.7500,-0.000320
67.257,60.7500,-0.000320
67.273,60.7500,-0.000320
67.289,60.7500,-0.000320
67.304,60.7500,-0.000320
67.321,60.7500,-0.000320
67.347,60.7500,-0.000320
67.368,60.7500,-0.000320
67.384,60.7500,-0.000320
67.400,60.7500,-0.000320
67.416,60.7500,-0.000320
67.432,60.7500,-0.000320
67.449,60.7500,-0.000320
67.465,60.7500,-0.000320
67.480,60.7500,-0.000320
67.497,60.7500,-0.000320
67.513,60.7500,-0.000320
67.529,60.7500,-0.000320
67.545,60.7500,-0.000320
67.560,60.7500,-0.000320
67.576,60.7500,-0.000320
67.593,60.7500,-0.000320
67.608,60.7500,-0.000320
67.625,60.7500,-0.000320
67.656,60.7500,-0.000320
67.672,60.7500,-0.000320
67.687,60.7500,-0.000320
67.703,60.7500,-0.000320
67.719,60.7500,-0.000320
67.735,60.7500,-0.000424
67.751,60.7500,-0.000424
67.768,60.7500,-0.000424
67.783,60.7500,-0.000424
67.800,60.7500,-0.000424
67.816,60.7500,-0.000424
67.831,60.7500,-0.000424
67.847,60.7500,-0.000424
67.863,60.7500,-0.000424
67.879,60.7500,-0.000424
67.895,60.7500,-0.000424
67.911,60.7500,-0.000424
67.927,60.7500,-0.000424
67.943,60.7500,-0.000424
67.959,60.7500,-0.000424
67.975,60.7500,-0.000405
67.991,60.7500,-0.000405
68.010,60.7500,-0.000405
68.040,60.7500,-0.000405
68.056,60.7500,-0.000405
68.073,60.7500,-0.000405
68.103,60.7500,-0.000405
68.119,60.7500,-0.000405
68.135,60.7500,-0.000405
68.151,60.7500,-0.000405
68.167,60.7500,-0.000405
68.196,60.7500,-0.000405
68.212,60.7500,-0.000405
68.228,60.7500,-0.000414
68.245,60.7500,-0.000414
68.260,60.7500,-0.000414
68.276,60.7500,-0.000414
68.292,60.7500,-0.000414
68.308,60.7500,-0.000414
68.325,60.7500,-0.000414
68.351,60.7500,-0.000414
68.372,60.7500,-0.000414
68.388,60.7500,-0.000414
68.404,60.7500,-0.000414
68.420,60.7500,-0.000414
68.436,60.7500,-0.000414
68.453,60.7500,-0.000414
68.474,60.7500,-0.000414
68.489,60.7500,-0.000584
68.505,60.7500,-0.000584
68.522,60.7500,-0.000584
68.552,60.7500,-0.000584
68.568,60.7500,-0.000584
68.598,60.7497,-0.000584
68.614,60.7492,-0.000584
68.645,60.7477,-0.000584
68.660,60.7467,-0.000584
68.676,60.7454,-0.000584
68.693,60.7440,-0.000584
68.708,60.7423,-0.000584
68.724,60.7406,-0.000584
68.753,60.7368,-0.000640
68.769,60.7343,-0.000640
68.785,60.7318,-0.000640
68.801,60.7289,-0.000640
68.817,60.7261,-0.000640
68.833,60.7229,-0.000640
68.849,60.7198,-0.000640
68.865,60.7162,-0.000640
68.881,60.7123,-0.000640
68.897,60.7086,-0.000640
68.913,60.7043,-0.000640
68.929,60.7002,-0.000640
68.945,60.6953,-0.000640
68.961,60.6909,-0.000640
68.977,60.6862,0.000612
68.993,60.6811,0.000612
69.010,60.6751,0.000612
69.026,60.6697,0.000612
69.048,60.6620,0.000612
69.080,60.6498,0.000612
69.110,60.6379,0.000612
69.141,60.6246,0.000612
69.156,60.6181,0.000612
69.187,60.6038,0.000612
69.218,60.5887,0.003370
69.234,60.5810,0.003370
69.265,60.5649,0.003370
69.280,60.5567,0.003370
69.309,60.5410,0.003370
69.325,60.5320,0.003370
69.341,60.5226,0.003370
69.357,60.5131,0.003370
69.374,60.5027,0.003370
69.404,60.4842,0.003370
69.420,60.4735,0.003370
69.436,60.4629,0.003370
69.452,60.4524,0.003370
69.469,60.4412,0.006467
69.485,60.4297,0.006467
69.504,60.4155,0.006467
69.527,60.4003,0.006467
69.557,60.3777,0.006467
69.588,60.3540,0.006467
69.619,60.3297,0.006467
69.650,60.3045,0.006467
69.682,60.2784,0.006467
69.701,60.2614,0.006467
69.727,60.2397,0.011211
69.743,60.2245,0.011211
69.774,60.1969,0.011211
69.790,60.1830,0.011211
69.805,60.1684,0.011211
69.836,60.1386,0.011211
69.855,60.1212,0.011211
69.883,60.0930,0.011211
69.900,60.0766,0.011211
69.915,60.0607,0.011211
69.931,60.0441,0.011211
69.947,60.0276,0.011211
69.963,60.0100,0.011211
69.979,59.9937,0.016746
69.995,59.9764,0.016746
70.012,59.9586,0.016746
70.028,59.9409,0.016746
70.044,59.9225,0.016746
70.059,59.9054,0.016746
70.076,59.8868,0.016746
70.092,59.8688,0.016746
70.108,59.8494,0.016746
70.124,59.8316,0.016746
70.140,59.8114,0.016746
70.156,59.7934,0.016746
70.171,59.7746,0.016746
70.187,59.7546,0.016746
70.204,59.7343,0.016746
70.219,59.7154,0.009554
70.235,59.6946,0.009554
70.251,59.6747,0.009554
70.267,59.6544,0.009554
70.284,59.6332,0.009554
70.299,59.6129,0.009554
70.315,59.5918,0.009554
70.331,59.5696,0.009554
70.347,59.5491,0.009554
70.377,59.5083,0.009554
70.392,59.4870,0.009554
70.408,59.4648,0.009554
70.423,59.4439,0.009554
70.440,59.4210,0.009554
70.455,59.3980,0.009554
70.471,59.3761,-0.000009
70.487,59.3527,-0.000009
70.503,59.3296,-0.000009
70.519,59.3060,-0.000009
70.535,59.2817,-0.000009
70.552,59.2568,-0.000009
70.567,59.2332,-0.000009
70.584,59.2073,-0.000009
70.599,59.1853,-0.000009
70.617,59.1578,-0.000009
70.641,59.1187,-0.000009
70.663,59.0846,-0.000009
70.680,59.0575,-0.000009
70.696,59.0328,-0.000009
70.711,59.0082,-0.000009
70.728,58.9803,-0.000009
70.743,58.9560,-0.000009
70.760,58.9282,0.000075
70.775,58.9027,0.000075
70.791,58.8738,0.000075
70.807,58.8485,0.000075
70.823,58.8211,0.000075
70.839,58.7942,0.000075
70.856,58.7640,0.000075
70.872,58.7354,0.000075
70.889,58.7050,0.000075
70.917,58.6578,0.000075
70.933,58.6285,0.000075
70.949,58.6002,0.000075
70.965,58.5706,0.000075
70.982,58.5406,0.000075
70.997,58.5120,0.000075
71.013,58.4834,0.000122
71.029,58.4535,0.000122
71.045,58.4229,0.000122
71.061,58.3925,0.000122
71.077,58.3631,0.000122
71.093,58.3322,0.000122
71.109,58.2999,0.000122
71.125,58.2715,0.000122
71.141,58.2402,0.000122
71.157,58.2090,0.000122
71.176,58.1712,0.000122
71.199,58.1242,0.000122
71.221,58.0812,0.000226
71.237,58.0490,0.000226
71.253,58.0168,0.000226
71.269,57.9848,0.000226
71.285,57.9518,0.000226
71.301,57.9189,0.000226
71.317,57.8855,0.000226
71.333,57.8515,0.000226
71.349,57.8182,0.000226
71.365,57.7845,0.000226
71.381,57.7505,0.000226
71.396,57.7152,0.000226
71.416,57.6745,0.000226
71.444,57.6173,0.000226
71.476,57.5490,0.000226
71.492,57.5159,0.000226
71.508,57.4844,0.000329
71.524,57.4514,0.000329
71.541,57.4163,0.000329
71.568,57.3616,0.000329
71.588,57.3225,0.000329
71.604,57.2882,0.000329
71.619,57.2594,0.000329
71.636,57.2268,0.000329
71.652,57.1966,0.000329
71.668,57.1640,0.000329
71.684,57.1344,0.000329
71.700,57.1044,0.000329
71.716,57.0722,0.000329
71.732,57.0427,0.000329
71.748,57.0127,0.000292
71.764,56.9836,0.000292
71.780,56.9519,0.000292
71.803,56.9104,0.000292
71.833,56.8563,0.000292
71.863,56.8024,0.000292
71.894,56.7475,0.000292
71.924,56.6946,0.000292
71.940,56.6680,0.000292
71.956,56.6395,0.000292
71.971,56.6136,0.000292
72.000,56.5644,0.000367
72.016,56.5379,0.000367
72.032,56.5115,0.000367
72.049,56.4841,0.000367
72.064,56.4581,0.000367
72.080,56.4339,0.000367
72.095,56.4082,0.000367
72.111,56.3827,0.000367
72.128,56.3565,0.000367
72.144,56.3312,0.000367
72.159,56.3068,0.000367
72.176,56.2815,0.000367
72.192,56.2565,0.000367
72.207,56.2328,0.000367
72.224,56.2069,0.000537
72.240,56.1839,0.000537
72.257,56.1581,0.000537
72.279,56.1242,0.000537
72.310,56.0792,0.000537
72.330,56.0523,0.000537
72.357,56.0137,0.000537
72.387,55.9710,0.000537
72.403,55.9495,0.000537
72.434,55.9068,0.000537
72.465,55.8657,0.000537
72.481,55.8443,0.000612
72.497,55.8228,0.000612
72.528,55.7831,0.000612
72.558,55.7449,0.000612
72.575,55.7235,0.000612
72.590,55.7050,0.000612
72.606,55.6855,0.000612
72.623,55.6656,0.000612
72.638,55.6468,0.000612
72.655,55.6267,0.000612
72.670,55.6088,0.000612
72.687,55.5897,0.000612
72.703,55.5711,0.000612
72.718,55.5536,0.000753
72.735,55.5350,0.000753
72.750,55.5175,0.000753
72.767,55.4986,0.000753
72.782,55.4824,0.000753
72.798,55.4649,0.000753
72.815,55.4470,0.000753
72.830,55.4310,0.000753
72.846,55.4142,0.000753
72.863,55.3973,0.000753
72.878,55.3814,0.000753
72.895,55.3649,0.000753
72.910,55.3484,0.000753
72.928,55.3316,0.000753
72.943,55.3173,0.000753
72.958,55.3027,0.000753
72.974,55.2875,0.000819
72.990,55.2722,0.000819
73.006,55.2575,0.000819
73.022,55.2429,0.000819
73.039,55.2280,0.000819
73.054,55.2144,0.000819
73.071,55.1996,0.000819
73.095,55.1789,0.000819
73.111,55.1650,0.000819
73.127,55.1521,0.000819
73.143,55.1388,0.000819
73.160,55.1253,0.000819
73.175,55.1133,0.000819
73.191,55.1003,0.000819
73.207,55.0882,0.000819
73.224,55.0755,0.000819
73.239,55.0642,0.000819
73.256,55.0519,0.000800
73.272,55.0399,0.000800
73.288,55.0280,0.000800
73.305,55.0167,0.000800
73.326,55.0020,0.000800
73.342,54.9920,0.000800
73.373,54.9719,0.000800
73.388,54.9615,0.000800
73.404,54.9523,0.000800
73.420,54.9420,0.000800
73.452,54.9230,0.000800
73.483,54.9054,0.000800
73.513,54.8892,0.000904
73.530,54.8799,0.000904
73.559,54.8652,0.000904
73.575,54.8573,0.000904
73.593,54.8490,0.000904
73.619,54.8365,0.000904
73.639,54.8278,0.000904
73.655,54.8208,0.000904
73.671,54.8141,0.000904
73.687,54.8073,0.000904
73.703,54.8010,0.000904
73.719,54.7948,0.000904
73.735,54.7891,0.000922
73.751,54.7833,0.000922
73.767,54.7774,0.000922
73.783,54.7723,0.000922
73.799,54.7671,0.000922
73.816,54.7618,0.000922
73.831,54.7572,0.000922
73.847,54.7526,0.000922
73.863,54.7483,0.000922
73.879,54.7439,0.000922
73.895,54.7400,0.000922
73.912,54.7359,0.000922
73.929,54.7322,0.000922
73.944,54.7288,0.000922
73.975,54.7229,0.000885
73.991,54.7199,0.000885
74.007,54.7172,0.000885
74.024,54.7146,0.000885
74.052,54.7107,0.000885
74.071,54.7084,0.000885
74.087,54.7067,0.000885
74.103,54.7052,0.000885
74.119,54.7039,0.000885
74.135,54.7028,0.000885
74.151,54.7019,0.000885
74.168,54.7010,0.000885
74.193,54.7003,0.000885
74.222,54.7000,0.000875
74.240,54.7000,0.000875
74.258,54.7000,0.000875
74.285,54.7000,0.000875
74.304,54.7000,0.000875
74.320,54.7002,0.000875
74.336,54.7004,0.000875
74.352,54.7008,0.000875
74.368,54.7014,0.000875
74.384,54.7023,0.000875
74.400,54.7033,0.000875
74.416,54.7045,0.000875
74.432,54.7060,0.000875
74.448,54.7075,0.000875
74.464,54.7093,0.000875
74.480,54.7113,0.000941
74.496,54.7136,0.000941
74.512,54.7159,0.000941
74.528,54.7184,0.000941
74.544,54.7211,0.000941
74.560,54.7243,0.000941
74.576,54.7273,0.000941
74.591,54.7308,0.000941
74.608,54.7343,0.000941
74.624,54.7380,0.000941
74.640,54.7418,0.000941
74.659,54.7469,0.000941
74.684,54.7540,0.000941
74.703,54.7596,0.000941
74.720,54.7644,0.000941
74.736,54.7696,0.000941
74.752,54.7750,0.000951
74.768,54.7803,0.000951
74.785,54.7862,0.000951
74.801,54.7922,0.000951
74.816,54.7980,0.000951
74.832,54.8041,0.000951
74.848,54.8108,0.000951
74.864,54.8171,0.000951
74.880,54.8239,0.000951
74.896,54.8311,0.000951
74.913,54.8388,0.000951
74.928,54.8459,0.000951
74.944,54.8533,0.000951
74.960,54.8610,0.000951
74.976,54.8692,0.000951
74.992,54.8774,0.000875
75.007,54.8856,0.000875
75.024,54.8949,0.000875
75.056,54.9124,0.000875
75.072,54.9213,0.000875
75.089,54.9313,0.000875
75.119,54.9495,0.000875
75.136,54.9599,0.000875
75.151,54.9698,0.000875
75.167,54.9802,0.000875
75.183,54.9908,0.000875
75.199,55.0013,0.000875
75.215,55.0122,0.000875
75.231,55.0232,0.000875
75.248,55.0349,0.000875
75.263,55.0459,0.000922
75.280,55.0582,0.000922
75.295,55.0696,0.000922
75.311,55.0817,0.000922
75.328,55.0941,0.000922
75.343,55.1063,0.000922
75.360,55.1194,0.000922
75.375,55.1318,0.000922
75.391,55.1450,0.000922
75.409,55.1593,0.000922
75.428,55.1753,0.000922
75.443,55.1883,0.000922
75.460,55.2031,0.000922
75.490,55.2294,0.000960
75.520,55.2569,0.000960
75.536,55.2715,0.000960
75.552,55.2863,0.000960
75.568,55.3013,0.000960
75.584,55.3168,0.000960
75.600,55.3324,0.000960
75.616,55.3478,0.000960
75.631,55.3634,0.000960
75.649,55.3818,0.000960
75.674,55.4073,0.000960
75.695,55.4293,0.000960
75.712,55.4473,0.000960
75.728,55.4639,0.000960
75.744,55.4811,0.000960
75.767,55.5067,0.000894
75.784,55.5252,0.000894
75.799,55.5424,0.000894
75.816,55.5611,0.000894
75.832,55.5804,0.000894
75.859,55.6115,0.000894
75.879,55.6352,0.000894
75.896,55.6556,0.000894
75.912,55.6745,0.000894
75.927,55.6932,0.000894
75.943,55.7129,0.000894
75.959,55.7328,0.000894
75.975,55.7529,0.000894
75.991,55.7732,0.000791
76.007,55.7939,0.000791
76.024,55.8156,0.000791
76.039,55.8352,0.000791
76.055,55.8567,0.000791
76.071,55.8780,0.000791
76.087,55.8989,0.000791
76.103,55.9207,0.000791
76.119,55.9425,0.000791
76.135,55.9646,0.000791
76.151,55.9868,0.000791
76.167,56.0101,0.000791
76.184,56.0325,0.000791
76.201,56.0567,0.000791
76.230,56.0985,0.000715
76.247,56.1247,0.000715
76.264,56.1496,0.000715
76.279,56.1720,0.000715
76.295,56.1955,0.000715
76.321,56.2361,0.000715
76.337,56.2594,0.000715
76.353,56.2843,0.000715
76.369,56.3092,0.000715
76.386,56.3362,0.000715
76.401,56.3595,0.000715
76.417,56.3848,0.000715
76.434,56.4122,0.000715
76.451,56.4410,0.000715
76.469,56.4707,0.000715
76.494,56.5099,0.000612
76.513,56.5417,0.000612
76.529,56.5683,0.000612
76.545,56.5960,0.000612
76.561,56.6225,0.000612
76.577,56.6513,0.000612
76.593,56.6778,0.000612
76.609,56.7061,0.000612
76.625,56.7337,0.000612
76.641,56.7627,0.000612
76.657,56.7905,0.000612
76.673,56.8182,0.000612
76.689,56.8475,0.000612
76.708,56.8815,0.000612
76.726,56.9166,0.000612
76.743,56.9449,0.000433
76.774,57.0033,0.000433
76.805,57.0608,0.000433
76.835,57.1179,0.000433
76.865,57.1763,0.000433
76.881,57.2071,0.000433
76.897,57.2386,0.000433
76.913,57.2702,0.000433
76.929,57.3018,0.000433
76.946,57.3350,0.000433
76.962,57.3667,0.000433
76.987,57.4176,0.000301
77.020,57.4862,0.000301
77.041,57.5283,0.000301
77.057,57.5614,0.000301
77.073,57.5967,0.000301
77.089,57.6286,0.000301
77.105,57.6622,0.000301
77.121,57.6968,0.000301
77.137,57.7317,0.000301
77.153,57.7643,0.000301
77.169,57.7975,0.000301
77.185,57.8314,0.000301
77.201,57.8646,0.000301
77.217,57.8972,0.000235
77.233,57.9302,0.000235
77.250,57.9687,0.000235
77.280,58.0267,0.000235
77.297,58.0603,0.000235
77.313,58.0921,0.000235
77.329,58.1242,0.000235
77.345,58.1547,0.000235
77.361,58.1862,0.000235
77.380,58.2226,0.000235
77.404,58.2706,0.000235
77.424,58.3092,0.000235
77.441,58.3403,0.000235
77.457,58.3705,0.000235
77.473,58.3995,0.000273
77.489,58.4314,0.000273
77.505,58.4597,0.000273
77.521,58.4886,0.000273
77.537,58.5182,0.000273
77.553,58.5471,0.000273
77.569,58.5754,0.000273
77.585,58.6041,0.000273
77.601,58.6338,0.000273
77.616,58.6609,0.000273
77.633,58.6885,0.000273
77.649,58.7167,0.000273
77.665,58.7446,0.000273
77.681,58.7726,0.000273
77.698,58.8003,0.000273
77.713,58.8263,0.000273
77.729,58.8525,0.000311
77.747,58.8850,0.000311
77.772,58.9249,0.000311
77.793,58.9585,0.000311
77.809,58.9852,0.000311
77.825,59.0102,0.000311
77.841,59.0354,0.000311
77.857,59.0608,0.000311
77.873,59.0869,0.000311
77.889,59.1106,0.000311
77.905,59.1350,0.000311
77.920,59.1596,0.000311
77.937,59.1853,0.000311
77.959,59.2173,0.000311
77.975,59.2418,0.000311
77.991,59.2650,0.000094
78.007,59.2895,0.000094
78.022,59.3114,0.000094
78.038,59.3343,0.000094
78.054,59.3574,0.000094
78.071,59.3808,0.000094
78.086,59.4026,0.000094
78.103,59.4267,0.000094
78.119,59.4489,0.000094
78.134,59.4691,0.000094
78.150,59.4906,0.000094
78.167,59.5130,0.000094
78.183,59.5345,0.000094
78.199,59.5552,0.000094
78.214,59.5755,0.000094
78.230,59.5967,-0.000038
78.247,59.6174,-0.000038
78.262,59.6377,-0.000038
78.278,59.6576,-0.000038
78.294,59.6776,-0.000038
78.310,59.6974,-0.000038
78.327,59.7175,-0.000038
78.342,59.7366,-0.000038
78.358,59.7559,-0.000038
78.375,59.7752,-0.000038
78.391,59.7938,-0.000038
78.408,59.8145,-0.000038
78.438,59.8486,-0.000038
78.454,59.8669,-0.000038
78.471,59.8861,-0.000038
78.494,59.9119,-0.000038
78.516,59.9348,-0.000038
78.533,59.9532,-0.000122
78.563,59.9857,-0.000122
78.579,60.0007,-0.000122
78.595,60.0169,-0.000122
78.610,60.0338,-0.000122
78.642,60.0641,-0.000122
78.672,60.0937,-0.000122
78.703,60.1226,-0.000122
78.733,60.1512,-0.000217
78.750,60.1654,-0.000217
78.766,60.1799,-0.000217
78.782,60.1944,-0.000217
78.798,60.2085,-0.000217
78.813,60.2213,-0.000217
78.830,60.2348,-0.000217
78.846,60.2485,-0.000217
78.862,60.2619,-0.000217
78.888,60.2825,-0.000217
78.904,60.2960,-0.000217
78.925,60.3119,-0.000217
78.941,60.3243,-0.000217
78.957,60.3360,-0.000217
78.973,60.3477,-0.000160
78.990,60.3597,-0.000160
79.005,60.3706,-0.000160
79.021,60.3825,-0.000160
79.044,60.3977,-0.000160
79.060,60.4083,-0.000160
79.076,60.4190,-0.000160
79.092,60.4292,-0.000160
79.109,60.4401,-0.000160
79.125,60.4496,-0.000160
79.140,60.4591,-0.000160
79.156,60.4686,-0.000160
79.173,60.4784,-0.000160
79.188,60.4873,-0.000160
79.204,60.4963,-0.000160
79.221,60.5057,-0.000160
79.236,60.5139,-0.000160
79.252,60.5219,-0.000160
79.268,60.5301,-0.000179
79.284,60.5382,-0.000179
79.312,60.5516,-0.000179
79.332,60.5610,-0.000179
79.348,60.5682,-0.000179
79.364,60.5754,-0.000179
79.380,60.5822,-0.000179
79.396,60.5888,-0.000179
79.413,60.5959,-0.000179
79.431,60.6033,-0.000179
79.460,60.6135,-0.000179
79.477,60.6196,-0.000179
79.506,60.6296,-0.000245
79.524,60.6352,-0.000245
79.541,60.6404,-0.000245
79.568,60.6482,-0.000245
79.600,60.6568,-0.000245
79.615,60.6606,-0.000245
79.631,60.6645,-0.000245
79.647,60.6679,-0.000245
79.670,60.6729,-0.000245
79.692,60.6771,-0.000245
79.711,60.6806,-0.000245
79.727,60.6832,-0.000245
79.743,60.6857,-0.000245
79.759,60.6880,-0.000480
79.775,60.6900,-0.000480
79.791,60.6919,-0.000480
79.807,60.6936,-0.000480
79.823,60.6951,-0.000480
79.839,60.6963,-0.000480
79.855,60.6974,-0.000480
79.872,60.6984,-0.000480
79.894,60.6993,-0.000480
79.911,60.6998,-0.000480
79.940,60.7000,-0.000480
79.956,60.7000,-0.000480
79.972,60.7000,-0.000480
79.988,60.7000,-0.000480
80.018,60.7000,-0.000659
80.050,60.7000,-0.000659
80.080,60.7000,-0.000659
80.097,60.7000,-0.000659
80.125,60.7000,-0.000659
80.157,60.7000,-0.000659
80.174,60.7000,-0.000659
80.203,60.7000,-0.000659
80.221,60.7000,-0.000659
80.237,60.7000,-0.000659
80.253,60.7000,-0.000499
80.269,60.7000,-0.000499
80.289,60.7000,-0.000499
80.311,60.7000,-0.000499
80.342,60.7000,-0.000499
80.375,60.7000,-0.000499
80.405,60.7000,-0.000499
80.435,60.7000,-0.000499
80.467,60.7000,-0.000499
80.497,60.7000,-0.000329
80.512,60.7000,-0.000329
80.528,60.7000,-0.000329
80.559,60.7000,-0.000329
80.574,60.7000,-0.000329
80.604,60.7000,-0.000329
80.621,60.7000,-0.000329
80.637,60.7000,-0.000329
80.652,60.7000,-0.000329
80.669,60.7000,-0.000329
80.684,60.7000,-0.000329
80.701,60.7000,-0.000329
80.717,60.7000,-0.000329
80.733,60.7000,-0.000386
80.749,60.7000,-0.000386
80.765,60.7000,-0.000386
80.781,60.7000,-0.000386
80.797,60.7000,-0.000386
80.813,60.7000,-0.000386
80.829,60.7000,-0.000386
80.845,60.7000,-0.000386
80.861,60.7000,-0.000386
80.877,60.7000,-0.000386
80.893,60.7000,-0.000386
80.909,60.7000,-0.000386
80.924,60.7000,-0.000386
80.941,60.7000,-0.000386
80.957,60.7000,-0.000386
80.973,60.7000,-0.000386
80.988,60.7000,-0.000424
81.005,60.7000,-0.000424
81.020,60.7000,-0.000424
81.037,60.7000,-0.000424
81.052,60.7000,-0.000424
81.069,60.7000,-0.000424
81.085,60.7000,-0.000424
81.101,60.7000,-0.000424
81.117,60.7000,-0.000424
81.133,60.7000,-0.000424
81.148,60.7000,-0.000424
81.165,60.7000,-0.000424
81.180,60.7000,-0.000424
81.197,60.7000,-0.000424
81.212,60.7000,-0.000424
81.229,60.7000,-0.000424
81.255,60.7000,-0.000339
81.271,60.7000,-0.000339
81.287,60.7000,-0.000339
81.302,60.7000,-0.000339
81.319,60.7000,-0.000339
81.334,60.7000,-0.000339
81.350,60.7000,-0.000339
81.367,60.7000,-0.000339
81.383,60.7000,-0.000339
81.398,60.7000,-0.000339
81.415,60.7000,-0.000339
81.430,60.7000,-0.000339
81.449,60.7000,-0.000339
81.472,60.7000,-0.000339
81.488,60.7000,-0.000292
81.518,60.7000,-0.000292
81.550,60.7000,-0.000292
81.567,60.7000,-0.000292
81.597,60.7000,-0.000292
81.613,60.7000,-0.000292
81.644,60.7000,-0.000292
81.660,60.7000,-0.000292
81.675,60.7000,-0.000292
81.706,60.7000,-0.000292
81.737,60.7000,-0.000254
81.768,60.7000,-0.000254
81.783,60.7000,-0.000254
81.813,60.7000,-0.000254
81.828,60.7000,-0.000254
81.845,60.7000,-0.000254
81.860,60.7000,-0.000254
81.877,60.7000,-0.000254
81.893,60.7000,-0.000254
81.908,60.7000,-0.000254
81.924,60.7000,-0.000254
81.941,60.7000,-0.000254
81.967,60.7000,-0.000367
81.988,60.7000,-0.000367
82.004,60.7000,-0.000367
82.020,60.7000,-0.000367
82.036,60.7000,-0.000367
82.053,60.7000,-0.000367
82.068,60.7000,-0.000367
82.084,60.7000,-0.000367
82.100,60.7000,-0.000367
82.117,60.7000,-0.000367
82.132,60.7000,-0.000367
82.148,60.7000,-0.000367
82.164,60.7000,-0.000367
82.181,60.7000,-0.000367
82.196,60.7000,-0.000367
82.212,60.7000,-0.000367
82.228,60.7000,-0.000395
82.244,60.7000,-0.000395
82.261,60.7000,-0.000395
82.292,60.7000,-0.000395
82.309,60.7000,-0.000395
82.339,60.7000,-0.000395
82.368,60.7000,-0.000395
82.384,60.7000,-0.000395
82.400,60.7000,-0.000395
82.416,60.7000,-0.000395
82.433,60.7000,-0.000395
82.449,60.7000,-0.000395
82.464,60.7000,-0.000395
82.480,60.7000,-0.000367
82.496,60.7000,-0.000367
82.512,60.7000,-0.000367
82.528,60.7000,-0.000367
82.544,60.7000,-0.000367
82.560,60.7000,-0.000367
82.576,60.7000,-0.000367
82.592,60.7000,-0.000367
82.608,60.7000,-0.000367
82.625,60.7000,-0.000367
82.650,60.7000,-0.000367
82.682,60.7000,-0.000367
82.712,60.7000,-0.000367
82.743,60.7000,-0.000395
82.774,60.7000,-0.000395
82.804,60.7000,-0.000395
82.820,60.7000,-0.000395
82.836,60.7000,-0.000395
82.852,60.7000,-0.000395
82.867,60.7000,-0.000395
82.891,60.7000,-0.000395
82.907,60.7000,-0.000395
82.923,60.7000,-0.000395
82.939,60.7000,-0.000395
82.955,60.7000,-0.000395
82.971,60.7000,-0.000358
82.987,60.7000,-0.000358
83.003,60.7000,-0.000358
83.019,60.7000,-0.000358
83.035,60.7000,-0.000358
83.051,60.7000,-0.000358
83.067,60.7000,-0.000358
83.083,60.7000,-0.000358
83.099,60.7000,-0.000358
83.116,60.7000,-0.000358
83.132,60.7000,-0.000358
83.147,60.7000,-0.000358
83.163,60.7000,-0.000358
83.180,60.7000,-0.000358
83.196,60.7000,-0.000358
83.211,60.7000,-0.000358
83.227,60.7000,-0.000395
83.244,60.7000,-0.000395
83.270,60.7000,-0.000395
83.291,60.7000,-0.000395
83.307,60.7000,-0.000395
83.323,60.7000,-0.000395
83.339,60.7000,-0.000395
83.355,60.7000,-0.000395
83.371,60.7000,-0.000395
83.387,60.7000,-0.000395
83.402,60.7000,-0.000395
83.426,60.7000,-0.000395
83.442,60.7000,-0.000395
83.458,60.7000,-0.000395
83.474,60.7000,-0.000386
83.490,60.7000,-0.000386
83.506,60.7000,-0.000386
83.522,60.7000,-0.000386
83.539,60.7000,-0.000386
83.564,60.7000,-0.000386
83.595,60.7000,-0.000386
83.611,60.7000,-0.000386
83.642,60.7000,-0.000386
83.673,60.7000,-0.000386
83.688,60.7000,-0.000386
83.704,60.7000,-0.000386
83.721,60.7000,-0.000386
83.751,60.7000,-0.000367
83.781,60.7000,-0.000367
83.812,60.7000,-0.000367
83.828,60.7000,-0.000367
83.844,60.7000,-0.000367
83.859,60.7000,-0.000367
83.874,60.7000,-0.000367
83.890,60.7000,-0.000367
83.908,60.7000,-0.000367
83.924,60.7000,-0.000367
83.951,60.7000,-0.000367
83.970,60.7000,-0.000367
83.986,60.7000,-0.000367
84.001,60.7000,-0.000405
84.018,60.7000,-0.000405
84.034,60.7000,-0.000405
84.050,60.7000,-0.000405
84.065,60.7000,-0.000405
84.082,60.7000,-0.000405
84.098,60.7000,-0.000405
84.121,60.7000,-0.000405
84.151,60.7000,-0.000405
84.182,60.7000,-0.000405
84.212,60.7000,-0.000405
84.227,60.7000,-0.000405
84.259,60.7000,-0.000461
84.275,60.7000,-0.000461
84.306,60.7000,-0.000461
84.322,60.7000,-0.000461
84.338,60.7000,-0.000461
84.354,60.7000,-0.000461
84.383,60.7000,-0.000461
84.404,60.7000,-0.000461
84.429,60.7000,-0.000461
84.450,60.7000,-0.000461
84.466,60.7000,-0.000461
84.482,60.7000,-0.000461
84.498,60.7000,-0.000461
84.522,60.7000,-0.000555
84.538,60.7000,-0.000555
84.553,60.7000,-0.000555
84.569,60.7000,-0.000555
84.587,60.7000,-0.000555
84.616,60.7000,-0.000555
84.634,60.7000,-0.000555
84.650,60.7000,-0.000555
84.666,60.7000,-0.000555
84.682,60.7000,-0.000555
84.697,60.7000,-0.000555
84.714,60.6999,-0.000555
84.730,60.6997,-0.000555
84.745,60.6992,-0.000640
84.762,60.6984,-0.000640
84.778,60.6976,-0.000640
84.793,60.6966,-0.000640
84.809,60.6953,-0.000640
84.825,60.6938,-0.000640
84.842,60.6921,-0.000640
84.857,60.6904,-0.000640
84.873,60.6884,-0.000640
84.890,60.6860,-0.000640
84.905,60.6837,-0.000640
84.921,60.6811,-0.000640
84.937,60.6782,-0.000640
84.954,60.6752,-0.000640
84.969,60.6721,-0.000640
84.985,60.6688,-0.000217
85.001,60.6651,-0.000217
85.017,60.6614,-0.000217
85.033,60.6574,-0.000217
85.050,60.6529,-0.000217
85.079,60.6449,-0.000217
85.095,60.6403,-0.000217
85.112,60.6353,-0.000217
85.127,60.6302,-0.000217
85.147,60.6234,-0.000217
85.168,60.6158,-0.000217
85.190,60.6081,-0.000217
85.207,60.6018,-0.000217
85.224,60.5952,-0.000217
85.239,60.5890,0.002061
85.255,60.5823,0.002061
85.272,60.5753,0.002061
85.287,60.5683,0.002061
85.303,60.5613,0.002061
85.319,60.5537,0.002061
85.335,60.5460,0.002061
85.351,60.5379,0.002061
85.367,60.5303,0.002061
85.384,60.5215,0.002061
85.399,60.5135,0.002061
85.415,60.5053,0.002061
85.432,60.4959,0.002061
85.448,60.4867,0.002061
85.468,60.4753,0.002061
85.484,60.4658,0.004754
85.514,60.4475,0.004754
85.545,60.4276,0.004754
85.576,60.4077,0.004754
85.607,60.3869,0.004754
85.624,60.3752,0.004754
85.654,60.3536,0.004754
85.671,60.3412,0.004754
85.688,60.3281,0.004754
85.717,60.3065,0.008039
85.735,60.2925,0.008039
85.751,60.2794,0.008039
85.767,60.2670,0.008039
85.783,60.2541,0.008039
85.799,60.2407,0.008039
85.815,60.2265,0.008039
85.831,60.2140,0.008039
85.847,60.2001,0.008039
85.863,60.1861,0.008039
85.879,60.1717,0.008039
85.895,60.1572,0.008039
85.911,60.1422,0.008039
85.927,60.1277,0.008039
85.943,60.1130,0.008039
85.959,60.0975,0.008039
85.975,60.0828,0.013527
85.991,60.0668,0.013527
86.007,60.0505,0.013527
86.023,60.0354,0.013527
86.039,60.0194,0.013527
86.054,60.0030,0.013527
86.071,59.9864,0.013527
86.087,59.9693,0.013527
86.103,59.9523,0.013527
86.119,59.9356,0.013527
86.143,59.9096,0.013527
86.159,59.8917,0.013527
86.175,59.8736,0.013527
86.191,59.8561,0.013527
86.207,59.8375,0.013527
86.223,59.8194,0.013527
86.239,59.8012,0.008246
86.255,59.7818,0.008246
86.271,59.7628,0.008246
86.287,59.7444,0.008246
86.303,59.7244,0.008246
86.319,59.7054,0.008246
86.335,59.6852,0.008246
86.352,59.6648,0.008246
86.382,59.6244,0.008246
86.399,59.6042,0.008246
86.415,59.5840,0.008246
86.431,59.5634,0.008246
86.447,59.5417,0.008246
86.463,59.5207,0.008246
86.479,59.4991,-0.000085
86.495,59.4779,-0.000085
86.511,59.4549,-0.000085
86.528,59.4319,-0.000085
86.543,59.4112,-0.000085
86.559,59.3891,-0.000085
86.575,59.3647,-0.000085
86.591,59.3429,-0.000085
86.607,59.3204,-0.000085
86.623,59.2977,-0.000085
86.639,59.2734,-0.000085
86.655,59.2502,-0.000085
86.671,59.2263,-0.000085
86.687,59.2020,-0.000085
86.702,59.1788,-0.000085
86.719,59.1541,0.000000
86.735,59.1295,0.000000
86.751,59.1029,0.000000
86.766,59.0796,0.000000
86.783,59.0546,0.000000
86.798,59.0295,0.000000
86.815,59.0025,0.000000
86.830,58.9785,0.000000
86.846,58.9523,0.000000
86.862,58.9260,0.000000
86.878,58.8992,0.000000
86.895,58.8727,0.000000
86.910,58.8469,0.000000
86.928,58.8175,0.000000
86.943,58.7905,0.000000
86.959,58.7648,0.000000
86.974,58.7380,0.000038
86.990,58.7097,0.000038
87.007,58.6816,0.000038
87.023,58.6537,0.000038
87.039,58.6254,0.000038
87.055,58.5970,0.000038
87.070,58.5688,0.000038
87.087,58.5394,0.000038
87.103,58.5105,0.000038
87.119,58.4815,0.000038
87.135,58.4519,0.000038
87.150,58.4231,0.000038
87.175,58.3749,0.000038
87.198,58.3344,0.000038
87.214,58.3027,0.000038
87.230,58.2722,0.000038
87.246,58.2412,0.000038
87.262,58.2102,0.000038
87.278,58.1790,0.000132
87.294,58.1479,0.000132
87.315,58.1040,0.000132
87.337,58.0632,0.000132
87.367,58.0022,0.000132
87.398,57.9399,0.000132
87.428,57.8776,0.000132
87.444,57.8430,0.000132
87.475,57.7799,0.000282
87.491,57.7462,0.000282
87.507,57.7116,0.000282
87.523,57.6781,0.000282
87.554,57.6127,0.000282
87.584,57.5495,0.000282
87.614,57.4860,0.000282
87.630,57.4531,0.000282
87.646,57.4199,0.000282
87.664,57.3849,0.000282
87.691,57.3282,0.000282
87.710,57.2903,0.000282
87.727,57.2583,0.000282
87.743,57.2269,0.000282
87.760,57.1927,0.000282
87.785,57.1421,0.000245
87.815,57.0845,0.000245
87.832,57.0524,0.000245
87.848,57.0220,0.000245
87.865,56.9914,0.000245
87.881,56.9616,0.000245
87.896,56.9321,0.000245
87.915,56.8982,0.000245
87.940,56.8516,0.000245
87.960,56.8149,0.000245
87.977,56.7856,0.000245
87.993,56.7565,0.000245
88.008,56.7291,0.000235
88.024,56.7004,0.000235
88.041,56.6716,0.000235
88.056,56.6447,0.000235
88.072,56.6171,0.000235
88.088,56.5888,0.000235
88.104,56.5611,0.000235
88.120,56.5347,0.000235
88.136,56.5073,0.000235
88.152,56.4809,0.000235
88.168,56.4544,0.000235
88.184,56.4287,0.000235
88.200,56.4025,0.000235
88.216,56.3766,0.000235
88.232,56.3507,0.000235
88.248,56.3244,0.000424
88.264,56.2982,0.000424
88.282,56.2713,0.000424
88.311,56.2258,0.000424
88.341,56.1796,0.000424
88.357,56.1563,0.000424
88.373,56.1319,0.000424
88.389,56.1077,0.000424
88.407,56.0818,0.000424
88.422,56.0595,0.000424
88.437,56.0375,0.000424
88.453,56.0142,0.000424
88.474,55.9822,0.000424
88.499,55.9496,0.000546
88.517,55.9238,0.000546
88.533,55.9010,0.000546
88.549,55.8801,0.000546
88.565,55.8578,0.000546
88.581,55.8365,0.000546
88.597,55.8155,0.000546
88.613,55.7945,0.000546
88.629,55.7732,0.000546
88.645,55.7511,0.000546
88.661,55.7319,0.000546
88.677,55.7118,0.000546
88.694,55.6899,0.000546
88.709,55.6718,0.000546
88.727,55.6492,0.000546
88.748,55.6231,0.000546
88.779,55.5868,0.000631
88.810,55.5492,0.000631
88.825,55.5321,0.000631
88.841,55.5138,0.000631
88.865,55.4865,0.000631
88.881,55.4682,0.000631
88.897,55.4510,0.000631
88.913,55.4338,0.000631
88.929,55.4158,0.000631
88.945,55.3994,0.000631
88.961,55.3820,0.000631
88.977,55.3657,0.000631
88.993,55.3492,0.000734
89.009,55.3328,0.000734
89.025,55.3154,0.000734
89.041,55.2999,0.000734
89.057,55.2847,0.000734
89.073,55.2691,0.000734
89.090,55.2524,0.000734
89.120,55.2248,0.000734
89.137,55.2089,0.000734
89.153,55.1937,0.000734
89.169,55.1798,0.000734
89.185,55.1651,0.000734
89.201,55.1516,0.000734
89.217,55.1375,0.000734
89.233,55.1240,0.000734
89.249,55.1102,0.000781
89.265,55.0970,0.000781
89.281,55.0840,0.000781
89.297,55.0710,0.000781
89.313,55.0585,0.000781
89.329,55.0461,0.000781
89.345,55.0333,0.000781
89.361,55.0219,0.000781
89.377,55.0100,0.000781
89.402,54.9915,0.000781
89.419,54.9790,0.000781
89.445,54.9614,0.000781
89.465,54.9480,0.000781
89.480,54.9374,0.000781
89.497,54.9268,0.000791
89.513,54.9165,0.000791
89.529,54.9062,0.000791
89.544,54.8967,0.000791
89.560,54.8872,0.000791
89.577,54.8774,0.000791
89.592,54.8680,0.000791
89.608,54.8592,0.000791
89.624,54.8504,0.000791
89.641,54.8414,0.000791
89.660,54.8309,0.000791
89.676,54.8226,0.000791
89.691,54.8153,0.000791
89.707,54.8074,0.000791
89.738,54.7923,0.000734
89.754,54.7854,0.000734
89.785,54.7715,0.000734
89.800,54.7652,0.000734
89.816,54.7585,0.000734
89.832,54.7521,0.000734
89.849,54.7458,0.000734
89.864,54.7400,0.000734
89.880,54.7343,0.000734
89.897,54.7283,0.000734
89.912,54.7231,0.000734
89.929,54.7177,0.000734
89.954,54.7098,0.000734
89.970,54.7051,0.000734
89.986,54.7008,0.000857
90.002,54.6964,0.000857
90.018,54.6921,0.000857
90.033,54.6884,0.000857
90.050,54.6845,0.000857
90.065,54.6809,0.000857
90.086,54.6767,0.000857
90.108,54.6725,0.000857
90.130,54.6687,0.000857
90.146,54.6661,0.000857
90.162,54.6637,0.000857
90.177,54.6616,0.000857
90.194,54.6595,0.000857
90.215,54.6571,0.000857
90.246,54.6543,0.000922
90.279,54.6520,0.000922
90.307,54.6508,0.000922
90.338,54.6502,0.000922
90.353,54.6501,0.000922
90.370,54.6501,0.000922
90.386,54.6501,0.000922
90.401,54.6501,0.000922
90.417,54.6501,0.000922
90.433,54.6501,0.000922
90.449,54.6501,0.000922
90.466,54.6501,0.000922
90.481,54.6501,0.000838
90.507,54.6502,0.000838
90.524,54.6506,0.000838
90.539,54.6509,0.000838
90.555,54.6517,0.000838
90.572,54.6527,0.000838
90.588,54.6537,0.000838
90.603,54.6549,0.000838
90.619,54.6564,0.000838
90.635,54.6581,0.000838
90.651,54.6600,0.000838
90.667,54.6620,0.000838
90.683,54.6643,0.000838
90.699,54.6667,0.000838
90.715,54.6693,0.000838
90.731,54.6723,0.000810
90.748,54.6754,0.000810
90.763,54.6783,0.000810
90.779,54.6819,0.000810
90.795,54.6853,0.000810
90.811,54.6894,0.000810
90.830,54.6938,0.000810
90.850,54.6994,0.000810
90.866,54.7036,0.000810
90.897,54.7131,0.000810
90.928,54.7229,0.000810
90.944,54.7284,0.000810
90.975,54.7394,0.000885
91.006,54.7514,0.000885
91.037,54.7633,0.000885
91.067,54.7766,0.000885
91.083,54.7833,0.000885
91.099,54.7906,0.000885
91.115,54.7984,0.000885
91.131,54.8060,0.000885
91.147,54.8135,0.000885
91.164,54.8222,0.000885
91.179,54.8300,0.000885
91.195,54.8385,0.000885
91.211,54.8471,0.000885
91.227,54.8559,0.000800
91.243,54.8649,0.000800
91.259,54.8739,0.000800
91.275,54.8835,0.000800
91.291,54.8935,0.000800
91.307,54.9032,0.000800
91.323,54.9127,0.000800
91.339,54.9229,0.000800
91.356,54.9342,0.000800
91.375,54.9468,0.000800
91.393,54.9591,0.000800
91.424,54.9803,0.000800
91.440,54.9922,0.000800
91.471,55.0152,0.000800
91.502,55.0381,0.000819
91.517,55.0498,0.000819
91.534,55.0631,0.000819
91.549,55.0753,0.000819
91.565,55.0880,0.000819
91.581,55.1006,0.000819
91.597,55.1144,0.000819
91.612,55.1273,0.000819
91.628,55.1408,0.000819
91.644,55.1542,0.000819
91.663,55.1712,0.000819
91.690,55.1956,0.000819
91.707,55.2106,0.000819
91.723,55.2258,0.000819
91.740,55.2412,0.000819
91.755,55.2557,0.000847
91.771,55.2710,0.000847
91.788,55.2877,0.000847
91.803,55.3027,0.000847
91.819,55.3187,0.000847
91.835,55.3345,0.000847
91.851,55.3519,0.000847
91.867,55.3687,0.000847
91.883,55.3845,0.000847
91.900,55.4026,0.000847
91.915,55.4193,0.000847
91.931,55.4364,0.000847
91.947,55.4532,0.000847
91.963,55.4721,0.000847
91.985,55.4960,0.000847
92.015,55.5307,0.000678
92.045,55.5661,0.000678
92.076,55.6028,0.000678
92.108,55.6418,0.000678
92.138,55.6778,0.000678
92.155,55.6993,0.000678
92.171,55.7199,0.000678
92.187,55.7399,0.000678
92.203,55.7603,0.000678
92.219,55.7823,0.000678
92.235,55.8030,0.000678
92.251,55.8243,0.000668
92.267,55.8460,0.000668
92.283,55.8676,0.000668
92.299,55.8893,0.000668
92.314,55.9103,0.000668
92.331,55.9325,0.000668
92.347,55.9557,0.000668
92.363,55.9786,0.000668
92.378,55.9999,0.000668
92.395,56.0239,0.000668
92.411,56.0468,0.000668
92.427,56.0710,0.000668
92.442,56.0931,0.000668
92.459,56.1175,0.000668
92.475,56.1412,0.000668
92.491,56.1653,0.000640
92.507,56.1894,0.000640
92.522,56.2137,0.000640
92.538,56.2395,0.000640
92.554,56.2641,0.000640
92.570,56.2895,0.000640
92.590,56.3215,0.000640
92.618,56.3651,0.000640
92.634,56.3907,0.000640
92.651,56.4190,0.000640
92.672,56.4541,0.000640
92.692,56.4862,0.000640
92.712,56.5190,0.000640
92.743,56.5722,0.000602
92.773,56.6239,0.000602
92.789,56.6518,0.000602
92.820,56.7056,0.000602
92.850,56.7607,0.000602
92.881,56.8146,0.000602
92.897,56.8428,0.000602
92.912,56.8717,0.000602
92.927,56.9002,0.000602
92.944,56.9300,0.000602
92.960,56.9585,0.000602
92.975,56.9884,0.000471
92.991,57.0188,0.000471
93.007,57.0489,0.000471
93.023,57.0793,0.000471
93.045,57.1227,0.000471
93.068,57.1674,0.000471
93.087,57.2036,0.000471
93.104,57.2366,0.000471
93.119,57.2670,0.000471
93.135,57.2987,0.000471
93.152,57.3331,0.000471
93.169,57.3670,0.000471
93.184,57.3964,0.000471
93.199,57.4286,0.000471
93.215,57.4613,0.000471
93.239,57.5114,0.000226
93.256,57.5459,0.000226
93.272,57.5795,0.000226
93.287,57.6119,0.000226
93.310,57.6601,0.000226
93.331,57.7044,0.000226
93.351,57.7482,0.000226
93.368,57.7821,0.000226
93.383,57.8150,0.000226
93.400,57.8492,0.000226
93.415,57.8799,0.000226
93.432,57.9149,0.000226
93.453,57.9570,0.000226
93.470,57.9908,0.000226
93.500,58.0530,0.000282
93.532,58.1132,0.000282
93.548,58.1464,0.000282
93.578,58.2035,0.000282
93.594,58.2330,0.000282
93.624,58.2926,0.000282
93.640,58.3204,0.000282
93.655,58.3494,0.000282
93.679,58.3946,0.000282
93.703,58.4390,0.000282
93.719,58.4675,0.000282
93.736,58.4978,0.000452
93.761,58.5435,0.000452
93.778,58.5729,0.000452
93.793,58.5997,0.000452
93.811,58.6301,0.000452
93.826,58.6569,0.000452
93.841,58.6833,0.000452
93.858,58.7129,0.000452
93.874,58.7391,0.000452
93.889,58.7654,0.000452
93.905,58.7923,0.000452
93.922,58.8213,0.000452
93.937,58.8459,0.000452
93.953,58.8724,0.000452
93.969,58.8980,0.000226
93.986,58.9255,0.000226
94.001,58.9508,0.000226
94.017,58.9762,0.000226
94.034,59.0027,0.000226
94.049,59.0262,0.000226
94.065,59.0515,0.000226
94.081,59.0755,0.000226
94.098,59.1024,0.000226
94.118,59.1320,0.000226
94.134,59.1567,0.000226
94.149,59.1788,0.000226
94.180,59.2249,0.000226
94.209,59.2689,0.000226
94.228,59.2942,0.000226
94.257,59.3352,0.000226
94.287,59.3783,-0.000009
94.303,59.4007,-0.000009
94.319,59.4225,-0.000009
94.335,59.4437,-0.000009
94.351,59.4659,-0.000009
94.367,59.4861,-0.000009
94.383,59.5077,-0.000009
94.399,59.5284,-0.000009
94.415,59.5496,-0.000009
94.431,59.5696,-0.000009
94.447,59.5903,-0.000009
94.463,59.6111,-0.000009
94.479,59.6306,-0.000009
94.495,59.6503,-0.000094
94.511,59.6698,-0.000094
94.527,59.6895,-0.000094
94.543,59.7077,-0.000094
94.559,59.7267,-0.000094
94.575,59.7458,-0.000094
94.591,59.7647,-0.000094
94.607,59.7830,-0.000094
94.623,59.8014,-0.000094
94.639,59.8195,-0.000094
94.655,59.8372,-0.000094
94.671,59.8546,-0.000094
94.687,59.8724,-0.000094
94.703,59.8903,-0.000094
94.719,59.9068,-0.000094
94.735,59.9232,-0.000094
94.751,59.9399,-0.000094
94.768,59.9571,-0.000094
94.783,59.9731,-0.000094
94.799,59.9886,-0.000094
94.827,60.0172,-0.000094
94.843,60.0322,-0.000094
94.858,60.0471,-0.000094
94.874,60.0618,-0.000094
94.890,60.0777,-0.000094
94.907,60.0926,-0.000094
94.935,60.1191,-0.000094
94.954,60.1354,-0.000094
94.970,60.1489,-0.000094
94.986,60.1628,-0.000104
95.002,60.1768,-0.000104
95.018,60.1897,-0.000104
95.034,60.2033,-0.000104
95.051,60.2169,-0.000104
95.066,60.2293,-0.000104
95.083,60.2428,-0.000104
95.098,60.2543,-0.000104
95.114,60.2667,-0.000104
95.130,60.2786,-0.000104
95.146,60.2906,-0.000104
95.161,60.3019,-0.000104
95.178,60.3136,-0.000104
95.194,60.3251,-0.000104
95.210,60.3362,-0.000104
95.226,60.3471,-0.000188
95.242,60.3579,-0.000188
95.258,60.3683,-0.000188
95.275,60.3791,-0.000188
95.291,60.3899,-0.000188
95.306,60.3989,-0.000188
95.323,60.4097,-0.000188
95.339,60.4189,-0.000188
95.368,60.4356,-0.000188
95.386,60.4460,-0.000188
95.402,60.4546,-0.000188
95.417,60.4630,-0.000188
95.434,60.4713,-0.000188
95.450,60.4799,-0.000188
95.466,60.4877,-0.000188
95.482,60.4957,-0.000217
95.498,60.5036,-0.000217
95.514,60.5109,-0.000217
95.529,60.5177,-0.000217
95.546,60.5250,-0.000217
95.561,60.5317,-0.000217
95.578,60.5386,-0.000217
95.594,60.5453,-0.000217
95.617,60.5546,-0.000217
95.633,60.5601,-0.000217
95.649,60.5661,-0.000217
95.680,60.5769,-0.000217
95.696,60.5819,-0.000217
95.726,60.5914,-0.000377
95.757,60.6001,-0.000377
95.788,60.6083,-0.000377
95.804,60.6122,-0.000377
95.835,60.6193,-0.000377
95.865,60.6254,-0.000377
95.882,60.6289,-0.000377
95.905,60.6325,-0.000377
95.920,60.6349,-0.000377
95.936,60.6372,-0.000377
95.952,60.6394,-0.000377
95.969,60.6414,-0.000377
95.985,60.6431,-0.000377
96.000,60.6446,-0.000593
96.017,60.6460,-0.000593
96.033,60.6472,-0.000593
96.049,60.6481,-0.000593
96.064,60.6488,-0.000593
96.081,60.6494,-0.000593
96.096,60.6498,-0.000593
96.112,60.6501,-0.000593
96.129,60.6501,-0.000593
96.144,60.6501,-0.000593
96.161,60.6501,-0.000593
96.176,60.6501,-0.000593
96.192,60.6501,-0.000593
96.209,60.6501,-0.000593
96.224,60.6501,-0.000593
96.241,60.6501,-0.000565
96.256,60.6501,-0.000565
96.273,60.6501,-0.000565
96.301,60.6501,-0.000565
96.320,60.6501,-0.000565
96.338,60.6501,-0.000565
96.353,60.6501,-0.000565
96.368,60.6501,-0.000565
96.384,60.6501,-0.000565
96.400,60.6501,-0.000565
96.416,60.6501,-0.000565
96.432,60.6501,-0.000565
96.457,60.6501,-0.000565
96.485,60.6501,-0.000574
96.504,60.6501,-0.000574
96.521,60.6501,-0.000574
96.548,60.6501,-0.000574
96.567,60.6501,-0.000574
96.584,60.6501,-0.000574
96.599,60.6501,-0.000574
96.615,60.6501,-0.000574
96.632,60.6501,-0.000574
96.649,60.6501,-0.000574
96.672,60.6501,-0.000574
96.702,60.6501,-0.000574
96.733,60.6501,-0.000574
96.748,60.6501,-0.000537
96.780,60.6501,-0.000537
96.810,60.6501,-0.000537
96.825,60.6501,-0.000537
96.857,60.6501,-0.000537
