Elapsed Time (s),Position (mm),Force (N)
-0.018,54.9501,0.000631
0.001,54.9501,0.000631
0.020,54.9501,0.000631
0.050,54.9501,0.000631
0.080,54.9501,0.000631
0.111,54.9501,0.000631
0.135,54.9501,0.000631
0.150,54.9501,0.000631
0.172,54.9501,0.000631
0.190,54.9501,0.000631
0.206,54.9501,0.000631
0.223,54.9501,0.000631
0.238,54.9501,0.000706
0.254,54.9501,0.000706
0.271,54.9501,0.000706
0.287,54.9501,0.000706
0.302,54.9501,0.000706
0.318,54.9501,0.000706
0.335,54.9501,0.000706
0.350,54.9501,0.000706
0.366,54.9501,0.000706
0.382,54.9501,0.000706
0.399,54.9501,0.000706
0.415,54.9501,0.000706
0.430,54.9501,0.000706
0.446,54.9501,0.000706
0.462,54.9501,0.000706
0.478,54.9501,0.000791
0.494,54.9501,0.000791
0.511,54.9501,0.000791
0.541,54.9501,0.000791
0.558,54.9501,0.000791
0.575,54.9501,0.000791
0.593,54.9501,0.000791
0.609,54.9501,0.000791
0.633,54.9501,0.000791
0.654,54.9501,0.000791
0.670,54.9501,0.000791
0.686,54.9501,0.000791
0.702,54.9501,0.000791
0.718,54.9501,0.000791
0.734,54.9501,0.000791
0.757,54.9501,0.000838
0.773,54.9501,0.000838
0.789,54.9501,0.000838
0.805,54.9501,0.000838
0.822,54.9501,0.000838
0.852,54.9501,0.000838
0.869,54.9501,0.000838
0.885,54.9501,0.000838
0.901,54.9501,0.000838
0.917,54.9501,0.000838
0.933,54.9501,0.000838
0.949,54.9501,0.000838
0.965,54.9501,0.000838
0.981,54.9501,0.000800
0.997,54.9501,0.000800
1.013,54.9501,0.000800
1.029,54.9501,0.000800
1.045,54.9501,0.000800
1.061,54.9501,0.000800
1.077,54.9501,0.000800
1.093,54.9501,0.000800
1.109,54.9501,0.000800
1.125,54.9501,0.000800
1.141,54.9501,0.000800
1.157,54.9501,0.000800
1.174,54.9501,0.000800
1.195,54.9501,0.000800
1.220,54.9501,0.000800
1.237,54.9501,0.000772
1.253,54.9501,0.000772
1.269,54.9501,0.000772
1.285,54.9501,0.000772
1.311,54.9501,0.000772
1.328,54.9501,0.000772
1.343,54.9501,0.000772
1.374,54.9501,0.000772
1.396,54.9501,0.000772
1.420,54.9501,0.000772
1.438,54.9501,0.000772
1.454,54.9501,0.000772
1.470,54.9501,0.000781
1.486,54.9501,0.000781
1.503,54.9501,0.000781
1.528,54.9501,0.000781
1.559,54.9501,0.000781
1.590,54.9501,0.000781
1.606,54.9501,0.000781
1.637,54.9501,0.000781
1.668,54.9501,0.000781
1.698,54.9501,0.000781
1.729,54.9501,0.000734
1.747,54.9501,0.000734
1.776,54.9501,0.000734
1.807,54.9501,0.000734
1.838,54.9501,0.000734
1.868,54.9501,0.000734
1.886,54.9501,0.000734
1.914,54.9501,0.000734
1.933,54.9501,0.000734
1.949,54.9501,0.000734
1.965,54.9501,0.000734
1.981,54.9501,0.000762
1.997,54.9501,0.000762
2.013,54.9501,0.000762
2.028,54.9501,0.000762
2.044,54.9501,0.000762
2.061,54.9501,0.000762
2.077,54.9501,0.000762
2.092,54.9501,0.000762
2.109,54.9501,0.000762
2.125,54.9501,0.000762
2.140,54.9501,0.000762
2.157,54.9501,0.000762
2.173,54.9501,0.000762
2.189,54.9501,0.000762
2.213,54.9501,0.000762
2.237,54.9501,0.000828
2.253,54.9501,0.000828
2.269,54.9501,0.000828
2.284,54.9501,0.000828
2.300,54.9501,0.000828
2.317,54.9501,0.000828
2.332,54.9501,0.000828
2.349,54.9501,0.000828
2.375,54.9501,0.000828
2.390,54.9501,0.000828
2.407,54.9501,0.000828
2.422,54.9501,0.000828
2.439,54.9501,0.000828
2.468,54.9501,0.000781
2.487,54.9501,0.000781
2.505,54.9501,0.000781
2.531,54.9501,0.000781
2.551,54.9501,0.000781
2.566,54.9501,0.000781
2.583,54.9501,0.000781
2.599,54.9501,0.000781
2.614,54.9501,0.000781
2.631,54.9501,0.000781
2.646,54.9501,0.000781
2.663,54.9501,0.000781
2.678,54.9501,0.000781
2.694,54.9501,0.000781
2.711,54.9501,0.000781
2.726,54.9501,0.000762
2.742,54.9501,0.000762
2.759,54.9501,0.000762
2.775,54.9501,0.000762
2.790,54.9501,0.000762
2.806,54.9501,0.000762
2.822,54.9501,0.000762
2.838,54.9501,0.000762
2.855,54.9501,0.000762
2.870,54.9501,0.000762
2.886,54.9501,0.000762
2.902,54.9501,0.000762
2.931,54.9501,0.000762
2.947,54.9501,0.000762
2.962,54.9501,0.000744
2.979,54.9501,0.000744
2.998,54.9501,0.000744
3.026,54.9501,0.000744
3.042,54.9501,0.000744
3.059,54.9501,0.000744
3.074,54.9501,0.000744
3.090,54.9501,0.000744
3.109,54.9501,0.000744
3.135,54.9501,0.000744
3.154,54.9501,0.000744
3.175,54.9501,0.000744
3.198,54.9501,0.000744
3.218,54.9501,0.000772
3.235,54.9501,0.000772
3.251,54.9501,0.000772
3.266,54.9501,0.000772
3.282,54.9501,0.000772
3.300,54.9501,0.000772
3.322,54.9501,0.000772
3.338,54.9501,0.000772
3.368,54.9501,0.000772
3.400,54.9501,0.000772
3.430,54.9501,0.000772
3.460,54.9501,0.000772
3.476,54.9501,0.000772
3.507,54.9501,0.000772
3.538,54.9501,0.000772
3.554,54.9501,0.000772
3.570,54.9501,0.000772
3.586,54.9501,0.000772
3.602,54.9501,0.000772
3.618,54.9501,0.000772
3.634,54.9501,0.000772
3.650,54.9501,0.000772
3.666,54.9501,0.000772
3.682,54.9501,0.000772
3.698,54.9501,0.000772
3.714,54.9501,0.000621
3.730,54.9501,0.000621
3.746,54.9501,0.000621
3.762,54.9501,0.000621
3.779,54.9501,0.000621
3.794,54.9501,0.000621
3.810,54.9501,0.000621
3.826,54.9501,0.000621
3.842,54.9501,0.000621
3.858,54.9501,0.000621
3.874,54.9501,0.000621
3.890,54.9501,0.000621
3.906,54.9501,0.000621
3.922,54.9501,0.000621
3.938,54.9501,0.000621
3.954,54.9501,0.000621
3.970,54.9501,0.000621
3.987,54.9501,0.000621
4.018,54.9501,0.000377
4.034,54.9501,0.000377
4.050,54.9501,0.000377
4.081,54.9501,0.000377
4.097,54.9501,0.000377
4.113,54.9501,0.000377
4.130,54.9501,0.000377
4.145,54.9498,0.000377
4.161,54.9495,0.000377
4.177,54.9488,0.000377
4.193,54.9481,0.000377
4.209,54.9471,0.000377
4.225,54.9459,0.000264
4.241,54.9445,0.000264
4.258,54.9429,0.000264
4.273,54.9411,0.000264
4.289,54.9393,0.000264
4.305,54.9370,0.000264
4.321,54.9347,0.000264
4.337,54.9322,0.000264
4.353,54.9295,0.000264
4.369,54.9265,0.000264
4.386,54.9232,0.000264
4.401,54.9201,0.000264
4.417,54.9166,0.000264
4.433,54.9129,0.000264
4.449,54.9090,0.000264
4.465,54.9048,0.001516
4.481,54.9007,0.001516
4.506,54.8935,0.001516
4.528,54.8866,0.001516
4.545,54.8817,0.001516
4.568,54.8739,0.001516
4.584,54.8683,0.001516
4.600,54.8626,0.001516
4.616,54.8566,0.001516
4.632,54.8509,0.001516
4.648,54.8445,0.001516
4.664,54.8381,0.001516
4.680,54.8311,0.001516
4.696,54.8244,0.001516
4.712,54.8172,0.005836
4.728,54.8102,0.005836
4.745,54.8021,0.005836
4.760,54.7945,0.005836
4.776,54.7872,0.005836
4.793,54.7785,0.005836
4.808,54.7704,0.005836
4.824,54.7625,0.005836
4.840,54.7535,0.005836
4.856,54.7442,0.005836
4.873,54.7354,0.005836
4.898,54.7203,0.005836
4.920,54.7077,0.005836
4.936,54.6976,0.005836
4.953,54.6860,0.005836
4.977,54.6719,0.007596
5.008,54.6509,0.007596
5.039,54.6300,0.007596
5.071,54.6075,0.007596
5.101,54.5854,0.007596
5.122,54.5697,0.007596
5.138,54.5570,0.007596
5.153,54.5455,0.007596
5.169,54.5329,0.007596
5.185,54.5200,0.007596
5.202,54.5061,0.007596
5.217,54.4939,0.008218
5.234,54.4800,0.008218
5.250,54.4661,0.008218
5.272,54.4467,0.008218
5.288,54.4335,0.008218
5.304,54.4191,0.008218
5.335,54.3906,0.008218
5.366,54.3621,0.008218
5.396,54.3329,0.008218
5.426,54.3035,0.008218
5.445,54.2854,0.008218
5.473,54.2563,0.009865
5.489,54.2397,0.009865
5.506,54.2221,0.009865
5.535,54.1919,0.009865
5.554,54.1710,0.009865
5.569,54.1545,0.009865
5.586,54.1359,0.009865
5.601,54.1191,0.009865
5.618,54.0994,0.009865
5.633,54.0829,0.009865
5.649,54.0642,0.009865
5.674,54.0345,0.009865
5.697,54.0075,0.009865
5.720,53.9800,0.005403
5.738,53.9581,0.005403
5.754,53.9395,0.005403
5.770,53.9196,0.005403
5.785,53.9001,0.005403
5.802,53.8790,0.005403
5.817,53.8587,0.005403
5.833,53.8382,0.005403
5.849,53.8179,0.005403
5.866,53.7954,0.005403
5.882,53.7748,0.005403
5.897,53.7541,0.005403
5.913,53.7325,0.005403
5.929,53.7098,0.005403
5.945,53.6884,0.005403
5.961,53.6666,0.001318
5.978,53.6434,0.001318
5.994,53.6199,0.001318
6.009,53.5986,0.001318
6.025,53.5759,0.001318
6.042,53.5508,0.001318
6.061,53.5242,0.001318
6.090,53.4795,0.001318
6.109,53.4512,0.001318
6.137,53.4097,0.001318
6.153,53.3849,0.001318
6.170,53.3591,0.001318
6.186,53.3344,0.001318
6.201,53.3100,0.001318
6.228,53.2673,0.001450
6.243,53.2430,0.001450
6.260,53.2162,0.001450
6.275,53.1912,0.001450
6.293,53.1626,0.001450
6.322,53.1142,0.001450
6.339,53.0853,0.001450
6.355,53.0585,0.001450
6.371,53.0312,0.001450
6.387,53.0041,0.001450
6.403,52.9761,0.001450
6.419,52.9475,0.001450
6.435,52.9206,0.001450
6.451,52.8913,0.001450
6.468,52.8635,0.001638
6.484,52.8342,0.001638
6.499,52.8068,0.001638
6.515,52.7784,0.001638
6.531,52.7485,0.001638
6.547,52.7195,0.001638
6.563,52.6897,0.001638
6.579,52.6602,0.001638
6.595,52.6303,0.001638
6.611,52.6008,0.001638
6.627,52.5708,0.001638
6.644,52.5372,0.001638
6.660,52.5083,0.001638
6.675,52.4777,0.001638
6.692,52.4452,0.001638
6.709,52.4122,0.001638
6.738,52.3546,0.001638
6.767,52.2972,0.001845
6.783,52.2632,0.001845
6.799,52.2333,0.001845
6.815,52.2008,0.001845
6.832,52.1644,0.001845
6.847,52.1341,0.001845
6.863,52.0996,0.001845
6.879,52.0686,0.001845
6.895,52.0339,0.001845
6.911,51.9998,0.001845
6.927,51.9664,0.001845
6.943,51.9323,0.001845
6.959,51.8982,0.001845
6.975,51.8637,0.002043
6.991,51.8316,0.002043
7.008,51.7952,0.002043
7.028,51.7526,0.002043
7.058,51.6907,0.002043
7.089,51.6285,0.002043
7.104,51.5985,0.002043
7.119,51.5662,0.002043
7.135,51.5347,0.002043
7.151,51.5017,0.002043
7.167,51.4718,0.002043
7.183,51.4410,0.002043
7.205,51.3962,0.002043
7.228,51.3529,0.002043
7.247,51.3169,0.002127
7.264,51.2848,0.002127
7.280,51.2533,0.002127
7.296,51.2245,0.002127
7.320,51.1783,0.002127
7.351,51.1212,0.002127
7.366,51.0928,0.002127
7.383,51.0640,0.002127
7.399,51.0353,0.002127
7.416,51.0034,0.002127
7.444,50.9547,0.002127
7.463,50.9206,0.002127
7.489,50.8752,0.002325
7.507,50.8455,0.002325
7.527,50.8104,0.002325
7.542,50.7845,0.002325
7.559,50.7568,0.002325
7.575,50.7291,0.002325
7.592,50.7026,0.002325
7.614,50.6651,0.002325
7.645,50.6142,0.002325
7.661,50.5899,0.002325
7.691,50.5402,0.002325
7.721,50.4945,0.002617
7.752,50.4475,0.002617
7.768,50.4225,0.002617
7.799,50.3752,0.002617
7.817,50.3483,0.002617
7.846,50.3065,0.002617
7.874,50.2665,0.002617
7.890,50.2435,0.002617
7.905,50.2212,0.002617
7.922,50.1981,0.002617
7.938,50.1747,0.002617
7.953,50.1541,0.002617
7.969,50.1323,0.002824
7.986,50.1087,0.002824
8.008,50.0776,0.002824
8.030,50.0513,0.002824
8.050,50.0250,0.002824
8.066,50.0031,0.002824
8.082,49.9838,0.002824
8.097,49.9638,0.002824
8.113,49.9435,0.002824
8.130,49.9229,0.002824
8.146,49.9031,0.002824
8.161,49.8840,0.002824
8.177,49.8649,0.002824
8.194,49.8445,0.002824
8.209,49.8264,0.002824
8.225,49.8078,0.003031
8.241,49.7891,0.003031
8.258,49.7700,0.003031
8.273,49.7522,0.003031
8.289,49.7341,0.003031
8.305,49.7163,0.003031
8.321,49.6985,0.003031
8.338,49.6797,0.003031
8.353,49.6638,0.003031
8.378,49.6373,0.003031
8.400,49.6136,0.003031
8.419,49.5945,0.003031
8.447,49.5661,0.003031
8.466,49.5477,0.003031
8.481,49.5322,0.003229
8.498,49.5165,0.003229
8.513,49.5015,0.003229
8.530,49.4858,0.003229
8.545,49.4715,0.003229
8.561,49.4562,0.003229
8.577,49.4417,0.003229
8.594,49.4273,0.003229
8.609,49.4134,0.003229
8.625,49.3990,0.003229
8.642,49.3853,0.003229
8.657,49.3721,0.003229
8.673,49.3582,0.003229
8.689,49.3450,0.003229
8.706,49.3318,0.003229
8.721,49.3194,0.003370
8.737,49.3065,0.003370
8.753,49.2942,0.003370
8.770,49.2818,0.003370
8.785,49.2699,0.003370
8.801,49.2580,0.003370
8.818,49.2455,0.003370
8.833,49.2346,0.003370
8.850,49.2233,0.003370
8.865,49.2127,0.003370
8.888,49.1965,0.003370
8.911,49.1812,0.003370
8.929,49.1702,0.003370
8.945,49.1598,0.003370
8.961,49.1499,0.003370
8.977,49.1401,0.003370
8.993,49.1308,0.003398
9.009,49.1212,0.003398
9.025,49.1123,0.003398
9.041,49.1031,0.003398
9.057,49.0946,0.003398
9.074,49.0853,0.003398
9.089,49.0771,0.003398
9.105,49.0694,0.003398
9.121,49.0614,0.003398
9.137,49.0536,0.003398
9.153,49.0459,0.003398
9.169,49.0382,0.003398
9.185,49.0314,0.003398
9.202,49.0236,0.003398
9.219,49.0163,0.003398
9.234,49.0100,0.003398
9.265,48.9981,0.003398
9.281,48.9917,0.003398
9.297,48.9862,0.003398
9.313,48.9803,0.003398
9.329,48.9746,0.003398
9.345,48.9697,0.003398
9.361,48.9645,0.003398
9.377,48.9597,0.003398
9.396,48.9542,0.003398
9.420,48.9475,0.003398
9.441,48.9419,0.003398
9.457,48.9378,0.003398
9.474,48.9341,0.003398
9.489,48.9307,0.003398
9.513,48.9259,0.003351
9.529,48.9228,0.003351
9.545,48.9199,0.003351
9.561,48.9173,0.003351
9.577,48.9146,0.003351
9.593,48.9125,0.003351
9.609,48.9104,0.003351
9.625,48.9085,0.003351
9.642,48.9067,0.003351
9.667,48.9044,0.003351
9.683,48.9032,0.003351
9.705,48.9019,0.003351
9.721,48.9012,0.003285
9.737,48.9006,0.003285
9.753,48.9002,0.003285
9.769,48.9001,0.003285
9.785,48.9001,0.003285
9.801,48.9001,0.003285
9.817,48.9001,0.003285
9.833,48.9001,0.003285
9.849,48.9001,0.003285
9.865,48.9001,0.003285
9.883,48.9001,0.003285
9.913,48.9001,0.003285
9.929,48.9001,0.003285
9.947,48.9003,0.003285
9.975,48.9012,0.003257
9.993,48.9019,0.003257
10.010,48.9029,0.003257
10.037,48.9050,0.003257
10.056,48.9069,0.003257
10.073,48.9086,0.003257
10.089,48.9106,0.003257
10.105,48.9126,0.003257
10.121,48.9150,0.003257
10.137,48.9174,0.003257
10.153,48.9202,0.003257
10.169,48.9230,0.003257
10.185,48.9263,0.003257
10.200,48.9295,0.003257
10.217,48.9328,0.003172
10.233,48.9365,0.003172
10.249,48.9405,0.003172
10.265,48.9446,0.003172
10.281,48.9487,0.003172
10.297,48.9532,0.003172
10.313,48.9580,0.003172
10.328,48.9626,0.003172
10.345,48.9678,0.003172
10.361,48.9729,0.003172
10.377,48.9785,0.003172
10.393,48.9839,0.003172
10.409,48.9896,0.003172
10.425,48.9958,0.003172
10.440,49.0018,0.003172
10.456,49.0081,0.003182
10.473,49.0148,0.003182
10.490,49.0222,0.003182
10.518,49.0343,0.003182
10.536,49.0428,0.003182
10.553,49.0508,0.003182
10.569,49.0588,0.003182
10.585,49.0665,0.003182
10.610,49.0791,0.003182
10.640,49.0950,0.003182
10.656,49.1041,0.003182
10.674,49.1143,0.003182
10.702,49.1306,0.003323
10.721,49.1414,0.003323
10.737,49.1514,0.003323
10.753,49.1612,0.003323
10.769,49.1714,0.003323
10.785,49.1820,0.003323
10.801,49.1925,0.003323
10.817,49.2033,0.003323
10.840,49.2198,0.003323
10.875,49.2439,0.003323
10.897,49.2595,0.003323
10.913,49.2714,0.003323
10.928,49.2832,0.003323
10.945,49.2958,0.003323
10.960,49.3081,0.003398
10.977,49.3210,0.003398
10.993,49.3338,0.003398
11.008,49.3468,0.003398
11.026,49.3616,0.003398
11.056,49.3869,0.003398
11.072,49.4009,0.003398
11.089,49.4152,0.003398
11.105,49.4298,0.003398
11.133,49.4553,0.003398
11.153,49.4733,0.003398
11.169,49.4887,0.003398
11.185,49.5035,0.003398
11.200,49.5183,0.003398
11.216,49.5338,0.003398
11.232,49.5497,0.003398
11.248,49.5656,0.003398
11.264,49.5826,0.003398
11.281,49.5987,0.003398
11.296,49.6148,0.003398
11.313,49.6318,0.003398
11.328,49.6486,0.003398
11.345,49.6661,0.003398
11.361,49.6832,0.003398
11.377,49.7007,0.003398
11.392,49.7181,0.003398
11.409,49.7369,0.003398
11.425,49.7549,0.003398
11.440,49.7730,0.003398
11.457,49.7913,0.003398
11.473,49.8098,0.003398
11.489,49.8285,0.003351
11.505,49.8489,0.003351
11.521,49.8668,0.003351
11.536,49.8859,0.003351
11.553,49.9062,0.003351
11.568,49.9255,0.003351
11.586,49.9477,0.003351
11.610,49.9780,0.003351
11.625,49.9974,0.003351
11.641,50.0175,0.003351
11.671,50.0580,0.003351
11.702,50.0983,0.003351
11.732,50.1399,0.003229
11.762,50.1819,0.003229
11.793,50.2245,0.003229
11.824,50.2692,0.003229
11.840,50.2922,0.003229
11.856,50.3156,0.003229
11.872,50.3393,0.003229
11.890,50.3660,0.003229
11.917,50.4059,0.003229
11.936,50.4354,0.003229
11.953,50.4608,0.003229
11.969,50.4861,0.003229
11.984,50.5099,0.003040
12.000,50.5347,0.003040
12.016,50.5601,0.003040
12.032,50.5854,0.003040
12.048,50.6104,0.003040
12.064,50.6384,0.003040
12.080,50.6633,0.003040
12.096,50.6889,0.003040
12.112,50.7157,0.003040
12.128,50.7421,0.003040
12.144,50.7689,0.003040
12.160,50.7968,0.003040
12.190,50.8468,0.003040
12.206,50.8752,0.003040
12.222,50.9018,0.002852
12.238,50.9305,0.002852
12.254,50.9578,0.002852
12.270,50.9870,0.002852
12.286,51.0153,0.002852
12.302,51.0432,0.002852
12.320,51.0763,0.002852
12.348,51.1283,0.002852
12.366,51.1609,0.002852
12.382,51.1910,0.002852
12.398,51.2202,0.002852
12.414,51.2517,0.002852
12.430,51.2800,0.002852
12.446,51.3116,0.002852
12.462,51.3411,0.002852
12.478,51.3725,0.002589
12.494,51.4030,0.002589
12.510,51.4352,0.002589
12.526,51.4669,0.002589
12.542,51.4971,0.002589
12.559,51.5324,0.002589
12.575,51.5631,0.002589
12.590,51.5937,0.002589
12.606,51.6264,0.002589
12.622,51.6586,0.002589
12.638,51.6922,0.002589
12.654,51.7252,0.002589
12.670,51.7582,0.002589
12.686,51.7911,0.002589
12.712,51.8458,0.002589
12.728,51.8814,0.002589
12.744,51.9137,0.002259
12.760,51.9487,0.002259
12.776,51.9813,0.002259
12.792,52.0143,0.002259
12.808,52.0476,0.002259
12.824,52.0809,0.002259
12.840,52.1137,0.002259
12.856,52.1475,0.002259
12.872,52.1799,0.002259
12.888,52.2123,0.002259
12.904,52.2449,0.002259
12.920,52.2767,0.002259
12.937,52.3104,0.002259
12.967,52.3693,0.002061
12.984,52.4016,0.002061
13.003,52.4382,0.002061
13.029,52.4887,0.002061
13.048,52.5252,0.002061
13.064,52.5557,0.002061
13.080,52.5851,0.002061
13.096,52.6155,0.002061
13.112,52.6444,0.002061
13.129,52.6767,0.002061
13.144,52.7036,0.002061
13.160,52.7318,0.002061
13.175,52.7607,0.002061
13.192,52.7908,0.002061
13.208,52.8181,0.002061
13.223,52.8469,0.002061
13.245,52.8851,0.001996
13.262,52.9141,0.001996
13.278,52.9413,0.001996
13.294,52.9678,0.001996
13.310,52.9960,0.001996
13.326,53.0229,0.001996
13.341,53.0492,0.001996
13.358,53.0757,0.001996
13.374,53.1040,0.001996
13.389,53.1285,0.001996
13.406,53.1555,0.001996
13.421,53.1804,0.001996
13.438,53.2077,0.001996
13.454,53.2328,0.001996
13.469,53.2569,0.001817
13.486,53.2834,0.001817
13.502,53.3097,0.001817
13.517,53.3318,0.001817
13.534,53.3570,0.001817
13.550,53.3811,0.001817
13.566,53.4056,0.001817
13.581,53.4290,0.001817
13.597,53.4526,0.001817
13.614,53.4783,0.001817
13.630,53.4997,0.001817
13.645,53.5233,0.001817
13.662,53.5471,0.001817
13.678,53.5693,0.001817
13.694,53.5918,0.001817
13.709,53.6137,0.001544
13.725,53.6359,0.001544
13.742,53.6584,0.001544
13.757,53.6799,0.001544
13.773,53.7014,0.001544
13.798,53.7351,0.001544
13.816,53.7587,0.001544
13.833,53.7808,0.001544
13.862,53.8182,0.001544
13.878,53.8380,0.001544
13.894,53.8583,0.001544
13.909,53.8778,0.001544
13.926,53.8988,0.001544
13.956,53.9346,0.001365
13.973,53.9559,0.001365
13.993,53.9787,0.001365
14.018,54.0085,0.001365
14.038,54.0311,0.001365
14.054,54.0497,0.001365
14.069,54.0673,0.001365
14.085,54.0848,0.001365
14.102,54.1036,0.001365
14.119,54.1220,0.001365
14.140,54.1443,0.001365
14.156,54.1613,0.001365
14.186,54.1932,0.001365
14.202,54.2094,0.001365
14.233,54.2412,0.001243
14.249,54.2562,0.001243
14.265,54.2720,0.001243
14.296,54.3023,0.001243
14.327,54.3312,0.001243
14.342,54.3453,0.001243
14.359,54.3605,0.001243
14.374,54.3739,0.001243
14.389,54.3875,0.001243
14.405,54.4014,0.001243
14.424,54.4178,0.001243
14.451,54.4408,0.001130
14.469,54.4556,0.001130
14.486,54.4700,0.001130
14.502,54.4816,0.001130
14.518,54.4944,0.001130
14.534,54.5068,0.001130
14.550,54.5195,0.001130
14.566,54.5312,0.001130
14.582,54.5430,0.001130
14.598,54.5546,0.001130
14.613,54.5662,0.001130
14.629,54.5770,0.001130
14.645,54.5880,0.001130
14.661,54.5990,0.001130
14.679,54.6106,0.001130
14.699,54.6238,0.001130
14.730,54.6435,0.001073
14.760,54.6622,0.001073
14.791,54.6802,0.001073
14.806,54.6888,0.001073
14.837,54.7061,0.001073
14.853,54.7150,0.001073
14.869,54.7231,0.001073
14.898,54.7377,0.001073
14.914,54.7454,0.001073
14.930,54.7535,0.001073
14.946,54.7608,0.001073
14.964,54.7687,0.001073
14.993,54.7814,0.000922
15.010,54.7886,0.000922
15.026,54.7950,0.000922
15.042,54.8015,0.000922
15.058,54.8074,0.000922
15.074,54.8134,0.000922
15.090,54.8191,0.000922
15.106,54.8244,0.000922
15.122,54.8296,0.000922
15.138,54.8349,0.000922
15.154,54.8399,0.000922
15.170,54.8448,0.000922
15.186,54.8490,0.000922
15.202,54.8535,0.000922
15.218,54.8578,0.000922
15.234,54.8615,0.000471
15.250,54.8654,0.000471
15.266,54.8690,0.000471
15.282,54.8723,0.000471
15.298,54.8754,0.000471
15.314,54.8785,0.000471
15.330,54.8812,0.000471
15.346,54.8838,0.000471
15.362,54.8863,0.000471
15.378,54.8886,0.000471
15.396,54.8909,0.000471
15.425,54.8940,0.000471
15.456,54.8966,0.000471
15.472,54.8976,0.000471
15.488,54.8985,-0.000160
15.504,54.8992,-0.000160
15.521,54.8997,-0.000160
15.537,54.9000,-0.000160
15.566,54.9001,-0.000160
15.584,54.9001,-0.000160
15.600,54.9001,-0.000160
15.616,54.9001,-0.000160
15.632,54.9001,-0.000160
15.650,54.9001,-0.000160
15.674,54.9001,-0.000160
15.689,54.9001,-0.000160
15.705,54.9001,-0.000160
15.736,54.9001,-0.000160
15.767,54.9001,-0.000292
15.798,54.9001,-0.000292
15.813,54.9001,-0.000292
15.844,54.9001,-0.000292
15.874,54.9001,-0.000292
15.904,54.9001,-0.000292
15.920,54.9001,-0.000292
15.936,54.9001,-0.000292
15.952,54.9001,-0.000292
15.968,54.9001,-0.000292
15.984,54.9001,-0.000292
16.011,54.9001,0.000122
16.026,54.9001,0.000122
16.042,54.9001,0.000122
16.057,54.9001,0.000122
16.078,54.9001,0.000122
16.104,54.9001,0.000122
16.122,54.9001,0.000122
16.139,54.9001,0.000122
16.154,54.9001,0.000122
16.170,54.9001,0.000122
16.186,54.9001,0.000122
16.204,54.9001,0.000122
16.227,54.9001,0.000122
16.258,54.9001,0.000499
16.289,54.9001,0.000499
16.305,54.9001,0.000499
16.336,54.9001,0.000499
16.367,54.9001,0.000499
16.384,54.9001,0.000499
16.412,54.9001,0.000499
16.442,54.9001,0.000499
16.458,54.9001,0.000499
16.473,54.9001,0.000687
16.490,54.9001,0.000687
16.506,54.9001,0.000687
16.522,54.9001,0.000687
16.551,54.9001,0.000687
16.570,54.9001,0.000687
16.585,54.9001,0.000687
16.602,54.9001,0.000687
16.618,54.9001,0.000687
16.634,54.9001,0.000687
16.650,54.9001,0.000687
16.666,54.9001,0.000687
16.681,54.9001,0.000687
16.698,54.9001,0.000687
16.713,54.9001,0.000734
16.730,54.9001,0.000734
16.746,54.9001,0.000734
16.761,54.9001,0.000734
16.777,54.9001,0.000734
16.794,54.9001,0.000734
16.809,54.9001,0.000734
16.826,54.9001,0.000734
16.841,54.9001,0.000734
16.858,54.9001,0.000734
16.873,54.9001,0.000734
16.890,54.9001,0.000734
16.905,54.9001,0.000734
16.922,54.9001,0.000734
16.938,54.9001,0.000734
16.954,54.9001,0.000734
16.970,54.9001,0.000762
16.986,54.9001,0.000762
17.002,54.9001,0.000762
17.017,54.9001,0.000762
17.036,54.9001,0.000762
17.059,54.9001,0.000762
17.089,54.9001,0.000762
17.120,54.9001,0.000762
17.151,54.9001,0.000762
17.182,54.9001,0.000762
17.198,54.9001,0.000762
17.229,54.9001,0.000762
17.259,54.9001,0.000753
17.275,54.9001,0.000753
17.305,54.9001,0.000753
17.321,54.9001,0.000753
17.337,54.9001,0.000753
17.354,54.9001,0.000753
17.369,54.9001,0.000753
17.385,54.9001,0.000753
17.402,54.9001,0.000753
17.417,54.9001,0.000753
17.434,54.9001,0.000753
17.449,54.9001,0.000753
17.466,54.9001,0.000753
17.482,54.9001,0.000753
17.498,54.9001,0.000753
17.513,54.9001,0.000753
17.529,54.9001,0.000753
17.545,54.9001,0.000753
17.561,54.9001,0.000753
17.577,54.9001,0.000753
17.606,54.9001,0.000753
17.621,54.9001,0.000753
17.637,54.9001,0.000753
17.653,54.9001,0.000753
17.669,54.9001,0.000753
17.685,54.9001,0.000753
17.701,54.9001,0.000753
17.717,54.9001,0.000753
17.733,54.9001,0.000753
17.749,54.9001,0.000753
17.765,54.9001,0.000753
17.781,54.9001,0.000753
17.797,54.9001,0.000753
17.813,54.9001,0.000753
17.829,54.9001,0.000753
17.845,54.9001,0.000753
17.861,54.9001,0.000753
17.877,54.9001,0.000753
17.896,54.9001,0.000753
17.924,54.9001,0.000753
17.941,54.9001,0.000753
17.957,54.9001,0.000753
17.973,54.9001,0.000753
17.989,54.9001,0.000772
18.005,54.9001,0.000772
18.023,54.9001,0.000772
18.048,54.9001,0.000772
18.069,54.9001,0.000772
18.085,54.9001,0.000772
18.101,54.9001,0.000772
18.117,54.9001,0.000772
18.141,54.9001,0.000772
18.156,54.9001,0.000772
18.172,54.9001,0.000772
18.188,54.9001,0.000772
18.204,54.9001,0.000772
18.220,54.9001,0.000772
18.236,54.9001,0.000810
18.252,54.9001,0.000810
18.268,54.9001,0.000810
18.284,54.9001,0.000810
18.300,54.9001,0.000810
18.316,54.9001,0.000810
18.332,54.9001,0.000810
18.348,54.9001,0.000810
18.364,54.9001,0.000810
18.380,54.9001,0.000810
18.397,54.9001,0.000810
18.413,54.9001,0.000810
18.437,54.9001,0.000810
18.452,54.9001,0.000810
18.483,54.9001,0.000810
18.499,54.9001,0.000772
18.530,54.9001,0.000772
18.561,54.9001,0.000772
18.592,54.9001,0.000772
18.607,54.9001,0.000772
18.623,54.9001,0.000772
18.654,54.9001,0.000772
18.685,54.9001,0.000772
18.714,54.9001,0.000772
18.732,54.9001,0.000819
18.748,54.9001,0.000819
18.764,54.9001,0.000819
18.779,54.9001,0.000819
18.796,54.9001,0.000819
18.812,54.9001,0.000819
18.829,54.9001,0.000819
18.853,54.9001,0.000819
18.868,54.9001,0.000819
18.899,54.9001,0.000819
18.914,54.9001,0.000819
18.945,54.9001,0.000819
18.961,54.9001,0.000819
18.990,54.9001,0.000800
19.021,54.9001,0.000800
19.037,54.9001,0.000800
19.068,54.9001,0.000800
19.084,54.9001,0.000800
19.099,54.9001,0.000800
19.115,54.9001,0.000800
19.138,54.9001,0.000800
19.160,54.9001,0.000800
19.179,54.9001,0.000800
19.195,54.9001,0.000800
19.212,54.9001,0.000800
19.228,54.9001,0.000800
19.243,54.9001,0.000762
19.260,54.9001,0.000762
19.275,54.9001,0.000762
19.292,54.9001,0.000762
19.307,54.9001,0.000762
19.324,54.9001,0.000762
19.340,54.9001,0.000762
19.356,54.9001,0.000762
19.372,54.9001,0.000762
19.388,54.9001,0.000762
19.403,54.9001,0.000762
19.419,54.9001,0.000762
19.436,54.9001,0.000762
19.452,54.9001,0.000762
19.468,54.9001,0.000762
19.485,54.9001,0.000753
19.500,54.9001,0.000753
19.515,54.9001,0.000753
19.533,54.9001,0.000753
19.562,54.9001,0.000753
19.579,54.9001,0.000753
19.596,54.9001,0.000753
19.624,54.9001,0.000753
19.643,54.9001,0.000753
19.659,54.9001,0.000753
19.676,54.9001,0.000753
19.691,54.9001,0.000753
19.707,54.9001,0.000753
19.724,54.9001,0.000753
19.739,54.9001,0.000753
19.765,54.9001,0.000819
19.795,54.9001,0.000819
19.811,54.9001,0.000819
19.829,54.9001,0.000819
19.856,54.9001,0.000819
19.876,54.9001,0.000819
19.892,54.9001,0.000819
19.907,54.9001,0.000819
19.923,54.9001,0.000819
19.943,54.9001,0.000819
19.966,54.9001,0.000819
19.988,54.9001,0.000838
20.004,54.9001,0.000838
20.020,54.9001,0.000838
20.036,54.9001,0.000838
20.051,54.9001,0.000838
20.068,54.9001,0.000838
20.084,54.9001,0.000838
20.100,54.9001,0.000838
20.115,54.9001,0.000838
20.131,54.9001,0.000838
20.147,54.9001,0.000838
20.163,54.9001,0.000838
20.179,54.9001,0.000838
20.195,54.9001,0.000838
20.211,54.9001,0.000838
20.227,54.9001,0.000631
20.243,54.9001,0.000631
20.260,54.9001,0.000631
20.276,54.9001,0.000631
20.291,54.9001,0.000631
20.317,54.9001,0.000631
20.333,54.9001,0.000631
20.349,54.9001,0.000631
20.366,54.9001,0.000631
20.382,54.9001,0.000631
20.398,54.9001,0.000631
20.428,54.9001,0.000631
20.446,54.9001,0.000631
20.461,54.9001,0.000631
20.477,54.9001,0.000471
20.494,54.9001,0.000471
20.510,54.9001,0.000471
20.538,54.9001,0.000471
20.557,54.9001,0.000471
20.577,54.9001,0.000471
20.599,54.9001,0.000471
20.614,54.9001,0.000471
20.645,54.9000,0.000471
20.676,54.8991,0.000471
20.712,54.8972,0.000471
20.733,54.8956,0.000329
20.749,54.8943,0.000329
20.765,54.8926,0.000329
20.782,54.8908,0.000329
20.797,54.8888,0.000329
20.814,54.8864,0.000329
20.829,54.8841,0.000329
20.845,54.8816,0.000329
20.872,54.8769,0.000329
20.888,54.8739,0.000329
20.904,54.8706,0.000329
20.920,54.8671,0.000329
20.936,54.8633,0.000329
20.952,54.8593,0.000329
20.968,54.8556,0.001393
20.984,54.8512,0.001393
21.001,54.8464,0.001393
21.016,54.8420,0.001393
21.033,54.8368,0.001393
21.048,54.8322,0.001393
21.064,54.8269,0.001393
21.080,54.8217,0.001393
21.096,54.8160,0.001393
21.112,54.8100,0.001393
21.128,54.8040,0.001393
21.144,54.7979,0.001393
21.160,54.7916,0.001393
21.176,54.7849,0.001393
21.192,54.7781,0.001393
21.208,54.7710,0.001393
21.224,54.7643,0.005733
21.240,54.7568,0.005733
21.257,54.7487,0.005733
21.278,54.7380,0.005733
21.309,54.7225,0.005733
21.341,54.7056,0.005733
21.372,54.6884,0.005733
21.396,54.6750,0.005733
21.412,54.6653,0.005733
21.428,54.6559,0.005733
21.445,54.6452,0.005733
21.465,54.6321,0.007738
21.481,54.6227,0.007738
21.497,54.6121,0.007738
21.527,54.5913,0.007738
21.558,54.5703,0.007738
21.574,54.5588,0.007738
21.590,54.5476,0.007738
21.605,54.5363,0.007738
21.636,54.5130,0.007738
21.652,54.5006,0.007738
21.668,54.4878,0.007738
21.684,54.4749,0.007738
21.700,54.4625,0.007738
21.715,54.4496,0.008387
21.732,54.4364,0.008387
21.748,54.4219,0.008387
21.764,54.4086,0.008387
21.780,54.3948,0.008387
21.796,54.3807,0.008387
21.812,54.3657,0.008387
21.828,54.3520,0.008387
21.843,54.3374,0.008387
21.860,54.3229,0.008387
21.876,54.3069,0.008387
21.892,54.2921,0.008387
21.908,54.2764,0.008387
21.940,54.2455,0.008387
21.956,54.2289,0.008387
21.977,54.2072,0.013508
22.008,54.1749,0.013508
22.038,54.1438,0.013508
22.054,54.1268,0.013508
22.085,54.0929,0.013508
22.101,54.0753,0.013508
22.132,54.0399,0.013508
22.162,54.0051,0.013508
22.181,53.9821,0.013508
22.209,53.9502,0.009018
22.227,53.9285,0.009018
22.243,53.9089,0.009018
22.258,53.8897,0.009018
22.275,53.8695,0.009018
22.291,53.8492,0.009018
22.307,53.8289,0.009018
22.323,53.8087,0.009018
22.339,53.7881,0.009018
22.355,53.7670,0.009018
22.371,53.7459,0.009018
22.387,53.7240,0.009018
22.410,53.6942,0.009018
22.441,53.6515,0.009018
22.471,53.6091,0.009018
22.488,53.5859,0.001356
22.518,53.5438,0.001356
22.548,53.4985,0.001356
22.563,53.4765,0.001356
22.579,53.4540,0.001356
22.594,53.4315,0.001356
22.611,53.4062,0.001356
22.627,53.3823,0.001356
22.656,53.3385,0.001356
22.676,53.3065,0.001356
22.703,53.2643,0.001506
22.723,53.2341,0.001506
22.739,53.2078,0.001506
22.755,53.1824,0.001506
22.771,53.1566,0.001506
22.786,53.1310,0.001506
22.803,53.1024,0.001506
22.819,53.0771,0.001506
22.843,53.0366,0.001506
22.860,53.0084,0.001506
22.889,52.9583,0.001506
22.920,52.9054,0.001506
22.951,52.8516,0.001506
22.982,52.7975,0.001638
23.006,52.7529,0.001638
23.021,52.7261,0.001638
23.037,52.6961,0.001638
23.054,52.6666,0.001638
23.070,52.6370,0.001638
23.085,52.6084,0.001638
23.101,52.5784,0.001638
23.117,52.5485,0.001638
23.133,52.5183,0.001638
23.149,52.4872,0.001638
23.165,52.4568,0.001638
23.181,52.4259,0.001638
23.198,52.3938,0.001638
23.213,52.3632,0.001854
23.230,52.3312,0.001854
23.245,52.2997,0.001854
23.262,52.2681,0.001854
23.277,52.2364,0.001854
23.293,52.2051,0.001854
23.309,52.1722,0.001854
23.325,52.1383,0.001854
23.342,52.1045,0.001854
23.372,52.0433,0.001854
23.389,52.0067,0.001854
23.406,51.9715,0.001854
23.421,51.9392,0.001854
23.437,51.9054,0.001854
23.453,51.8723,0.001854
23.469,51.8355,0.001854
23.485,51.8030,0.001854
23.501,51.7692,0.002052
23.532,51.7046,0.002052
23.548,51.6715,0.002052
23.564,51.6388,0.002052
23.580,51.6060,0.002052
23.597,51.5728,0.002052
23.613,51.5398,0.002052
23.635,51.4945,0.002052
23.667,51.4315,0.002052
23.697,51.3730,0.002052
23.728,51.3120,0.002052
23.743,51.2827,0.002146
23.774,51.2235,0.002146
23.791,51.1920,0.002146
23.821,51.1359,0.002146
23.852,51.0792,0.002146
23.868,51.0498,0.002146
23.884,51.0201,0.002146
23.901,50.9879,0.002146
23.917,50.9619,0.002146
23.932,50.9346,0.002146
23.948,50.9057,0.002146
23.964,50.8781,0.002146
23.980,50.8504,0.002146
23.997,50.8197,0.002297
24.012,50.7942,0.002297
24.028,50.7664,0.002297
24.045,50.7381,0.002297
24.060,50.7129,0.002297
24.084,50.6725,0.002297
24.100,50.6470,0.002297
24.116,50.6207,0.002297
24.132,50.5945,0.002297
24.149,50.5666,0.002297
24.178,50.5198,0.002297
24.196,50.4916,0.002297
24.212,50.4655,0.002297
24.228,50.4419,0.002297
24.244,50.4175,0.002655
24.261,50.3910,0.002655
24.281,50.3607,0.002655
24.302,50.3295,0.002655
24.317,50.3051,0.002655
24.340,50.2722,0.002655
24.356,50.2498,0.002655
24.372,50.2266,0.002655
24.388,50.2023,0.002655
24.410,50.1714,0.002655
24.441,50.1278,0.002655
24.457,50.1063,0.002655
24.487,50.0642,0.002946
24.518,50.0232,0.002946
24.549,49.9823,0.002946
24.564,49.9627,0.002946
24.581,49.9401,0.002946
24.611,49.9033,0.002946
24.641,49.8655,0.002946
24.657,49.8448,0.002946
24.673,49.8262,0.002946
24.689,49.8066,0.002946
24.706,49.7866,0.002946
24.735,49.7515,0.003182
24.753,49.7315,0.003182
24.772,49.7090,0.003182
24.796,49.6822,0.003182
24.817,49.6586,0.003182
24.833,49.6411,0.003182
24.849,49.6240,0.003182
24.865,49.6063,0.003182
24.881,49.5888,0.003182
24.898,49.5717,0.003182
24.913,49.5563,0.003182
24.929,49.5400,0.003182
24.945,49.5233,0.003182
24.961,49.5071,0.003182
24.977,49.4919,0.003182
24.993,49.4763,0.003332
25.009,49.4604,0.003332
25.025,49.4445,0.003332
25.040,49.4303,0.003332
25.057,49.4152,0.003332
25.073,49.4005,0.003332
25.089,49.3860,0.003332
25.104,49.3720,0.003332
25.121,49.3575,0.003332
25.137,49.3432,0.003332
25.153,49.3295,0.003332
25.169,49.3163,0.003332
25.199,49.2916,0.003332
25.215,49.2782,0.003332
25.245,49.2548,0.003361
25.262,49.2411,0.003361
25.278,49.2290,0.003361
25.293,49.2176,0.003361
25.310,49.2054,0.003361
25.326,49.1934,0.003361
25.342,49.1821,0.003361
25.358,49.1711,0.003361
25.374,49.1600,0.003361
25.394,49.1465,0.003361
25.417,49.1311,0.003361
25.438,49.1175,0.003361
25.454,49.1075,0.003361
25.470,49.0973,0.003361
25.485,49.0884,0.003464
25.503,49.0779,0.003464
25.530,49.0623,0.003464
25.550,49.0509,0.003464
25.570,49.0396,0.003464
25.601,49.0239,0.003464
25.632,49.0082,0.003464
25.647,49.0007,0.003464
25.678,48.9869,0.003464
25.695,48.9786,0.003464
25.710,48.9726,0.003464
25.725,48.9659,0.003464
25.755,48.9537,0.003455
25.770,48.9478,0.003455
25.786,48.9418,0.003455
25.802,48.9359,0.003455
25.819,48.9302,0.003455
25.834,48.9249,0.003455
25.850,48.9196,0.003455
25.867,48.9143,0.003455
25.887,48.9079,0.003455
25.912,48.9008,0.003455
25.931,48.8957,0.003455
25.946,48.8919,0.003455
25.963,48.8879,0.003455
25.978,48.8842,0.003389
25.994,48.8807,0.003389
26.011,48.8771,0.003389
26.026,48.8742,0.003389
26.042,48.8713,0.003389
26.058,48.8685,0.003389
26.075,48.8659,0.003389
26.090,48.8635,0.003389
26.106,48.8614,0.003389
26.123,48.8593,0.003389
26.139,48.8575,0.003389
26.155,48.8559,0.003389
26.170,48.8546,0.003389
26.186,48.8533,0.003389
26.202,48.8523,0.003389
26.218,48.8515,0.003323
26.234,48.8508,0.003323
26.251,48.8504,0.003323
26.266,48.8501,0.003323
26.283,48.8501,0.003323
26.313,48.8501,0.003323
26.330,48.8501,0.003323
26.346,48.8501,0.003323
26.361,48.8501,0.003323
26.378,48.8501,0.003323
26.394,48.8501,0.003323
26.409,48.8501,0.003323
26.425,48.8501,0.003323
26.442,48.8502,0.003323
26.458,48.8504,0.003304
26.473,48.8508,0.003304
26.489,48.8515,0.003304
26.505,48.8523,0.003304
26.521,48.8533,0.003304
26.537,48.8546,0.003304
26.553,48.8559,0.003304
26.569,48.8575,0.003304
26.585,48.8593,0.003304
26.601,48.8614,0.003304
26.617,48.8635,0.003304
26.633,48.8660,0.003304
26.649,48.8685,0.003304
26.665,48.8713,0.003304
26.685,48.8749,0.003304
26.701,48.8781,0.003304
26.716,48.8816,0.003285
26.732,48.8850,0.003285
26.748,48.8886,0.003285
26.778,48.8964,0.003285
26.794,48.9007,0.003285
26.809,48.9049,0.003285
26.825,48.9095,0.003285
26.854,48.9188,0.003285
26.871,48.9240,0.003285
26.886,48.9292,0.003285
26.902,48.9347,0.003285
26.919,48.9411,0.003285
26.934,48.9467,0.003285
26.950,48.9528,0.003285
26.966,48.9591,0.003210
26.982,48.9658,0.003210
26.999,48.9730,0.003210
27.014,48.9800,0.003210
27.030,48.9870,0.003210
27.046,48.9943,0.003210
27.062,49.0017,0.003210
27.078,49.0096,0.003210
27.094,49.0174,0.003210
27.110,49.0255,0.003210
27.126,49.0339,0.003210
27.142,49.0425,0.003210
27.159,49.0515,0.003210
27.178,49.0623,0.003210
27.210,49.0807,0.003210
27.225,49.0906,0.003210
27.241,49.0995,0.003285
27.272,49.1192,0.003285
27.287,49.1292,0.003285
27.317,49.1490,0.003285
27.335,49.1605,0.003285
27.350,49.1710,0.003285
27.366,49.1825,0.003285
27.394,49.2031,0.003285
27.410,49.2142,0.003285
27.426,49.2260,0.003285
27.442,49.2383,0.003285
27.458,49.2513,0.003285
27.474,49.2635,0.003285
27.490,49.2759,0.003361
27.506,49.2895,0.003361
27.522,49.3024,0.003361
27.538,49.3153,0.003361
27.554,49.3288,0.003361
27.570,49.3427,0.003361
27.586,49.3570,0.003361
27.602,49.3711,0.003361
27.618,49.3846,0.003361
27.634,49.4001,0.003361
27.651,49.4154,0.003361
27.671,49.4339,0.003361
27.687,49.4501,0.003361
27.719,49.4806,0.003361
27.749,49.5108,0.003455
27.766,49.5273,0.003455
27.797,49.5583,0.003455
27.829,49.5923,0.003455
27.859,49.6238,0.003455
27.874,49.6404,0.003455
27.891,49.6592,0.003455
27.906,49.6756,0.003455
27.921,49.6932,0.003455
27.951,49.7265,0.003455
27.967,49.7457,0.003455
27.982,49.7635,0.003445
27.999,49.7825,0.003445
28.015,49.8031,0.003445
28.031,49.8217,0.003445
28.047,49.8411,0.003445
28.064,49.8619,0.003445
28.084,49.8878,0.003445
28.104,49.9127,0.003445
28.135,49.9517,0.003445
28.166,49.9930,0.003445
28.197,50.0332,0.003445
28.228,50.0757,0.003257
28.258,50.1166,0.003257
28.274,50.1395,0.003257
28.290,50.1619,0.003257
28.320,50.2046,0.003257
28.351,50.2486,0.003257
28.367,50.2722,0.003257
28.383,50.2962,0.003257
28.398,50.3179,0.003257
28.414,50.3420,0.003257
28.431,50.3665,0.003257
28.447,50.3918,0.003257
28.462,50.4152,0.003257
28.478,50.4398,0.003257
28.504,50.4808,0.003059
28.521,50.5062,0.003059
28.536,50.5311,0.003059
28.552,50.5567,0.003059
28.569,50.5842,0.003059
28.584,50.6085,0.003059
28.600,50.6346,0.003059
28.617,50.6628,0.003059
28.635,50.6926,0.003059
28.651,50.7204,0.003059
28.673,50.7560,0.003059
28.689,50.7851,0.003059
28.719,50.8366,0.002899
28.750,50.8898,0.002899
28.781,50.9460,0.002899
28.813,51.0008,0.002899
28.829,51.0304,0.002899
28.860,51.0867,0.002899
28.891,51.1444,0.002899
28.921,51.2013,0.002899
28.937,51.2314,0.002899
28.953,51.2616,0.002899
28.983,51.3187,0.002683
29.000,51.3524,0.002683
29.017,51.3856,0.002683
29.032,51.4149,0.002683
29.059,51.4690,0.002683
29.076,51.5015,0.002683
29.091,51.5327,0.002683
29.107,51.5649,0.002683
29.126,51.6031,0.002683
29.153,51.6589,0.002683
29.171,51.6961,0.002683
29.188,51.7304,0.002683
29.203,51.7632,0.002683
29.221,51.7994,0.002316
29.245,51.8516,0.002316
29.260,51.8843,0.002316
29.292,51.9522,0.002316
29.309,51.9858,0.002316
29.338,52.0473,0.002316
29.369,52.1109,0.002316
29.400,52.1732,0.002316
29.415,52.2048,0.002316
29.447,52.2669,0.002316
29.476,52.3235,0.002109
29.507,52.3837,0.002109
29.523,52.4144,0.002109
29.539,52.4462,0.002109
29.556,52.4774,0.002109
29.573,52.5093,0.002109
29.600,52.5600,0.002109
29.619,52.5959,0.002109
29.636,52.6271,0.002109
29.651,52.6544,0.002109
29.667,52.6832,0.002109
29.683,52.7122,0.002109
29.700,52.7417,0.002109
29.715,52.7690,0.002014
29.731,52.7976,0.002014
29.747,52.8262,0.002014
29.763,52.8535,0.002014
29.779,52.8820,0.002014
29.795,52.9093,0.002014
29.811,52.9366,0.002014
29.827,52.9627,0.002014
29.843,52.9906,0.002014
29.859,53.0174,0.002014
29.875,53.0438,0.002014
29.891,53.0706,0.002014
29.907,53.0972,0.002014
29.923,53.1230,0.002014
29.940,53.1497,0.002014
29.969,53.1956,0.001854
29.989,53.2275,0.001854
30.015,53.2686,0.001854
30.035,53.2988,0.001854
30.051,53.3229,0.001854
30.067,53.3469,0.001854
30.083,53.3721,0.001854
30.099,53.3949,0.001854
30.116,53.4209,0.001854
30.140,53.4555,0.001854
30.156,53.4784,0.001854
30.177,53.5088,0.001854
30.193,53.5322,0.001854
30.209,53.5539,0.001610
30.225,53.5761,0.001610
30.241,53.5990,0.001610
30.257,53.6203,0.001610
30.273,53.6414,0.001610
30.289,53.6635,0.001610
30.305,53.6853,0.001610
30.321,53.7056,0.001610
30.337,53.7268,0.001610
30.353,53.7474,0.001610
30.369,53.7683,0.001610
30.385,53.7882,0.001610
30.401,53.8084,0.001610
30.418,53.8303,0.001610
30.433,53.8490,0.001610
30.449,53.8688,0.001610
30.465,53.8881,0.001356
30.481,53.9073,0.001356
30.497,53.9261,0.001356
30.513,53.9444,0.001356
30.529,53.9632,0.001356
30.545,53.9824,0.001356
30.561,53.9997,0.001356
30.576,54.0174,0.001356
30.594,54.0369,0.001356
30.610,54.0541,0.001356
30.636,54.0829,0.001356
30.657,54.1049,0.001356
30.673,54.1230,0.001356
30.689,54.1390,0.001356
30.705,54.1561,0.001356
30.729,54.1796,0.001224
30.746,54.1971,0.001224
30.776,54.2261,0.001224
30.800,54.2495,0.001224
30.823,54.2709,0.001224
30.844,54.2911,0.001224
30.868,54.3131,0.001224
30.889,54.3311,0.001224
30.905,54.3460,0.001224
30.921,54.3598,0.001224
30.936,54.3725,0.001224
30.952,54.3860,0.001224
30.969,54.4002,0.001120
30.986,54.4139,0.001120
31.006,54.4297,0.001120
31.022,54.4427,0.001120
31.056,54.4695,0.001120
31.085,54.4902,0.001120
31.115,54.5130,0.001120
31.130,54.5237,0.001120
31.146,54.5341,0.001120
31.176,54.5548,0.001120
31.192,54.5657,0.001120
31.209,54.5759,0.001120
31.224,54.5859,0.001120
31.240,54.5959,0.001120
31.267,54.6125,0.001035
31.284,54.6223,0.001035
31.300,54.6315,0.001035
31.316,54.6409,0.001035
31.335,54.6512,0.001035
31.362,54.6659,0.001035
31.380,54.6750,0.001035
31.397,54.6845,0.001035
31.424,54.6976,0.001035
31.444,54.7064,0.001035
31.460,54.7141,0.001035
31.475,54.7209,0.001035
31.492,54.7281,0.000857
31.508,54.7351,0.000857
31.526,54.7427,0.000857
31.548,54.7510,0.000857
31.579,54.7628,0.000857
31.611,54.7737,0.000857
31.627,54.7792,0.000857
31.643,54.7846,0.000857
31.674,54.7937,0.000857
31.704,54.8022,0.000857
31.721,54.8066,0.000857
31.750,54.8139,0.000480
31.782,54.8211,0.000480
31.814,54.8273,0.000480
31.830,54.8300,0.000480
31.860,54.8350,0.000480
31.875,54.8372,0.000480
31.891,54.8393,0.000480
31.907,54.8413,0.000480
31.923,54.8430,0.000480
31.941,54.8448,0.000480
31.968,54.8469,-0.000104
31.987,54.8481,-0.000104
32.004,54.8489,-0.000104
32.019,54.8495,-0.000104
32.036,54.8499,-0.000104
32.051,54.8501,-0.000104
32.067,54.8501,-0.000104
32.083,54.8501,-0.000104
32.099,54.8501,-0.000104
32.115,54.8501,-0.000104
32.132,54.8501,-0.000104
32.148,54.8501,-0.000104
32.163,54.8501,-0.000104
32.180,54.8501,-0.000104
32.195,54.8501,-0.000104
32.211,54.8501,-0.000104
32.227,54.8501,-0.000226
32.243,54.8501,-0.000226
32.259,54.8501,-0.000226
32.275,54.8501,-0.000226
32.291,54.8501,-0.000226
32.307,54.8501,-0.000226
32.323,54.8501,-0.000226
32.339,54.8501,-0.000226
32.355,54.8501,-0.000226
32.371,54.8501,-0.000226
32.387,54.8501,-0.000226
32.403,54.8501,-0.000226
32.419,54.8501,-0.000226
32.437,54.8501,-0.000226
32.465,54.8501,0.000226
32.483,54.8501,0.000226
32.500,54.8501,0.000226
32.528,54.8501,0.000226
32.547,54.8501,0.000226
32.564,54.8501,0.000226
32.579,54.8501,0.000226
32.595,54.8501,0.000226
32.611,54.8501,0.000226
32.628,54.8501,0.000226
32.643,54.8501,0.000226
32.659,54.8501,0.000226
32.675,54.8501,0.000226
32.691,54.8501,0.000226
32.707,54.8501,0.000593
32.723,54.8501,0.000593
32.739,54.8501,0.000593
32.755,54.8501,0.000593
32.771,54.8501,0.000593
32.787,54.8501,0.000593
32.804,54.8501,0.000593
32.819,54.8501,0.000593
32.843,54.8501,0.000593
32.858,54.8501,0.000593
32.874,54.8501,0.000593
32.890,54.8501,0.000593
32.906,54.8501,0.000593
32.922,54.8501,0.000593
32.938,54.8501,0.000593
32.954,54.8501,0.000593
32.971,54.8501,0.000593
32.992,54.8501,0.000706
33.008,54.8501,0.000706
33.024,54.8501,0.000706
33.054,54.8501,0.000706
33.069,54.8501,0.000706
33.086,54.8501,0.000706
33.117,54.8501,0.000706
33.148,54.8501,0.000706
33.163,54.8501,0.000706
33.179,54.8501,0.000706
33.194,54.8501,0.000706
33.210,54.8501,0.000706
33.227,54.8501,0.000753
33.256,54.8501,0.000753
33.274,54.8501,0.000753
33.289,54.8501,0.000753
33.306,54.8501,0.000753
33.322,54.8501,0.000753
33.338,54.8501,0.000753
33.354,54.8501,0.000753
33.380,54.8501,0.000753
33.396,54.8501,0.000753
33.412,54.8501,0.000753
33.428,54.8501,0.000753
33.445,54.8501,0.000753
33.473,54.8501,0.000800
33.492,54.8501,0.000800
33.508,54.8501,0.000800
33.523,54.8501,0.000800
33.540,54.8501,0.000800
33.556,54.8501,0.000800
33.575,54.8501,0.000800
33.598,54.8501,0.000800
33.613,54.8501,0.000800
33.644,54.8501,0.000800
33.675,54.8501,0.000800
33.706,54.8501,0.000800
33.736,54.8501,0.000772
33.752,54.8501,0.000772
33.768,54.8501,0.000772
33.798,54.8501,0.000772
33.829,54.8501,0.000772
33.844,54.8501,0.000772
33.859,54.8501,0.000772
33.877,54.8501,0.000772
33.893,54.8501,0.000772
33.922,54.8501,0.000772
33.940,54.8501,0.000772
33.969,54.8501,0.000725
33.988,54.8501,0.000725
34.004,54.8501,0.000725
34.019,54.8501,0.000725
34.036,54.8501,0.000725
34.052,54.8501,0.000725
34.068,54.8501,0.000725
34.083,54.8501,0.000725
34.099,54.8501,0.000725
34.116,54.8501,0.000725
34.132,54.8501,0.000725
34.147,54.8501,0.000725
34.163,54.8501,0.000725
34.180,54.8501,0.000725
34.196,54.8501,0.000725
34.211,54.8501,0.000725
34.227,54.8501,0.000753
34.243,54.8501,0.000753
34.260,54.8501,0.000753
34.275,54.8501,0.000753
34.291,54.8501,0.000753
34.308,54.8501,0.000753
34.324,54.8501,0.000753
34.339,54.8501,0.000753
34.355,54.8501,0.000753
34.371,54.8501,0.000753
34.387,54.8501,0.000753
34.404,54.8501,0.000753
34.419,54.8501,0.000753
34.435,54.8501,0.000753
34.459,54.8501,0.000753
34.475,54.8501,0.000753
34.491,54.8501,0.000800
34.507,54.8501,0.000800
34.524,54.8501,0.000800
34.539,54.8501,0.000800
34.555,54.8501,0.000800
34.571,54.8501,0.000800
34.588,54.8501,0.000800
34.603,54.8501,0.000800
34.619,54.8501,0.000800
34.635,54.8501,0.000800
34.651,54.8501,0.000800
34.668,54.8501,0.000800
34.683,54.8501,0.000800
34.699,54.8501,0.000800
34.716,54.8501,0.000800
34.731,54.8501,0.000810
34.747,54.8501,0.000810
34.763,54.8501,0.000810
34.779,54.8501,0.000810
34.795,54.8501,0.000810
34.811,54.8501,0.000810
34.829,54.8501,0.000810
34.855,54.8501,0.000810
34.875,54.8501,0.000810
34.891,54.8501,0.000810
34.907,54.8501,0.000810
34.923,54.8501,0.000810
34.939,54.8501,0.000810
34.955,54.8501,0.000810
34.971,54.8501,0.000810
34.987,54.8501,0.000810
35.011,54.8501,0.000800
35.026,54.8501,0.000800
35.042,54.8501,0.000800
35.058,54.8501,0.000800
35.074,54.8501,0.000800
35.090,54.8501,0.000800
35.106,54.8501,0.000800
35.122,54.8501,0.000800
35.138,54.8501,0.000800
35.154,54.8501,0.000800
35.170,54.8501,0.000800
35.186,54.8501,0.000800
35.202,54.8501,0.000800
35.218,54.8501,0.000810
35.234,54.8501,0.000810
35.250,54.8501,0.000810
35.265,54.8501,0.000810
35.282,54.8501,0.000810
35.298,54.8501,0.000810
35.314,54.8501,0.000810
35.330,54.8501,0.000810
35.346,54.8501,0.000810
35.362,54.8501,0.000810
35.378,54.8501,0.000810
35.395,54.8501,0.000810
35.410,54.8501,0.000810
35.426,54.8501,0.000810
35.442,54.8501,0.000810
35.458,54.8501,0.000810
35.474,54.8501,0.000819
35.489,54.8501,0.000819
35.512,54.8501,0.000819
35.535,54.8501,0.000819
35.569,54.8501,0.000819
35.585,54.8501,0.000819
35.601,54.8501,0.000819
35.617,54.8501,0.000819
35.635,54.8501,0.000819
35.660,54.8501,0.000819
35.681,54.8501,0.000819
35.697,54.8501,0.000819
35.713,54.8501,0.000819
35.729,54.8501,0.000828
35.745,54.8501,0.000828
35.761,54.8501,0.000828
35.777,54.8501,0.000828
35.793,54.8501,0.000828
35.809,54.8501,0.000828
35.825,54.8501,0.000828
35.841,54.8501,0.000828
35.857,54.8501,0.000828
35.873,54.8501,0.000828
35.889,54.8501,0.000828
35.905,54.8501,0.000828
35.921,54.8501,0.000828
35.937,54.8501,0.000828
35.955,54.8501,0.000828
35.971,54.8501,0.000828
36.001,54.8501,0.000857
36.017,54.8501,0.000857
36.032,54.8501,0.000857
36.049,54.8501,0.000857
36.066,54.8501,0.000857
36.094,54.8501,0.000857
36.125,54.8501,0.000857
36.141,54.8501,0.000857
36.156,54.8501,0.000857
36.172,54.8501,0.000857
36.189,54.8501,0.000857
36.204,54.8501,0.000857
36.221,54.8501,0.000857
36.237,54.8501,0.000857
36.254,54.8501,0.000857
36.270,54.8501,0.000857
36.285,54.8501,0.000857
36.304,54.8501,0.000857
36.328,54.8501,0.000857
36.349,54.8501,0.000857
36.365,54.8501,0.000857
36.381,54.8501,0.000857
36.397,54.8501,0.000857
36.413,54.8501,0.000857
36.429,54.8501,0.000857
36.445,54.8501,0.000857
36.460,54.8501,0.000857
36.476,54.8501,0.000810
36.492,54.8501,0.000810
36.509,54.8501,0.000810
36.524,54.8501,0.000810
36.540,54.8501,0.000810
36.557,54.8501,0.000810
36.575,54.8501,0.000810
36.591,54.8501,0.000810
36.607,54.8501,0.000810
36.638,54.8501,0.000810
36.668,54.8501,0.000810
36.685,54.8501,0.000810
36.701,54.8501,0.000810
36.717,54.8501,0.000602
36.733,54.8501,0.000602
36.755,54.8501,0.000602
36.778,54.8501,0.000602
36.796,54.8501,0.000602
36.813,54.8501,0.000602
36.828,54.8501,0.000602
36.845,54.8501,0.000602
36.860,54.8501,0.000602
36.876,54.8501,0.000602
36.893,54.8501,0.000602
36.908,54.8501,0.000602
36.925,54.8501,0.000602
36.941,54.8501,0.000602
36.956,54.8501,0.000602
36.972,54.8501,0.000424
36.989,54.8501,0.000424
37.005,54.8501,0.000424
37.021,54.8501,0.000424
37.036,54.8501,0.000424
37.053,54.8500,0.000424
37.068,54.8496,0.000424
37.085,54.8491,0.000424
37.101,54.8484,0.000424
37.117,54.8475,0.000424
37.133,54.8464,0.000424
37.148,54.8451,0.000424
37.172,54.8429,0.000424
37.196,54.8401,0.000424
37.215,54.8377,0.000424
37.241,54.8339,0.000329
37.260,54.8309,0.000329
37.275,54.8280,0.000329
37.291,54.8251,0.000329
37.307,54.8218,0.000329
37.323,54.8185,0.000329
37.340,54.8148,0.000329
37.355,54.8110,0.000329
37.373,54.8067,0.000329
37.397,54.8001,0.000329
37.428,54.7912,0.000329
37.459,54.7818,0.000329
37.489,54.7716,0.002824
37.519,54.7611,0.002824
37.550,54.7490,0.002824
37.581,54.7369,0.002824
37.612,54.7237,0.002824
37.628,54.7167,0.002824
37.643,54.7097,0.002824
37.665,54.6993,0.002824
37.689,54.6878,0.002824
37.707,54.6787,0.002824
37.735,54.6644,0.007201
37.751,54.6558,0.007201
37.766,54.6473,0.007201
37.782,54.6384,0.007201
37.799,54.6284,0.007201
37.814,54.6194,0.007201
37.830,54.6102,0.007201
37.846,54.6006,0.007201
37.863,54.5903,0.007201
37.878,54.5805,0.007201
37.894,54.5702,0.007201
37.910,54.5595,0.007201
37.926,54.5484,0.007201
37.942,54.5379,0.007201
37.958,54.5267,0.008133
37.974,54.5157,0.008133
37.991,54.5032,0.008133
38.018,54.4837,0.008133
38.038,54.4687,0.008133
38.054,54.4560,0.008133
38.070,54.4436,0.008133
38.086,54.4313,0.008133
38.102,54.4185,0.008133
38.118,54.4049,0.008133
38.134,54.3923,0.008133
38.150,54.3789,0.008133
38.166,54.3649,0.008133
38.183,54.3507,0.008133
38.202,54.3332,0.008133
38.218,54.3189,0.009874
38.249,54.2915,0.009874
38.280,54.2625,0.009874
38.310,54.2335,0.009874
38.326,54.2183,0.009874
38.342,54.2030,0.009874
38.358,54.1862,0.009874
38.374,54.1701,0.009874
38.390,54.1537,0.009874
38.406,54.1376,0.009874
38.422,54.1200,0.009874
38.438,54.1040,0.009874
38.454,54.0869,0.011239
38.471,54.0688,0.011239
38.493,54.0445,0.011239
38.513,54.0227,0.011239
38.534,53.9989,0.011239
38.550,53.9801,0.011239
38.566,53.9622,0.011239
38.582,53.9436,0.011239
38.598,53.9246,0.011239
38.614,53.9049,0.011239
38.630,53.8866,0.011239
38.646,53.8666,0.011239
38.662,53.8469,0.011239
38.678,53.8272,0.011239
38.694,53.8073,0.011239
38.710,53.7876,0.011239
38.726,53.7655,0.005686
38.743,53.7452,0.005686
38.773,53.7059,0.005686
38.790,53.6832,0.005686
38.806,53.6616,0.005686
38.822,53.6406,0.005686
38.839,53.6172,0.005686
38.856,53.5933,0.005686
38.881,53.5578,0.005686
38.902,53.5296,0.005686
38.918,53.5069,0.005686
38.934,53.4834,0.005686
38.950,53.4613,0.005686
38.966,53.4380,0.001412
38.982,53.4144,0.001412
38.998,53.3911,0.001412
39.014,53.3669,0.001412
39.030,53.3420,0.001412
39.046,53.3188,0.001412
39.061,53.2945,0.001412
39.079,53.2678,0.001412
39.097,53.2383,0.001412
39.114,53.2130,0.001412
39.130,53.1860,0.001412
39.147,53.1595,0.001412
39.177,53.1123,0.001412
39.193,53.0855,0.001412
39.209,53.0591,0.001412
39.239,53.0094,0.001534
39.270,52.9566,0.001534
39.285,52.9312,0.001534
39.302,52.9038,0.001534
39.332,52.8516,0.001534
39.347,52.8253,0.001534
39.362,52.7984,0.001534
39.378,52.7700,0.001534
39.395,52.7391,0.001534
39.410,52.7128,0.001534
39.427,52.6835,0.001534
39.443,52.6543,0.001534
39.459,52.6241,0.001534
39.475,52.5954,0.001534
39.491,52.5642,0.001704
39.506,52.5366,0.001704
39.524,52.5043,0.001704
39.539,52.4748,0.001704
39.563,52.4272,0.001704
39.595,52.3682,0.001704
39.625,52.3085,0.001704
39.640,52.2790,0.001704
39.656,52.2487,0.001704
39.686,52.1868,0.001704
39.702,52.1562,0.001704
39.717,52.1236,0.001704
39.748,52.0613,0.001977
39.764,52.0296,0.001977
39.795,51.9647,0.001977
39.810,51.9322,0.001977
39.828,51.8954,0.001977
39.857,51.8329,0.001977
39.888,51.7685,0.001977
39.904,51.7340,0.001977
39.919,51.7019,0.001977
39.935,51.6684,0.001977
39.952,51.6336,0.001977
39.968,51.5997,0.001977
39.997,51.5417,0.002203
40.016,51.5009,0.002203
40.032,51.4711,0.002203
40.047,51.4398,0.002203
40.064,51.4073,0.002203
40.080,51.3755,0.002203
40.096,51.3433,0.002203
40.112,51.3116,0.002203
40.128,51.2817,0.002203
40.144,51.2492,0.002203
40.160,51.2203,0.002203
40.175,51.1905,0.002203
40.191,51.1598,0.002203
40.208,51.1279,0.002203
40.223,51.0996,0.002297
40.239,51.0702,0.002297
40.255,51.0406,0.002297
40.271,51.0113,0.002297
40.288,50.9817,0.002297
40.304,50.9524,0.002297
40.319,50.9239,0.002297
40.335,50.8955,0.002297
40.351,50.8668,0.002297
40.368,50.8384,0.002297
40.383,50.8110,0.002297
40.400,50.7823,0.002297
40.416,50.7551,0.002297
40.445,50.7034,0.002297
40.461,50.6771,0.002297
40.477,50.6503,0.002542
40.493,50.6240,0.002542
40.509,50.5972,0.002542
40.525,50.5712,0.002542
40.541,50.5448,0.002542
40.557,50.5191,0.002542
40.574,50.4914,0.002542
40.601,50.4479,0.002542
40.621,50.4169,0.002542
40.638,50.3912,0.002542
40.664,50.3497,0.002542
40.685,50.3185,0.002542
40.702,50.2935,0.002542
40.717,50.2709,0.002542
40.733,50.2459,0.002871
40.749,50.2234,0.002871
40.765,50.2002,0.002871
40.781,50.1767,0.002871
40.797,50.1540,0.002871
40.813,50.1311,0.002871
40.829,50.1082,0.002871
40.845,50.0860,0.002871
40.862,50.0632,0.002871
40.878,50.0409,0.002871
40.893,50.0198,0.002871
40.909,49.9981,0.002871
40.925,49.9760,0.002871
40.949,49.9437,0.002871
40.972,49.9146,0.002871
40.989,49.8920,0.002871
41.005,49.8718,0.003031
41.021,49.8512,0.003031
41.037,49.8321,0.003031
41.053,49.8123,0.003031
41.069,49.7926,0.003031
41.085,49.7728,0.003031
41.101,49.7532,0.003031
41.118,49.7329,0.003031
41.139,49.7087,0.003031
41.160,49.6833,0.003031
41.181,49.6601,0.003031
41.199,49.6400,0.003031
41.214,49.6226,0.003031
41.230,49.6053,0.003229
41.245,49.5887,0.003229
41.261,49.5707,0.003229
41.277,49.5539,0.003229
41.293,49.5372,0.003229
41.309,49.5200,0.003229
41.325,49.5033,0.003229
41.341,49.4868,0.003229
41.357,49.4711,0.003229
41.374,49.4535,0.003229
41.390,49.4383,0.003229
41.408,49.4200,0.003229
41.424,49.4052,0.003229
41.440,49.3896,0.003229
41.470,49.3621,0.003229
41.500,49.3342,0.003389
41.515,49.3208,0.003389
41.531,49.3069,0.003389
41.547,49.2934,0.003389
41.566,49.2771,0.003389
41.592,49.2548,0.003389
41.611,49.2393,0.003389
41.627,49.2258,0.003389
41.643,49.2134,0.003389
41.659,49.2007,0.003389
41.675,49.1886,0.003389
41.691,49.1760,0.003389
41.707,49.1643,0.003389
41.723,49.1521,0.003455
41.739,49.1411,0.003455
41.755,49.1298,0.003455
41.771,49.1182,0.003455
41.787,49.1078,0.003455
41.803,49.0969,0.003455
41.819,49.0859,0.003455
41.835,49.0758,0.003455
41.851,49.0657,0.003455
41.867,49.0555,0.003455
41.883,49.0457,0.003455
41.899,49.0360,0.003455
41.915,49.0263,0.003455
41.931,49.0173,0.003455
41.947,49.0084,0.003455
41.963,48.9991,0.003445
41.979,48.9902,0.003445
41.999,48.9798,0.003445
42.026,48.9661,0.003445
42.043,48.9574,0.003445
42.066,48.9465,0.003445
42.082,48.9394,0.003445
42.098,48.9322,0.003445
42.114,48.9251,0.003445
42.130,48.9182,0.003445
42.146,48.9116,0.003445
42.162,48.9050,0.003445
42.178,48.8986,0.003445
42.194,48.8926,0.003445
42.210,48.8866,0.003417
42.226,48.8811,0.003417
42.242,48.8757,0.003417
42.259,48.8699,0.003417
42.290,48.8603,0.003417
42.306,48.8552,0.003417
42.322,48.8510,0.003417
42.338,48.8468,0.003417
42.354,48.8424,0.003417
42.372,48.8381,0.003417
42.399,48.8319,0.003417
42.418,48.8279,0.003417
42.434,48.8247,0.003417
42.450,48.8216,0.003417
42.466,48.8187,0.003417
42.482,48.8162,0.003417
42.498,48.8139,0.003417
42.514,48.8117,0.003417
42.529,48.8097,0.003417
42.546,48.8078,0.003417
42.563,48.8061,0.003417
42.578,48.8047,0.003417
42.593,48.8036,0.003417
42.615,48.8022,0.003417
42.631,48.8014,0.003417
42.647,48.8007,0.003417
42.664,48.8004,0.003417
42.690,48.8001,0.003417
42.711,48.8001,0.003332
42.728,48.8001,0.003332
42.744,48.8001,0.003332
42.759,48.8001,0.003332
42.784,48.8001,0.003332
42.815,48.8001,0.003332
42.845,48.8001,0.003332
42.876,48.8005,0.003332
42.907,48.8016,0.003332
42.923,48.8025,0.003332
42.939,48.8035,0.003332
42.970,48.8061,0.003313
42.987,48.8078,0.003313
43.017,48.8113,0.003313
43.049,48.8161,0.003313
43.080,48.8211,0.003313
43.110,48.8269,0.003313
43.127,48.8303,0.003313
43.143,48.8337,0.003313
43.171,48.8404,0.003313
43.187,48.8445,0.003313
43.203,48.8489,0.003257
43.219,48.8532,0.003257
43.236,48.8580,0.003257
43.251,48.8626,0.003257
43.267,48.8677,0.003257
43.283,48.8729,0.003257
43.300,48.8788,0.003257
43.315,48.8840,0.003257
43.332,48.8898,0.003257
43.347,48.8956,0.003257
43.364,48.9019,0.003257
43.380,48.9086,0.003257
43.404,48.9184,0.003257
43.434,48.9316,0.003257
43.450,48.9388,0.003257
43.481,48.9535,0.003295
43.512,48.9685,0.003295
43.528,48.9767,0.003295
43.558,48.9930,0.003295
43.573,49.0009,0.003295
43.589,49.0098,0.003295
43.605,49.0194,0.003295
43.621,49.0281,0.003295
43.651,49.0463,0.003295
43.668,49.0580,0.003295
43.684,49.0666,0.003295
43.700,49.0768,0.003295
43.729,49.0963,0.003445
43.744,49.1066,0.003445
43.760,49.1174,0.003445
43.776,49.1287,0.003445
43.792,49.1398,0.003445
43.808,49.1517,0.003445
43.824,49.1633,0.003445
43.840,49.1749,0.003445
43.856,49.1879,0.003445
43.872,49.1995,0.003445
43.888,49.2124,0.003445
43.904,49.2249,0.003445
43.920,49.2380,0.003445
43.936,49.2508,0.003445
43.952,49.2643,0.003445
43.969,49.2787,0.003511
43.984,49.2915,0.003511
44.000,49.3058,0.003511
44.016,49.3197,0.003511
44.033,49.3340,0.003511
44.049,49.3484,0.003511
44.064,49.3627,0.003511
44.081,49.3788,0.003511
44.101,49.3974,0.003511
44.117,49.4127,0.003511
44.148,49.4438,0.003511
44.179,49.4742,0.003511
44.210,49.5068,0.003511
44.226,49.5234,0.003511
44.242,49.5394,0.003511
44.272,49.5718,0.003530
44.288,49.5890,0.003530
44.304,49.6060,0.003530
44.320,49.6235,0.003530
44.336,49.6420,0.003530
44.352,49.6607,0.003530
44.368,49.6781,0.003530
44.384,49.6971,0.003530
44.400,49.7165,0.003530
44.416,49.7349,0.003530
44.432,49.7536,0.003530
44.448,49.7728,0.003530
44.464,49.7931,0.003530
44.482,49.8144,0.003530
44.505,49.8443,0.003436
44.535,49.8822,0.003436
44.566,49.9222,0.003436
44.582,49.9421,0.003436
44.598,49.9630,0.003436
44.628,50.0050,0.003436
44.645,50.0271,0.003436
44.675,50.0683,0.003436
44.705,50.1102,0.003436
44.736,50.1537,0.003276
44.752,50.1769,0.003276
44.770,50.2026,0.003276
44.799,50.2454,0.003276
44.829,50.2904,0.003276
44.845,50.3151,0.003276
44.861,50.3384,0.003276
44.877,50.3628,0.003276
44.894,50.3904,0.003276
44.923,50.4356,0.003276
44.941,50.4635,0.003276
44.958,50.4907,0.003276
44.985,50.5332,0.003078
45.005,50.5661,0.003078
45.021,50.5926,0.003078
45.037,50.6187,0.003078
45.053,50.6451,0.003078
45.068,50.6718,0.003078
45.085,50.7007,0.003078
45.100,50.7261,0.003078
45.117,50.7537,0.003078
45.133,50.7813,0.003078
45.149,50.8098,0.003078
45.164,50.8371,0.003078
45.181,50.8651,0.003078
45.197,50.8957,0.003078
45.212,50.9218,0.003078
45.229,50.9516,0.002862
45.245,50.9805,0.002862
45.263,51.0133,0.002862
45.291,51.0662,0.002862
45.309,51.0982,0.002862
45.324,51.1277,0.002862
45.341,51.1584,0.002862
45.357,51.1883,0.002862
45.385,51.2423,0.002862
45.415,51.3028,0.002862
45.431,51.3321,0.002862
45.448,51.3665,0.002862
45.464,51.3972,0.002862
45.479,51.4272,0.002551
45.496,51.4602,0.002551
45.513,51.4956,0.002551
45.540,51.5502,0.002551
45.560,51.5902,0.002551
45.575,51.6229,0.002551
45.592,51.6565,0.002551
45.607,51.6886,0.002551
45.623,51.7224,0.002551
45.641,51.7599,0.002551
45.664,51.8088,0.002551
45.679,51.8409,0.002551
45.695,51.8762,0.002551
45.725,51.9387,0.002551
45.757,52.0039,0.002184
45.773,52.0368,0.002184
45.803,52.0962,0.002184
45.834,52.1599,0.002184
45.864,52.2193,0.002184
45.895,52.2812,0.002184
45.912,52.3120,0.002184
45.940,52.3682,0.002184
45.956,52.3972,0.002184
45.972,52.4276,0.002005
45.987,52.4567,0.002005
46.007,52.4948,0.002005
46.035,52.5470,0.002005
46.051,52.5758,0.002005
46.068,52.6060,0.002005
46.084,52.6352,0.002005
46.099,52.6627,0.002005
46.115,52.6916,0.002005
46.133,52.7239,0.002005
46.159,52.7694,0.002005
46.179,52.8051,0.002005
46.196,52.8330,0.002005
46.212,52.8605,0.002005
46.228,52.8873,0.001986
46.244,52.9163,0.001986
46.260,52.9428,0.001986
46.276,52.9683,0.001986
46.291,52.9940,0.001986
46.307,53.0205,0.001986
46.323,53.0468,0.001986
46.339,53.0726,0.001986
46.355,53.0987,0.001986
46.371,53.1241,0.001986
46.387,53.1497,0.001986
46.403,53.1750,0.001986
46.419,53.1997,0.001986
46.435,53.2245,0.001986
46.462,53.2663,0.001986
46.478,53.2903,0.001986
46.494,53.3146,0.001798
46.511,53.3390,0.001798
46.527,53.3623,0.001798
46.542,53.3851,0.001798
46.558,53.4088,0.001798
46.575,53.4323,0.001798
46.590,53.4546,0.001798
46.606,53.4778,0.001798
46.622,53.5002,0.001798
46.638,53.5232,0.001798
46.655,53.5463,0.001798
46.685,53.5879,0.001798
46.702,53.6096,0.001798
46.718,53.6311,0.001525
46.734,53.6523,0.001525
46.751,53.6759,0.001525
46.771,53.7004,0.001525
46.794,53.7303,0.001525
46.814,53.7560,0.001525
46.830,53.7757,0.001525
46.846,53.7950,0.001525
46.862,53.8150,0.001525
46.878,53.8342,0.001525
46.894,53.8538,0.001525
46.910,53.8723,0.001525
46.926,53.8918,0.001525
46.942,53.9105,0.001525
46.958,53.9292,0.001525
46.974,53.9467,0.001525
46.997,53.9734,0.001393
47.014,53.9920,0.001393
47.044,54.0245,0.001393
47.061,54.0432,0.001393
47.078,54.0611,0.001393
47.106,54.0906,0.001393
47.125,54.1107,0.001393
47.141,54.1259,0.001393
47.156,54.1419,0.001393
47.173,54.1577,0.001393
47.189,54.1744,0.001393
47.205,54.1893,0.001393
47.221,54.2051,0.001271
47.237,54.2202,0.001271
47.253,54.2352,0.001271
47.269,54.2490,0.001271
47.285,54.2635,0.001271
47.301,54.2780,0.001271
47.317,54.2924,0.001271
47.333,54.3060,0.001271
47.349,54.3195,0.001271
47.365,54.3332,0.001271
47.381,54.3466,0.001271
47.397,54.3598,0.001271
47.413,54.3734,0.001271
47.429,54.3853,0.001271
47.446,54.3993,0.001271
47.461,54.4107,0.001205
47.477,54.4233,0.001205
47.495,54.4365,0.001205
47.524,54.4573,0.001205
47.554,54.4792,0.001205
47.570,54.4897,0.001205
47.586,54.5006,0.001205
47.601,54.5110,0.001205
47.621,54.5241,0.001205
47.648,54.5407,0.001205
47.666,54.5521,0.001205
47.682,54.5618,0.001205
47.698,54.5712,0.001205
47.714,54.5805,0.001073
47.730,54.5895,0.001073
47.746,54.5986,0.001073
47.762,54.6073,0.001073
47.778,54.6158,0.001073
47.795,54.6248,0.001073
47.810,54.6324,0.001073
47.826,54.6404,0.001073
47.842,54.6481,0.001073
47.859,54.6563,0.001073
47.874,54.6631,0.001073
47.890,54.6702,0.001073
47.906,54.6771,0.001073
47.922,54.6840,0.001073
47.938,54.6907,0.001073
47.954,54.6973,0.000781
47.970,54.7031,0.000781
47.986,54.7097,0.000781
48.002,54.7153,0.000781
48.017,54.7206,0.000781
48.034,54.7263,0.000781
48.050,54.7317,0.000781
48.066,54.7366,0.000781
48.082,54.7415,0.000781
48.107,54.7488,0.000781
48.130,54.7550,0.000781
48.153,54.7607,0.000781
48.171,54.7652,0.000781
48.186,54.7685,0.000781
48.203,54.7720,0.000781
48.219,54.7752,0.000367
48.234,54.7781,0.000367
48.250,54.7810,0.000367
48.266,54.7836,0.000367
48.283,54.7861,0.000367
48.298,54.7883,0.000367
48.315,54.7905,0.000367
48.330,54.7922,0.000367
48.346,54.7938,0.000367
48.363,54.7953,0.000367
48.378,54.7965,0.000367
48.395,54.7978,0.000367
48.411,54.7985,0.000367
48.426,54.7993,0.000367
48.443,54.7998,0.000367
48.459,54.8000,0.000367
48.475,54.8001,0.000367
48.490,54.8001,-0.000188
48.506,54.8001,-0.000188
48.523,54.8001,-0.000188
48.540,54.8001,-0.000188
48.555,54.8001,-0.000188
48.571,54.8001,-0.000188
48.587,54.8001,-0.000188
48.602,54.8001,-0.000188
48.632,54.8001,-0.000188
48.662,54.8001,-0.000188
48.678,54.8001,-0.000188
48.697,54.8001,-0.000188
48.723,54.8001,-0.000132
48.743,54.8001,-0.000132
48.759,54.8001,-0.000132
48.774,54.8001,-0.000132
48.790,54.8001,-0.000132
48.807,54.8001,-0.000132
48.823,54.8001,-0.000132
48.839,54.8001,-0.000132
48.855,54.8001,-0.000132
48.870,54.8001,-0.000132
48.887,54.8001,-0.000132
48.902,54.8001,-0.000132
48.918,54.8001,-0.000132
48.934,54.8001,-0.000132
48.951,54.8001,-0.000132
48.967,54.8001,-0.000132
48.982,54.8001,0.000405
48.998,54.8001,0.000405
49.015,54.8001,0.000405
49.030,54.8001,0.000405
49.046,54.8001,0.000405
49.063,54.8001,0.000405
49.078,54.8001,0.000405
49.095,54.8001,0.000405
49.110,54.8001,0.000405
49.128,54.8001,0.000405
49.157,54.8001,0.000405
49.187,54.8001,0.000405
49.203,54.8001,0.000405
49.219,54.8001,0.000668
49.235,54.8001,0.000668
49.258,54.8001,0.000668
49.284,54.8001,0.000668
49.299,54.8001,0.000668
49.316,54.8001,0.000668
49.331,54.8001,0.000668
49.348,54.8001,0.000668
49.363,54.8001,0.000668
49.380,54.8001,0.000668
49.395,54.8001,0.000668
49.412,54.8001,0.000668
49.427,54.8001,0.000668
49.444,54.8001,0.000668
49.459,54.8001,0.000668
49.475,54.8001,0.000781
49.491,54.8001,0.000781
49.507,54.8001,0.000781
49.523,54.8001,0.000781
49.539,54.8001,0.000781
49.555,54.8001,0.000781
49.572,54.8001,0.000781
49.587,54.8001,0.000781
49.603,54.8001,0.000781
49.619,54.8001,0.000781
49.635,54.8001,0.000781
49.651,54.8001,0.000781
49.667,54.8001,0.000781
49.684,54.8001,0.000781
49.715,54.8001,0.000781
49.745,54.8001,0.000781
49.761,54.8001,0.000781
49.777,54.8001,0.000781
49.793,54.8001,0.000781
49.809,54.8001,0.000781
49.825,54.8001,0.000781
49.841,54.8001,0.000781
49.857,54.8001,0.000781
49.874,54.8001,0.000781
49.893,54.8001,0.000781
49.915,54.8001,0.000781
49.947,54.8001,0.000781
49.977,54.8001,0.000800
50.008,54.8001,0.000800
50.038,54.8001,0.000800
50.070,54.8001,0.000800
50.100,54.8001,0.000800
50.131,54.8001,0.000800
50.161,54.8001,0.000800
50.178,54.8001,0.000800
50.193,54.8001,0.000800
50.209,54.8001,0.000847
50.225,54.8001,0.000847
50.246,54.8001,0.000847
50.271,54.8001,0.000847
50.287,54.8001,0.000847
50.303,54.8001,0.000847
50.319,54.8001,0.000847
50.335,54.8001,0.000847
50.351,54.8001,0.000847
50.367,54.8001,0.000847
50.383,54.8001,0.000847
50.399,54.8001,0.000847
50.415,54.8001,0.000847
50.431,54.8001,0.000847
50.447,54.8001,0.000847
50.463,54.8001,0.000838
50.479,54.8001,0.000838
50.495,54.8001,0.000838
50.512,54.8001,0.000838
50.533,54.8001,0.000838
50.565,54.8001,0.000838
50.595,54.8001,0.000838
50.627,54.8001,0.000838
50.642,54.8001,0.000838
50.673,54.8001,0.000838
50.703,54.8001,0.000838
50.719,54.8001,0.000857
50.736,54.8001,0.000857
50.766,54.8001,0.000857
50.797,54.8001,0.000857
50.813,54.8001,0.000857
50.829,54.8001,0.000857
50.845,54.8001,0.000857
50.861,54.8001,0.000857
50.877,54.8001,0.000857
50.907,54.8001,0.000857
50.925,54.8001,0.000857
50.941,54.8001,0.000857
50.956,54.8001,0.000866
50.973,54.8001,0.000866
50.990,54.8001,0.000866
51.017,54.8001,0.000866
51.037,54.8001,0.000866
51.053,54.8001,0.000866
51.069,54.8001,0.000866
51.084,54.8001,0.000866
51.101,54.8001,0.000866
51.117,54.8001,0.000866
51.132,54.8001,0.000866
51.148,54.8001,0.000866
51.164,54.8001,0.000866
51.182,54.8001,0.000866
51.200,54.8001,0.000866
51.233,54.8001,0.000847
51.262,54.8001,0.000847
51.293,54.8001,0.000847
51.308,54.8001,0.000847
51.325,54.8001,0.000847
51.354,54.8001,0.000847
51.370,54.8001,0.000847
51.385,54.8001,0.000847
51.401,54.8001,0.000847
51.425,54.8001,0.000847
51.448,54.8001,0.000847
51.465,54.8001,0.000828
51.482,54.8001,0.000828
51.498,54.8001,0.000828
51.514,54.8001,0.000828
51.529,54.8001,0.000828
51.546,54.8001,0.000828
51.561,54.8001,0.000828
51.578,54.8001,0.000828
51.594,54.8001,0.000828
51.610,54.8001,0.000828
51.625,54.8001,0.000828
51.641,54.8001,0.000828
51.657,54.8001,0.000828
51.673,54.8001,0.000828
51.690,54.8001,0.000828
51.705,54.8001,0.000828
51.721,54.8001,0.000828
51.737,54.8001,0.000828
51.754,54.8001,0.000828
51.769,54.8001,0.000828
51.786,54.8001,0.000828
51.801,54.8001,0.000828
51.818,54.8001,0.000828
51.833,54.8001,0.000828
51.850,54.8001,0.000828
51.865,54.8001,0.000828
51.896,54.8001,0.000828
51.913,54.8001,0.000828
51.928,54.8001,0.000828
51.944,54.8001,0.000828
51.961,54.8001,0.000828
51.990,54.8001,0.000866
52.008,54.8001,0.000866
52.024,54.8001,0.000866
52.040,54.8001,0.000866
52.057,54.8001,0.000866
52.072,54.8001,0.000866
52.090,54.8001,0.000866
52.114,54.8001,0.000866
52.129,54.8001,0.000866
52.160,54.8001,0.000866
52.191,54.8001,0.000866
52.221,54.8001,0.000866
52.253,54.8001,0.000838
52.283,54.8001,0.000838
52.314,54.8001,0.000838
52.344,54.8001,0.000838
52.360,54.8001,0.000838
52.376,54.8001,0.000838
52.399,54.8001,0.000838
52.424,54.8001,0.000838
52.440,54.8001,0.000838
52.469,54.8001,0.000838
52.487,54.8001,0.000838
52.503,54.8001,0.000678
52.520,54.8001,0.000678
52.535,54.8001,0.000678
52.551,54.8001,0.000678
52.567,54.8001,0.000678
52.583,54.8001,0.000678
52.599,54.8001,0.000678
52.615,54.8001,0.000678
52.631,54.8001,0.000678
52.648,54.8001,0.000678
52.663,54.8001,0.000678
52.679,54.8001,0.000678
52.695,54.8001,0.000678
52.711,54.8001,0.000678
52.727,54.8001,0.000678
52.743,54.8001,0.000499
52.759,54.8001,0.000499
52.775,54.7999,0.000499
52.791,54.7994,0.000499
52.807,54.7988,0.000499
52.823,54.7979,0.000499
52.839,54.7969,0.000499
52.855,54.7958,0.000499
52.871,54.7944,0.000499
52.894,54.7919,0.000499
52.920,54.7888,0.000499
52.935,54.7869,0.000499
52.951,54.7844,0.000499
52.977,54.7802,0.000499
52.999,54.7762,0.000499
53.024,54.7711,0.000480
53.041,54.7675,0.000480
53.057,54.7638,0.000480
53.072,54.7602,0.000480
53.088,54.7562,0.000480
53.104,54.7518,0.000480
53.120,54.7475,0.000480
53.136,54.7431,0.000480
53.152,54.7382,0.000480
53.169,54.7328,0.000480
53.195,54.7245,0.000480
53.216,54.7168,0.003426
53.234,54.7106,0.003426
53.257,54.7020,0.003426
53.273,54.6956,0.003426
53.303,54.6833,0.003426
53.333,54.6699,0.003426
53.349,54.6630,0.003426
53.381,54.6482,0.003426
53.412,54.6332,0.003426
53.428,54.6251,0.003426
53.459,54.6079,0.007323
53.475,54.5993,0.007323
53.491,54.5905,0.007323
53.507,54.5820,0.007323
53.531,54.5678,0.007323
53.547,54.5585,0.007323
53.563,54.5482,0.007323
53.579,54.5386,0.007323
53.595,54.5283,0.007323
53.611,54.5181,0.007323
53.627,54.5074,0.007323
53.643,54.4968,0.007323
53.659,54.4857,0.007323
53.675,54.4742,0.007323
53.691,54.4635,0.007323
53.715,54.4452,0.007323
53.733,54.4324,0.007323
53.753,54.4174,0.007323
53.771,54.4035,0.008058
53.787,54.3913,0.008058
53.803,54.3786,0.008058
53.819,54.3659,0.008058
53.835,54.3522,0.008058
53.851,54.3396,0.008058
53.867,54.3257,0.008058
53.883,54.3125,0.008058
53.899,54.2983,0.008058
53.915,54.2842,0.008058
53.931,54.2696,0.008058
53.947,54.2558,0.008058
53.963,54.2412,0.008058
53.979,54.2261,0.008058
53.995,54.2118,0.010543
54.011,54.1964,0.010543
54.027,54.1805,0.010543
54.043,54.1654,0.010543
54.058,54.1485,0.010543
54.082,54.1262,0.010543
54.098,54.1097,0.010543
54.113,54.0938,0.010543
54.129,54.0774,0.010543
54.145,54.0602,0.010543
54.161,54.0436,0.010543
54.178,54.0255,0.010543
54.194,54.0084,0.010543
54.211,53.9893,0.010543
54.234,53.9633,0.010543
54.264,53.9296,0.007540
54.295,53.8940,0.007540
54.326,53.8575,0.007540
54.357,53.8203,0.007540
54.386,53.7831,0.007540
54.402,53.7639,0.007540
54.417,53.7446,0.007540
54.433,53.7245,0.007540
54.456,53.6935,0.007540
54.478,53.6668,0.007540
54.497,53.6411,0.001600
54.514,53.6195,0.001600
54.530,53.5977,0.001600
54.546,53.5753,0.001600
54.562,53.5542,0.001600
54.578,53.5317,0.001600
54.593,53.5103,0.001600
54.609,53.4882,0.001600
54.632,53.4555,0.001600
54.648,53.4325,0.001600
54.664,53.4093,0.001600
54.681,53.3845,0.001600
54.697,53.3622,0.001600
54.712,53.3389,0.001600
54.728,53.3148,0.001487
54.745,53.2900,0.001487
54.765,53.2594,0.001487
54.787,53.2248,0.001487
54.808,53.1932,0.001487
54.824,53.1672,0.001487
54.841,53.1421,0.001487
54.856,53.1174,0.001487
54.872,53.0916,0.001487
54.888,53.0644,0.001487
54.905,53.0392,0.001487
54.920,53.0137,0.001487
54.937,52.9850,0.001487
54.953,52.9596,0.001487
54.968,52.9336,0.001610
54.985,52.9060,0.001610
55.000,52.8796,0.001610
55.017,52.8512,0.001610
55.033,52.8233,0.001610
55.048,52.7969,0.001610
55.071,52.7554,0.001610
55.094,52.7163,0.001610
55.113,52.6823,0.001610
55.129,52.6530,0.001610
55.144,52.6259,0.001610
55.160,52.5973,0.001610
55.188,52.5458,0.001610
55.203,52.5174,0.001610
55.219,52.4881,0.001741
55.235,52.4577,0.001741
55.251,52.4277,0.001741
55.268,52.3952,0.001741
55.283,52.3670,0.001741
55.299,52.3362,0.001741
55.316,52.3044,0.001741
55.331,52.2740,0.001741
55.347,52.2423,0.001741
55.363,52.2109,0.001741
55.381,52.1739,0.001741
55.398,52.1419,0.001741
55.419,52.0984,0.001741
55.449,52.0374,0.001741
55.480,51.9721,0.002071
55.496,51.9408,0.002071
55.513,51.9062,0.002071
55.542,51.8420,0.002071
55.574,51.7747,0.002071
55.605,51.7093,0.002071
55.636,51.6456,0.002071
55.653,51.6105,0.002071
55.682,51.5474,0.002071
55.711,51.4891,0.002071
55.727,51.4591,0.002071
55.743,51.4263,0.002250
55.758,51.3952,0.002250
55.774,51.3623,0.002250
55.790,51.3309,0.002250
55.807,51.2987,0.002250
55.823,51.2676,0.002250
55.851,51.2113,0.002250
55.872,51.1708,0.002250
55.889,51.1396,0.002250
55.914,51.0921,0.002250
55.934,51.0545,0.002250
55.950,51.0254,0.002250
55.966,50.9953,0.002297
55.982,50.9652,0.002297
55.998,50.9357,0.002297
56.014,50.9079,0.002297
56.030,50.8789,0.002297
56.046,50.8484,0.002297
56.062,50.8221,0.002297
56.078,50.7943,0.002297
56.094,50.7653,0.002297
56.110,50.7369,0.002297
56.126,50.7105,0.002297
56.142,50.6825,0.002297
56.158,50.6550,0.002297
56.174,50.6284,0.002297
56.190,50.6013,0.002297
56.206,50.5743,0.002297
56.222,50.5482,0.002297
56.238,50.5217,0.002607
56.254,50.4954,0.002607
56.270,50.4702,0.002607
56.285,50.4448,0.002607
56.306,50.4107,0.002607
56.333,50.3690,0.002607
56.350,50.3433,0.002607
56.366,50.3178,0.002607
56.382,50.2945,0.002607
56.398,50.2689,0.002607
56.414,50.2457,0.002607
56.435,50.2144,0.002607
56.460,50.1774,0.002607
56.478,50.1499,0.002607
56.494,50.1279,0.002880
56.510,50.1044,0.002880
56.526,50.0815,0.002880
56.542,50.0591,0.002880
56.559,50.0356,0.002880
56.574,50.0143,0.002880
56.590,49.9929,0.002880
56.606,49.9705,0.002880
56.622,49.9477,0.002880
56.638,49.9274,0.002880
56.654,49.9062,0.002880
56.670,49.8852,0.002880
56.686,49.8647,0.002880
56.702,49.8440,0.002880
56.718,49.8224,0.003050
56.734,49.8032,0.003050
56.750,49.7824,0.003050
56.766,49.7628,0.003050
56.795,49.7268,0.003050
56.811,49.7077,0.003050
56.827,49.6889,0.003050
56.843,49.6697,0.003050
56.859,49.6509,0.003050
56.875,49.6316,0.003050
56.891,49.6142,0.003050
56.907,49.5961,0.003050
56.929,49.5711,0.003050
56.951,49.5466,0.003050
56.971,49.5253,0.003257
56.987,49.5073,0.003257
57.003,49.4904,0.003257
57.019,49.4742,0.003257
57.035,49.4572,0.003257
57.051,49.4401,0.003257
57.067,49.4247,0.003257
57.083,49.4087,0.003257
57.100,49.3916,0.003257
57.116,49.3758,0.003257
57.131,49.3616,0.003257
57.147,49.3461,0.003257
57.163,49.3309,0.003257
57.179,49.3156,0.003257
57.195,49.3012,0.003257
57.211,49.2864,0.003417
57.228,49.2720,0.003417
57.243,49.2584,0.003417
57.259,49.2447,0.003417
57.275,49.2309,0.003417
57.291,49.2175,0.003417
57.306,49.2041,0.003417
57.336,49.1801,0.003417
57.351,49.1677,0.003417
57.367,49.1554,0.003417
57.383,49.1433,0.003417
57.406,49.1254,0.003417
57.428,49.1088,0.003417
57.447,49.0952,0.003417
57.463,49.0834,0.003417
57.478,49.0727,0.003417
57.495,49.0612,0.003483
57.511,49.0505,0.003483
57.528,49.0392,0.003483
57.552,49.0229,0.003483
57.568,49.0131,0.003483
57.599,48.9938,0.003483
57.630,48.9752,0.003483
57.647,48.9654,0.003483
57.663,48.9568,0.003483
57.693,48.9401,0.003483
57.709,48.9313,0.003483
57.740,48.9156,0.003483
57.756,48.9080,0.003511
57.787,48.8931,0.003511
57.817,48.8796,0.003511
57.847,48.8662,0.003511
57.863,48.8600,0.003511
57.893,48.8477,0.003511
57.910,48.8417,0.003511
57.925,48.8360,0.003511
57.941,48.8301,0.003511
57.957,48.8248,0.003511
57.973,48.8195,0.003511
57.989,48.8144,0.003445
58.005,48.8095,0.003445
58.023,48.8045,0.003445
58.038,48.8001,0.003445
58.053,48.7960,0.003445
58.070,48.7917,0.003445
58.085,48.7880,0.003445
58.104,48.7834,0.003445
58.127,48.7785,0.003445
58.157,48.7727,0.003445
58.188,48.7673,0.003445
58.219,48.7627,0.003361
58.235,48.7606,0.003361
58.266,48.7570,0.003361
58.296,48.7542,0.003361
58.312,48.7531,0.003361
58.343,48.7514,0.003361
58.373,48.7503,0.003361
58.392,48.7500,0.003361
58.420,48.7500,0.003361
58.447,48.7500,0.003361
58.464,48.7500,0.003361
58.479,48.7500,0.003332
58.495,48.7500,0.003332
58.513,48.7500,0.003332
58.542,48.7500,0.003332
58.559,48.7500,0.003332
58.576,48.7501,0.003332
58.604,48.7509,0.003332
58.623,48.7518,0.003332
58.640,48.7527,0.003332
58.666,48.7547,0.003332
58.696,48.7577,0.003332
58.712,48.7594,0.003332
58.742,48.7634,0.003351
58.758,48.7658,0.003351
58.788,48.7709,0.003351
58.819,48.7768,0.003351
58.850,48.7831,0.003351
58.882,48.7907,0.003351
58.897,48.7947,0.003351
58.913,48.7986,0.003351
58.928,48.8029,0.003351
58.959,48.8123,0.003351
58.975,48.8170,0.003351
59.003,48.8264,0.003332
59.019,48.8320,0.003332
59.035,48.8377,0.003332
59.051,48.8435,0.003332
59.075,48.8530,0.003332
59.101,48.8637,0.003332
59.128,48.8748,0.003332
59.147,48.8830,0.003332
59.163,48.8903,0.003332
59.179,48.8979,0.003332
59.195,48.9055,0.003332
59.211,48.9135,0.003332
59.227,48.9213,0.003408
59.244,48.9303,0.003408
59.260,48.9392,0.003408
59.282,48.9506,0.003408
59.298,48.9596,0.003408
59.313,48.9679,0.003408
59.328,48.9772,0.003408
59.359,48.9958,0.003408
59.391,49.0151,0.003408
59.406,49.0247,0.003408
59.437,49.0449,0.003408
59.469,49.0669,0.003473
59.499,49.0884,0.003473
59.515,49.0996,0.003473
59.531,49.1108,0.003473
59.560,49.1328,0.003473
59.577,49.1457,0.003473
59.592,49.1579,0.003473
59.608,49.1701,0.003473
59.624,49.1836,0.003473
59.641,49.1967,0.003473
59.669,49.2208,0.003473
59.693,49.2410,0.003473
59.715,49.2600,0.003473
59.736,49.2781,0.003492
59.752,49.2932,0.003492
59.768,49.3077,0.003492
59.784,49.3219,0.003492
59.800,49.3373,0.003492
59.816,49.3529,0.003492
59.832,49.3675,0.003492
59.848,49.3830,0.003492
59.864,49.3994,0.003492
59.880,49.4155,0.003492
59.896,49.4309,0.003492
59.912,49.4473,0.003492
59.928,49.4643,0.003492
59.944,49.4814,0.003492
59.960,49.4975,0.003558
59.976,49.5152,0.003558
59.992,49.5320,0.003558
60.008,49.5495,0.003558
60.024,49.5680,0.003558
60.040,49.5849,0.003558
60.059,49.6073,0.003558
60.088,49.6398,0.003558
60.118,49.6756,0.003558
60.134,49.6948,0.003558
60.150,49.7138,0.003558
60.165,49.7328,0.003558
60.181,49.7524,0.003558
60.198,49.7728,0.003558
60.213,49.7921,0.003455
60.231,49.8140,0.003455
60.250,49.8394,0.003455
60.265,49.8579,0.003455
60.288,49.8887,0.003455
60.310,49.9171,0.003455
60.335,49.9497,0.003455
60.366,49.9917,0.003455
60.397,50.0358,0.003455
60.428,50.0779,0.003455
60.443,50.1013,0.003455
60.474,50.1463,0.003266
60.505,50.1914,0.003266
60.536,50.2372,0.003266
60.566,50.2818,0.003266
60.581,50.3054,0.003266
60.597,50.3298,0.003266
60.613,50.3554,0.003266
60.630,50.3806,0.003266
60.645,50.4050,0.003266
60.673,50.4499,0.003266
60.690,50.4763,0.003266
60.705,50.5011,0.003069
60.722,50.5279,0.003069
60.738,50.5554,0.003069
60.753,50.5805,0.003069
60.770,50.6079,0.003069
60.785,50.6338,0.003069
60.803,50.6638,0.003069
60.828,50.7070,0.003069
60.859,50.7603,0.003069
60.875,50.7888,0.003069
60.906,50.8443,0.003069
60.936,50.8984,0.003069
60.952,50.9248,0.003069
60.968,50.9555,0.002805
60.983,50.9828,0.002805
60.999,51.0131,0.002805
61.030,51.0702,0.002805
61.046,51.1013,0.002805
61.076,51.1573,0.002805
61.092,51.1883,0.002805
61.123,51.2467,0.002805
61.138,51.2769,0.002805
61.153,51.3068,0.002805
61.177,51.3535,0.002805
61.199,51.3993,0.002805
61.217,51.4344,0.002805
61.246,51.4924,0.002551
61.263,51.5281,0.002551
61.278,51.5582,0.002551
61.294,51.5915,0.002551
61.311,51.6269,0.002551
61.339,51.6860,0.002551
61.358,51.7256,0.002551
61.375,51.7604,0.002551
61.391,51.7948,0.002551
61.407,51.8300,0.002551
61.431,51.8793,0.002551
61.462,51.9437,0.002551
61.477,51.9764,0.002259
61.493,52.0080,0.002259
61.510,52.0416,0.002259
61.540,52.1024,0.002259
61.570,52.1636,0.002259
61.601,52.2250,0.002259
61.632,52.2836,0.002259
61.648,52.3140,0.002259
61.678,52.3724,0.002259
61.694,52.4015,0.002259
61.710,52.4314,0.002259
61.739,52.4860,0.002061
61.757,52.5177,0.002061
61.788,52.5753,0.002061
61.804,52.6047,0.002061
61.835,52.6600,0.002061
61.851,52.6884,0.002061
61.870,52.7210,0.002061
61.897,52.7685,0.002061
61.915,52.8002,0.002061
61.931,52.8275,0.002061
61.947,52.8551,0.002061
61.963,52.8814,0.001958
61.979,52.9080,0.001958
61.996,52.9361,0.001958
62.023,52.9807,0.001958
62.043,53.0139,0.001958
62.060,53.0407,0.001958
62.085,53.0815,0.001958
62.100,53.1053,0.001958
62.116,53.1308,0.001958
62.132,53.1555,0.001958
62.148,53.1800,0.001958
62.181,53.2304,0.001958
62.210,53.2732,0.001958
62.225,53.2963,0.001723
62.256,53.3432,0.001723
62.287,53.3879,0.001723
62.319,53.4328,0.001723
62.349,53.4743,0.001723
62.380,53.5170,0.001723
62.395,53.5378,0.001723
62.411,53.5588,0.001723
62.429,53.5827,0.001723
62.457,53.6200,0.001506
62.475,53.6427,0.001506
62.493,53.6669,0.001506
62.519,53.6993,0.001506
62.539,53.7243,0.001506
62.555,53.7448,0.001506
62.572,53.7649,0.001506
62.597,53.7952,0.001506
62.628,53.8325,0.001506
62.644,53.8506,0.001506
62.675,53.8876,0.001506
62.705,53.9212,0.001506
62.736,53.9558,0.001412
62.751,53.9723,0.001412
62.767,53.9891,0.001412
62.798,54.0223,0.001412
62.814,54.0387,0.001412
62.844,54.0694,0.001412
62.862,54.0884,0.001412
62.892,54.1169,0.001412
62.907,54.1319,0.001412
62.923,54.1473,0.001412
62.939,54.1619,0.001412
62.955,54.1770,0.001299
62.971,54.1918,0.001299
62.987,54.2066,0.001299
63.003,54.2209,0.001299
63.019,54.2357,0.001299
63.035,54.2495,0.001299
63.052,54.2645,0.001299
63.079,54.2873,0.001299
63.099,54.3032,0.001299
63.116,54.3176,0.001299
63.131,54.3292,0.001299
63.148,54.3425,0.001299
63.163,54.3544,0.001299
63.180,54.3678,0.001299
63.195,54.3792,0.001299
63.211,54.3909,0.001130
63.227,54.4024,0.001130
63.243,54.4139,0.001130
63.259,54.4252,0.001130
63.275,54.4362,0.001130
63.291,54.4473,0.001130
63.319,54.4659,0.001130
63.335,54.4767,0.001130
63.351,54.4866,0.001130
63.367,54.4970,0.001130
63.383,54.5064,0.001130
63.399,54.5159,0.001130
63.415,54.5257,0.001130
63.431,54.5347,0.001130
63.447,54.5435,0.001130
63.462,54.5523,0.001045
63.479,54.5611,0.001045
63.495,54.5696,0.001045
63.512,54.5782,0.001045
63.527,54.5858,0.001045
63.545,54.5947,0.001045
63.574,54.6086,0.001045
63.591,54.6163,0.001045
63.606,54.6234,0.001045
63.623,54.6303,0.001045
63.639,54.6370,0.001045
63.655,54.6436,0.001045
63.671,54.6502,0.001045
63.687,54.6561,0.001045
63.704,54.6623,0.001045
63.731,54.6720,0.000772
63.750,54.6785,0.000772
63.767,54.6838,0.000772
63.783,54.6889,0.000772
63.799,54.6935,0.000772
63.815,54.6982,0.000772
63.845,54.7061,0.000772
63.861,54.7102,0.000772
63.876,54.7139,0.000772
63.893,54.7177,0.000772
63.909,54.7211,0.000772
63.924,54.7243,0.000772
63.940,54.7273,0.000772
63.957,54.7303,0.000772
63.973,54.7330,0.000772
63.988,54.7354,0.000772
64.004,54.7376,0.000217
64.021,54.7397,0.000217
64.036,54.7416,0.000217
64.052,54.7433,0.000217
64.068,54.7448,0.000217
64.084,54.7462,0.000217
64.100,54.7473,0.000217
64.117,54.7483,0.000217
64.132,54.7489,0.000217
64.149,54.7495,0.000217
64.179,54.7500,0.000217
64.196,54.7500,0.000217
64.213,54.7500,0.000217
64.241,54.7500,-0.000141
64.260,54.7500,-0.000141
64.276,54.7500,-0.000141
64.292,54.7500,-0.000141
64.308,54.7500,-0.000141
64.324,54.7500,-0.000141
64.340,54.7500,-0.000141
64.356,54.7500,-0.000141
64.385,54.7500,-0.000141
64.402,54.7500,-0.000141
64.417,54.7500,-0.000141
64.433,54.7500,-0.000141
64.449,54.7500,-0.000141
64.466,54.7500,-0.000141
64.481,54.7500,0.000066
64.498,54.7500,0.000066
64.517,54.7500,0.000066
64.536,54.7500,0.000066
64.566,54.7500,0.000066
64.597,54.7500,0.000066
64.613,54.7500,0.000066
64.644,54.7500,0.000066
64.674,54.7500,0.000066
64.690,54.7500,0.000066
64.706,54.7500,0.000066
64.721,54.7500,0.000471
64.737,54.7500,0.000471
64.757,54.7500,0.000471
64.781,54.7500,0.000471
64.801,54.7500,0.000471
64.819,54.7500,0.000471
64.843,54.7500,0.000471
64.873,54.7500,0.000471
64.904,54.7500,0.000471
64.935,54.7500,0.000471
64.965,54.7500,0.000715
64.996,54.7500,0.000715
65.027,54.7500,0.000715
65.057,54.7500,0.000715
65.073,54.7500,0.000715
65.089,54.7500,0.000715
65.105,54.7500,0.000715
65.121,54.7500,0.000715
65.137,54.7500,0.000715
65.153,54.7500,0.000715
65.170,54.7500,0.000715
65.186,54.7500,0.000715
65.213,54.7500,0.000828
65.233,54.7500,0.000828
65.249,54.7500,0.000828
65.265,54.7500,0.000828
65.281,54.7500,0.000828
65.297,54.7500,0.000828
65.314,54.7500,0.000828
65.329,54.7500,0.000828
65.345,54.7500,0.000828
65.361,54.7500,0.000828
65.377,54.7500,0.000828
65.393,54.7500,0.000828
65.409,54.7500,0.000828
65.425,54.7500,0.000828
65.452,54.7500,0.000828
65.468,54.7500,0.000828
65.484,54.7500,0.000894
65.500,54.7500,0.000894
65.516,54.7500,0.000894
65.532,54.7500,0.000894
65.548,54.7500,0.000894
65.564,54.7500,0.000894
65.580,54.7500,0.000894
65.596,54.7500,0.000894
65.612,54.7500,0.000894
65.628,54.7500,0.000894
65.644,54.7500,0.000894
65.660,54.7500,0.000894
65.679,54.7500,0.000894
65.708,54.7500,0.000885
65.724,54.7500,0.000885
65.741,54.7500,0.000885
65.756,54.7500,0.000885
65.772,54.7500,0.000885
65.788,54.7500,0.000885
65.805,54.7500,0.000885
65.820,54.7500,0.000885
65.836,54.7500,0.000885
65.852,54.7500,0.000885
65.870,54.7500,0.000885
65.893,54.7500,0.000885
65.923,54.7500,0.000885
65.954,54.7500,0.000885
65.984,54.7500,0.000810
66.001,54.7500,0.000810
66.031,54.7500,0.000810
66.063,54.7500,0.000810
66.093,54.7500,0.000810
66.108,54.7500,0.000810
66.125,54.7500,0.000810
66.140,54.7500,0.000810
66.156,54.7500,0.000810
66.172,54.7500,0.000810
66.188,54.7500,0.000810
66.204,54.7500,0.000828
66.220,54.7500,0.000828
66.236,54.7500,0.000828
66.252,54.7500,0.000828
66.268,54.7500,0.000828
66.286,54.7500,0.000828
66.309,54.7500,0.000828
66.325,54.7500,0.000828
66.340,54.7500,0.000828
66.372,54.7500,0.000828
66.403,54.7500,0.000828
66.418,54.7500,0.000828
66.434,54.7500,0.000828
66.465,54.7500,0.000904
66.481,54.7500,0.000904
66.511,54.7500,0.000904
66.534,54.7500,0.000904
66.550,54.7500,0.000904
66.565,54.7500,0.000904
66.582,54.7500,0.000904
66.597,54.7500,0.000904
66.614,54.7500,0.000904
66.630,54.7500,0.000904
66.646,54.7500,0.000904
66.662,54.7500,0.000904
66.677,54.7500,0.000904
66.694,54.7500,0.000904
66.710,54.7500,0.000904
66.725,54.7500,0.000904
66.742,54.7500,0.000904
66.758,54.7500,0.000904
66.774,54.7500,0.000904
66.789,54.7500,0.000904
66.806,54.7500,0.000904
66.821,54.7500,0.000904
66.840,54.7500,0.000904
66.866,54.7500,0.000904
66.885,54.7500,0.000904
66.902,54.7500,0.000904
66.917,54.7500,0.000904
66.933,54.7500,0.000904
66.950,54.7500,0.000904
66.967,54.7500,0.000904
66.988,54.7500,0.000904
67.019,54.7500,0.000875
67.050,54.7500,0.000875
67.066,54.7500,0.000875
67.081,54.7500,0.000875
67.097,54.7500,0.000875
67.113,54.7500,0.000875
67.128,54.7500,0.000875
67.144,54.7500,0.000875
67.160,54.7500,0.000875
67.176,54.7500,0.000875
67.207,54.7500,0.000875
67.222,54.7500,0.000894
67.238,54.7500,0.000894
67.260,54.7500,0.000894
67.284,54.7500,0.000894
67.301,54.7500,0.000894
67.319,54.7500,0.000894
67.346,54.7500,0.000894
67.366,54.7500,0.000894
67.382,54.7500,0.000894
67.397,54.7500,0.000894
67.414,54.7500,0.000894
67.429,54.7500,0.000894
67.446,54.7500,0.000894
67.461,54.7500,0.000922
67.477,54.7500,0.000922
67.493,54.7500,0.000922
67.509,54.7500,0.000922
67.525,54.7500,0.000922
67.541,54.7500,0.000922
67.557,54.7500,0.000922
67.573,54.7500,0.000922
67.589,54.7500,0.000922
67.612,54.7500,0.000922
67.628,54.7500,0.000922
67.644,54.7500,0.000922
67.659,54.7500,0.000922
67.675,54.7500,0.000922
67.692,54.7500,0.000922
67.707,54.7500,0.000941
67.724,54.7500,0.000941
67.739,54.7500,0.000941
67.755,54.7500,0.000941
67.771,54.7500,0.000941
67.787,54.7500,0.000941
67.807,54.7500,0.000941
67.828,54.7500,0.000941
67.859,54.7500,0.000941
67.889,54.7500,0.000941
67.920,54.7500,0.000941
67.936,54.7500,0.000941
67.967,54.7500,0.000875
67.998,54.7500,0.000875
68.029,54.7500,0.000875
68.065,54.7500,0.000875
68.092,54.7500,0.000875
68.108,54.7500,0.000875
68.124,54.7500,0.000875
68.139,54.7500,0.000875
68.167,54.7500,0.000875
68.184,54.7500,0.000875
68.199,54.7500,0.000875
68.215,54.7500,0.000715
68.231,54.7500,0.000715
68.247,54.7500,0.000715
68.263,54.7500,0.000715
68.279,54.7500,0.000715
68.295,54.7500,0.000715
68.311,54.7500,0.000715
68.327,54.7500,0.000715
68.344,54.7500,0.000715
68.372,54.7500,0.000715
68.391,54.7500,0.000715
68.407,54.7500,0.000715
68.423,54.7500,0.000715
68.439,54.7500,0.000715
68.455,54.7500,0.000715
68.471,54.7500,0.000715
68.487,54.7500,0.000508
68.503,54.7500,0.000508
68.519,54.7499,0.000508
68.535,54.7497,0.000508
68.551,54.7492,0.000508
68.567,54.7485,0.000508
68.583,54.7477,0.000508
68.599,54.7467,0.000508
68.615,54.7454,0.000508
68.631,54.7439,0.000508
68.647,54.7423,0.000508
68.663,54.7405,0.000508
68.679,54.7385,0.000508
68.700,54.7355,0.000508
68.716,54.7332,0.000508
68.732,54.7304,0.000489
68.748,54.7275,0.000489
68.764,54.7245,0.000489
68.780,54.7214,0.000489
68.797,54.7177,0.000489
68.812,54.7142,0.000489
68.829,54.7102,0.000489
68.845,54.7061,0.000489
68.860,54.7021,0.000489
68.876,54.6978,0.000489
68.893,54.6930,0.000489
68.908,54.6885,0.000489
68.924,54.6835,0.000489
68.940,54.6782,0.000489
68.956,54.6728,0.000489
68.972,54.6673,0.003445
68.988,54.6615,0.003445
69.004,54.6555,0.003445
69.020,54.6494,0.003445
69.036,54.6431,0.003445
69.052,54.6367,0.003445
69.069,54.6293,0.003445
69.085,54.6223,0.003445
69.101,54.6150,0.003445
69.130,54.6019,0.003445
69.148,54.5931,0.003445
69.164,54.5853,0.003445
69.180,54.5774,0.003445
69.196,54.5691,0.003445
69.212,54.5608,0.003445
69.228,54.5518,0.003445
69.254,54.5371,0.007361
69.270,54.5281,0.007361
69.286,54.5188,0.007361
69.302,54.5088,0.007361
69.326,54.4942,0.007361
69.348,54.4806,0.007361
69.366,54.4694,0.007361
69.382,54.4583,0.007361
69.398,54.4479,0.007361
69.414,54.4370,0.007361
69.430,54.4262,0.007361
69.446,54.4144,0.007361
69.462,54.4033,0.007361
69.478,54.3916,0.008039
69.494,54.3798,0.008039
69.510,54.3675,0.008039
69.525,54.3554,0.008039
69.542,54.3424,0.008039
69.558,54.3300,0.008039
69.574,54.3167,0.008039
69.589,54.3043,0.008039
69.606,54.2911,0.008039
69.622,54.2766,0.008039
69.638,54.2637,0.008039
69.654,54.2492,0.008039
69.670,54.2359,0.008039
69.685,54.2222,0.008039
69.701,54.2078,0.008039
69.717,54.1932,0.010336
69.733,54.1784,0.010336
69.749,54.1634,0.010336
69.766,54.1479,0.010336
69.781,54.1328,0.010336
69.810,54.1042,0.010336
69.827,54.0872,0.010336
69.843,54.0720,0.010336
69.858,54.0562,0.010336
69.882,54.0306,0.010336
69.906,54.0058,0.010336
69.922,53.9891,0.010336
69.945,53.9630,0.010336
69.971,53.9354,0.010336
69.999,53.9043,0.008481
70.019,53.8822,0.008481
70.035,53.8635,0.008481
70.050,53.8456,0.008481
70.067,53.8256,0.008481
70.090,53.7984,0.008481
70.121,53.7604,0.008481
70.152,53.7225,0.008481
70.168,53.7026,0.008481
70.199,53.6626,0.008481
70.230,53.6228,0.002664
70.246,53.6024,0.002664
70.262,53.5807,0.002664
70.277,53.5600,0.002664
70.308,53.5183,0.002664
70.323,53.4981,0.002664
70.355,53.4543,0.002664
70.370,53.4326,0.002664
70.387,53.4092,0.002664
70.403,53.3859,0.002664
70.418,53.3639,0.002664
70.436,53.3385,0.002664
70.461,53.3006,0.001468
70.482,53.2691,0.001468
70.498,53.2455,0.001468
70.515,53.2207,0.001468
70.530,53.1971,0.001468
70.546,53.1722,0.001468
70.563,53.1468,0.001468
70.579,53.1215,0.001468
70.595,53.0970,0.001468
70.610,53.0721,0.001468
70.627,53.0457,0.001468
70.642,53.0201,0.001468
70.658,52.9947,0.001468
70.674,52.9685,0.001468
70.690,52.9421,0.001468
70.707,52.9142,0.001591
70.722,52.8888,0.001591
70.739,52.8600,0.001591
70.755,52.8339,0.001591
70.770,52.8062,0.001591
70.786,52.7794,0.001591
70.802,52.7518,0.001591
70.818,52.7240,0.001591
70.834,52.6958,0.001591
70.861,52.6482,0.001591
70.877,52.6189,0.001591
70.893,52.5893,0.001591
70.909,52.5611,0.001591
70.926,52.5300,0.001591
70.956,52.4762,0.001760
70.973,52.4431,0.001760
70.989,52.4117,0.001760
71.005,52.3829,0.001760
71.021,52.3533,0.001760
71.037,52.3219,0.001760
71.053,52.2901,0.001760
71.069,52.2609,0.001760
71.085,52.2297,0.001760
71.101,52.1984,0.001760
71.117,52.1652,0.001760
71.133,52.1354,0.001760
71.149,52.1020,0.001760
71.165,52.0702,0.001760
71.181,52.0371,0.001760
71.197,52.0065,0.001760
71.213,51.9738,0.002024
71.229,51.9400,0.002024
71.245,51.9060,0.002024
71.261,51.8728,0.002024
71.277,51.8402,0.002024
71.293,51.8071,0.002024
71.310,51.7711,0.002024
71.326,51.7369,0.002024
71.341,51.7036,0.002024
71.361,51.6618,0.002024
71.387,51.6081,0.002024
71.419,51.5412,0.002024
71.435,51.5066,0.002024
71.451,51.4752,0.002024
71.467,51.4418,0.002222
71.483,51.4080,0.002222
71.499,51.3776,0.002222
71.516,51.3425,0.002222
71.542,51.2900,0.002222
71.563,51.2507,0.002222
71.579,51.2192,0.002222
71.595,51.1865,0.002222
71.611,51.1550,0.002222
71.628,51.1246,0.002222
71.643,51.0948,0.002222
71.659,51.0648,0.002222
71.675,51.0340,0.002222
71.691,51.0054,0.002222
71.707,50.9756,0.002400
71.723,50.9456,0.002400
71.739,50.9162,0.002400
71.755,50.8867,0.002400
71.771,50.8583,0.002400
71.787,50.8295,0.002400
71.803,50.7993,0.002400
71.819,50.7710,0.002400
71.838,50.7360,0.002400
71.854,50.7093,0.002400
71.881,50.6628,0.002400
71.899,50.6332,0.002400
71.915,50.6052,0.002400
71.931,50.5784,0.002400
71.959,50.5314,0.002400
71.974,50.5066,0.002400
71.990,50.4796,0.002400
72.006,50.4536,0.002626
72.022,50.4277,0.002626
72.039,50.4009,0.002626
72.067,50.3544,0.002626
72.086,50.3259,0.002626
72.102,50.3015,0.002626
72.118,50.2756,0.002626
72.134,50.2521,0.002626
72.153,50.2221,0.002626
72.177,50.1868,0.002626
72.197,50.1558,0.002626
72.214,50.1306,0.002626
72.231,50.1070,0.002626
72.246,50.0850,0.002843
72.262,50.0618,0.002843
72.278,50.0384,0.002843
72.293,50.0168,0.002843
72.309,49.9942,0.002843
72.326,49.9719,0.002843
72.342,49.9488,0.002843
72.357,49.9279,0.002843
72.374,49.9063,0.002843
72.390,49.8828,0.002843
72.413,49.8523,0.002843
72.439,49.8198,0.002843
72.470,49.7792,0.002843
72.485,49.7594,0.002843
72.511,49.7277,0.003078
72.527,49.7078,0.003078
72.543,49.6880,0.003078
72.558,49.6692,0.003078
72.575,49.6499,0.003078
72.590,49.6308,0.003078
72.607,49.6110,0.003078
72.622,49.5934,0.003078
72.638,49.5749,0.003078
72.654,49.5564,0.003078
72.670,49.5384,0.003078
72.687,49.5193,0.003078
72.703,49.5015,0.003078
72.718,49.4852,0.003078
72.734,49.4677,0.003266
72.750,49.4507,0.003266
72.767,49.4326,0.003266
72.783,49.4164,0.003266
72.798,49.4001,0.003266
72.815,49.3837,0.003266
72.830,49.3677,0.003266
72.847,49.3513,0.003266
72.863,49.3355,0.003266
72.878,49.3205,0.003266
72.897,49.3015,0.003266
72.913,49.2877,0.003266
72.934,49.2677,0.003266
72.965,49.2390,0.003266
72.996,49.2121,0.003464
73.027,49.1845,0.003464
73.058,49.1584,0.003464
73.089,49.1329,0.003464
73.119,49.1091,0.003464
73.135,49.0968,0.003464
73.151,49.0845,0.003464
73.166,49.0728,0.003464
73.183,49.0607,0.003464
73.198,49.0493,0.003464
73.214,49.0378,0.003577
73.230,49.0263,0.003577
73.247,49.0146,0.003577
73.274,48.9961,0.003577
73.294,48.9824,0.003577
73.312,48.9715,0.003577
73.336,48.9560,0.003577
73.367,48.9370,0.003577
73.399,48.9184,0.003577
73.430,48.9007,0.003577
73.460,48.8848,0.003539
73.491,48.8690,0.003539
73.521,48.8538,0.003539
73.552,48.8393,0.003539
73.583,48.8253,0.003539
73.598,48.8190,0.003539
73.614,48.8122,0.003539
73.630,48.8057,0.003539
73.646,48.7994,0.003539
73.663,48.7931,0.003539
73.679,48.7871,0.003539
73.695,48.7816,0.003539
73.710,48.7763,0.003417
73.726,48.7709,0.003417
73.746,48.7643,0.003417
73.769,48.7576,0.003417
73.800,48.7488,0.003417
73.830,48.7410,0.003417
73.845,48.7372,0.003417
73.878,48.7299,0.003417
73.907,48.7240,0.003417
73.922,48.7210,0.003417
73.939,48.7184,0.003417
73.969,48.7137,0.003361
74.000,48.7095,0.003361
74.030,48.7064,0.003361
74.047,48.7047,0.003361
74.062,48.7035,0.003361
74.078,48.7025,0.003361
74.108,48.7010,0.003361
74.125,48.7005,0.003361
74.140,48.7002,0.003361
74.156,48.7000,0.003361
74.172,48.7000,0.003361
74.188,48.7000,0.003361
74.204,48.7000,0.003361
74.221,48.7000,0.003361
74.236,48.7000,0.003361
74.252,48.7000,0.003361
74.268,48.7000,0.003361
74.285,48.7000,0.003361
74.309,48.7000,0.003361
74.325,48.7000,0.003361
74.356,48.7000,0.003361
74.386,48.7000,0.003361
74.416,48.7000,0.003361
74.447,48.7000,0.003361
74.478,48.7000,0.003361
74.509,48.7000,0.003361
74.540,48.7000,0.003361
74.556,48.7000,0.003361
74.572,48.7000,0.003361
74.588,48.7000,0.003361
74.604,48.7000,0.003361
74.620,48.7000,0.003361
74.647,48.7000,0.003361
74.662,48.7000,0.003361
74.678,48.7000,0.003361
74.694,48.7000,0.003361
74.710,48.7000,0.003361
74.733,48.7000,0.003361
74.757,48.7000,0.003370
74.774,48.7000,0.003370
74.790,48.7000,0.003370
74.807,48.7000,0.003370
74.834,48.7002,0.003370
74.854,48.7007,0.003370
74.870,48.7013,0.003370
74.886,48.7020,0.003370
74.902,48.7030,0.003370
74.918,48.7043,0.003370
74.934,48.7056,0.003370
74.950,48.7071,0.003370
74.966,48.7090,0.003370
74.981,48.7108,0.003370
74.998,48.7131,0.003370
75.014,48.7154,0.003370
75.030,48.7180,0.003370
75.045,48.7206,0.003370
75.062,48.7236,0.003370
75.078,48.7267,0.003370
75.094,48.7300,0.003370
75.109,48.7335,0.003370
75.126,48.7372,0.003370
75.142,48.7411,0.003370
75.158,48.7453,0.003370
75.175,48.7496,0.003370
75.205,48.7585,0.003370
75.220,48.7630,0.003370
75.237,48.7682,0.003295
75.253,48.7737,0.003295
75.275,48.7813,0.003295
75.298,48.7892,0.003295
75.316,48.7962,0.003295
75.333,48.8024,0.003295
75.348,48.8089,0.003295
75.364,48.8154,0.003295
75.381,48.8222,0.003295
75.397,48.8296,0.003295
75.413,48.8366,0.003295
75.429,48.8439,0.003295
75.445,48.8513,0.003295
75.461,48.8593,0.003295
75.476,48.8668,0.003304
75.492,48.8750,0.003304
75.508,48.8833,0.003304
75.524,48.8919,0.003304
75.540,48.9006,0.003304
75.557,48.9098,0.003304
75.573,48.9188,0.003304
75.588,48.9279,0.003304
75.604,48.9374,0.003304
75.620,48.9471,0.003304
75.636,48.9569,0.003304
75.653,48.9674,0.003304
75.669,48.9775,0.003304
75.685,48.9881,0.003304
75.701,48.9993,0.003304
75.717,49.0098,0.003304
75.732,49.0205,0.003304
75.762,49.0412,0.003426
75.778,49.0530,0.003426
75.794,49.0652,0.003426
75.809,49.0768,0.003426
75.825,49.0887,0.003426
75.840,49.1000,0.003426
75.856,49.1124,0.003426
75.872,49.1251,0.003426
75.890,49.1397,0.003426
75.918,49.1625,0.003426
75.936,49.1780,0.003426
75.953,49.1932,0.003426
75.980,49.2156,0.003483
76.000,49.2342,0.003483
76.018,49.2501,0.003483
76.033,49.2643,0.003483
76.049,49.2791,0.003483
76.064,49.2935,0.003483
76.082,49.3099,0.003483
76.104,49.3311,0.003483
76.134,49.3618,0.003483
76.152,49.3796,0.003483
76.181,49.4086,0.003483
76.212,49.4414,0.003483
76.242,49.4738,0.003473
76.273,49.5080,0.003473
76.303,49.5412,0.003473
76.322,49.5621,0.003473
76.337,49.5796,0.003473
76.352,49.5975,0.003473
76.368,49.6158,0.003473
76.386,49.6374,0.003473
76.412,49.6694,0.003473
76.432,49.6933,0.003473
76.449,49.7133,0.003473
76.465,49.7339,0.003473
76.480,49.7530,0.003417
76.497,49.7747,0.003417
76.513,49.7952,0.003417
76.535,49.8242,0.003417
76.566,49.8647,0.003417
76.598,49.9075,0.003417
76.629,49.9491,0.003417
76.645,49.9715,0.003417
76.675,50.0138,0.003417
76.705,50.0569,0.003417
76.720,50.0777,0.003323
76.736,50.1001,0.003323
76.754,50.1273,0.003323
76.781,50.1664,0.003323
76.800,50.1955,0.003323
76.816,50.2193,0.003323
76.845,50.2637,0.003323
76.862,50.2895,0.003323
76.877,50.3135,0.003323
76.893,50.3388,0.003323
76.910,50.3659,0.003323
76.936,50.4070,0.003323
76.957,50.4417,0.003323
76.973,50.4681,0.003323
76.989,50.4930,0.003323
77.005,50.5191,0.003135
77.021,50.5459,0.003135
77.037,50.5739,0.003135
77.053,50.5997,0.003135
77.069,50.6271,0.003135
77.085,50.6545,0.003135
77.101,50.6844,0.003135
77.117,50.7097,0.003135
77.133,50.7385,0.003135
77.149,50.7665,0.003135
77.165,50.7945,0.003135
77.182,50.8247,0.003135
77.197,50.8525,0.003135
77.214,50.8833,0.003135
77.229,50.9109,0.003135
77.245,50.9395,0.002871
77.261,50.9694,0.002871
77.278,51.0012,0.002871
77.294,51.0301,0.002871
77.309,51.0585,0.002871
77.325,51.0889,0.002871
77.346,51.1310,0.002871
77.371,51.1804,0.002871
77.387,51.2088,0.002871
77.403,51.2399,0.002871
77.420,51.2735,0.002871
77.447,51.3278,0.002871
77.467,51.3665,0.002589
77.484,51.4018,0.002589
77.509,51.4530,0.002589
77.531,51.4981,0.002589
77.548,51.5324,0.002589
77.563,51.5637,0.002589
77.579,51.5970,0.002589
77.596,51.6331,0.002589
77.617,51.6778,0.002589
77.648,51.7436,0.002589
77.679,51.8092,0.002589
77.710,51.8724,0.002589
77.741,51.9378,0.002231
77.772,52.0009,0.002231
77.803,52.0634,0.002231
77.834,52.1226,0.002231
77.851,52.1574,0.002231
77.867,52.1877,0.002231
77.895,52.2419,0.002231
77.912,52.2748,0.002231
77.927,52.3034,0.002231
77.943,52.3335,0.002231
77.959,52.3647,0.002231
77.975,52.3943,0.002231
77.991,52.4236,0.002014
78.007,52.4534,0.002014
78.023,52.4837,0.002014
78.038,52.5110,0.002014
78.055,52.5428,0.002014
78.080,52.5883,0.002014
78.103,52.6284,0.002014
78.119,52.6551,0.002014
78.135,52.6832,0.002014
78.152,52.7132,0.002014
78.173,52.7501,0.002014
78.203,52.8025,0.002014
78.219,52.8284,0.002014
78.250,52.8786,0.001986
78.266,52.9068,0.001986
78.297,52.9560,0.001986
78.327,53.0064,0.001986
78.349,53.0405,0.001986
78.373,53.0784,0.001986
78.391,53.1063,0.001986
78.407,53.1316,0.001986
78.422,53.1547,0.001986
78.449,53.1956,0.001986
78.468,53.2235,0.001986
78.498,53.2694,0.001864
78.515,53.2936,0.001864
78.530,53.3154,0.001864
78.546,53.3373,0.001864
78.576,53.3820,0.001864
78.593,53.4054,0.001864
78.609,53.4261,0.001864
78.625,53.4483,0.001864
78.641,53.4702,0.001864
78.656,53.4914,0.001864
78.673,53.5139,0.001864
78.689,53.5360,0.001864
78.706,53.5584,0.001864
78.732,53.5921,0.001628
78.752,53.6181,0.001628
78.769,53.6396,0.001628
78.795,53.6718,0.001628
78.816,53.6982,0.001628
78.833,53.7193,0.001628
78.848,53.7372,0.001628
78.864,53.7562,0.001628
78.880,53.7758,0.001628
78.897,53.7955,0.001628
78.913,53.8138,0.001628
78.928,53.8314,0.001628
78.944,53.8500,0.001628
78.973,53.8814,0.001628
78.988,53.8986,0.001628
79.004,53.9162,0.001421
79.021,53.9339,0.001421
79.037,53.9512,0.001421
79.052,53.9676,0.001421
79.068,53.9847,0.001421
79.085,54.0018,0.001421
79.100,54.0172,0.001421
79.116,54.0334,0.001421
79.132,54.0495,0.001421
79.149,54.0658,0.001421
79.164,54.0808,0.001421
79.180,54.0965,0.001421
79.197,54.1124,0.001421
79.212,54.1263,0.001421
79.228,54.1418,0.001299
79.244,54.1563,0.001299
79.262,54.1722,0.001299
79.277,54.1856,0.001299
79.292,54.1984,0.001299
79.309,54.2132,0.001299
79.325,54.2266,0.001299
79.352,54.2496,0.001299
79.372,54.2657,0.001299
79.389,54.2800,0.001299
79.414,54.2987,0.001299
79.429,54.3106,0.001299
79.445,54.3230,0.001299
79.476,54.3460,0.001299
79.506,54.3685,0.001158
79.539,54.3905,0.001158
79.569,54.4109,0.001158
79.601,54.4313,0.001158
79.631,54.4505,0.001158
79.661,54.4686,0.001158
79.678,54.4783,0.001158
79.708,54.4952,0.001064
79.725,54.5047,0.001064
79.741,54.5138,0.001064
79.756,54.5216,0.001064
79.772,54.5295,0.001064
79.788,54.5376,0.001064
79.805,54.5460,0.001064
79.832,54.5587,0.001064
79.852,54.5677,0.001064
79.869,54.5754,0.001064
79.894,54.5861,0.001064
79.909,54.5921,0.001064
79.926,54.5987,0.001064
79.955,54.6099,0.001064
79.971,54.6156,0.000847
80.002,54.6264,0.000847
80.017,54.6312,0.000847
80.047,54.6409,0.000847
80.078,54.6496,0.000847
80.108,54.6574,0.000847
80.125,54.6616,0.000847
80.140,54.6652,0.000847
80.156,54.6689,0.000847
80.173,54.6724,0.000847
80.189,54.6756,0.000847
80.204,54.6785,0.000301
80.220,54.6812,0.000301
80.237,54.6839,0.000301
80.253,54.6863,0.000301
80.268,54.6884,0.000301
80.284,54.6904,0.000301
80.301,54.6924,0.000301
80.316,54.6940,0.000301
80.332,54.6953,0.000301
80.348,54.6966,0.000301
80.365,54.6977,0.000301
80.384,54.6988,0.000301
80.414,54.6997,0.000301
80.430,54.6999,0.000301
80.447,54.7000,0.000301
80.477,54.7000,-0.000169
80.493,54.7000,-0.000169
80.509,54.7000,-0.000169
80.526,54.7000,-0.000169
80.555,54.7000,-0.000169
80.585,54.7000,-0.000169
80.601,54.7000,-0.000169
80.616,54.7000,-0.000169
80.632,54.7000,-0.000169
80.649,54.7000,-0.000169
80.664,54.7000,-0.000169
80.680,54.7000,-0.000169
80.697,54.7000,-0.000169
80.712,54.7000,-0.000169
80.729,54.7000,-0.000169
80.744,54.7000,0.000038
80.760,54.7000,0.000038
80.777,54.7000,0.000038
80.792,54.7000,0.000038
80.808,54.7000,0.000038
80.825,54.7000,0.000038
80.841,54.7000,0.000038
80.857,54.7000,0.000038
80.872,54.7000,0.000038
80.888,54.7000,0.000038
80.904,54.7000,0.000038
80.920,54.7000,0.000038
80.936,54.7000,0.000038
80.953,54.7000,0.000038
80.968,54.7000,0.000038
80.984,54.7000,0.000518
81.001,54.7000,0.000518
81.017,54.7000,0.000518
81.032,54.7000,0.000518
81.049,54.7000,0.000518
81.065,54.7000,0.000518
81.081,54.7000,0.000518
81.097,54.7000,0.000518
81.112,54.7000,0.000518
81.142,54.7000,0.000518
81.158,54.7000,0.000518
81.174,54.7000,0.000518
81.189,54.7000,0.000518
81.206,54.7000,0.000518
81.222,54.7000,0.000518
81.237,54.7000,0.000697
81.254,54.7000,0.000697
81.271,54.7000,0.000697
81.294,54.7000,0.000697
81.314,54.7000,0.000697
81.335,54.7000,0.000697
81.360,54.7000,0.000697
81.381,54.7000,0.000697
81.401,54.7000,0.000697
81.416,54.7000,0.000697
81.437,54.7000,0.000697
81.453,54.7000,0.000697
81.483,54.7000,0.000810
81.500,54.7000,0.000810
81.531,54.7000,0.000810
81.561,54.7000,0.000810
81.591,54.7000,0.000810
81.622,54.7000,0.000810
81.639,54.7000,0.000810
81.669,54.7000,0.000810
81.698,54.7000,0.000810
81.715,54.7000,0.000810
81.731,54.7000,0.000857
81.747,54.7000,0.000857
81.763,54.7000,0.000857
81.780,54.7000,0.000857
81.810,54.7000,0.000857
81.827,54.7000,0.000857
81.842,54.7000,0.000857
81.858,54.7000,0.000857
81.874,54.7000,0.000857
81.891,54.7000,0.000857
81.907,54.7000,0.000857
81.922,54.7000,0.000857
81.938,54.7000,0.000857
81.961,54.7000,0.000857
81.982,54.7000,0.000857
82.002,54.7000,0.000847
82.019,54.7000,0.000847
82.035,54.7000,0.000847
82.050,54.7000,0.000847
82.066,54.7000,0.000847
82.082,54.7000,0.000847
82.099,54.7000,0.000847
82.115,54.7000,0.000847
82.130,54.7000,0.000847
82.147,54.7000,0.000847
82.162,54.7000,0.000847
82.178,54.7000,0.000847
82.194,54.7000,0.000847
82.223,54.7000,0.000857
82.238,54.7000,0.000857
82.254,54.7000,0.000857
82.270,54.7000,0.000857
82.286,54.7000,0.000857
82.302,54.7000,0.000857
82.318,54.7000,0.000857
82.335,54.7000,0.000857
82.350,54.7000,0.000857
82.366,54.7000,0.000857
82.382,54.7000,0.000857
82.398,54.7000,0.000857
82.414,54.7000,0.000857
82.430,54.7000,0.000857
82.446,54.7000,0.000857
82.462,54.7000,0.000857
82.478,54.7000,0.000847
82.494,54.7000,0.000847
82.518,54.7000,0.000847
82.540,54.7000,0.000847
82.559,54.7000,0.000847
82.574,54.7000,0.000847
82.590,54.7000,0.000847
82.606,54.7000,0.000847
82.622,54.7000,0.000847
82.641,54.7000,0.000847
82.665,54.7000,0.000847
82.686,54.7000,0.000847
82.704,54.7000,0.000847
82.727,54.7000,0.000847
82.758,54.7000,0.000894
82.789,54.7000,0.000894
82.819,54.7000,0.000894
82.834,54.7000,0.000894
82.865,54.7000,0.000894
82.896,54.7000,0.000894
82.926,54.7000,0.000894
82.944,54.7000,0.000894
82.974,54.7000,0.000913
82.990,54.7000,0.000913
83.006,54.7000,0.000913
83.023,54.7000,0.000913
83.051,54.7000,0.000913
83.071,54.7000,0.000913
83.097,54.7000,0.000913
83.118,54.7000,0.000913
83.134,54.7000,0.000913
83.150,54.7000,0.000913
83.166,54.7000,0.000913
83.182,54.7000,0.000913
83.199,54.7000,0.000913
83.215,54.7000,0.000913
83.231,54.7000,0.000922
83.253,54.7000,0.000922
83.277,54.7000,0.000922
83.293,54.7000,0.000922
83.309,54.7000,0.000922
83.325,54.7000,0.000922
83.341,54.7000,0.000922
83.357,54.7000,0.000922
83.373,54.7000,0.000922
83.390,54.7000,0.000922
83.410,54.7000,0.000922
83.426,54.7000,0.000922
83.456,54.7000,0.000922
83.471,54.7000,0.000932
83.487,54.7000,0.000932
83.518,54.7000,0.000932
83.533,54.7000,0.000932
83.548,54.7000,0.000932
83.568,54.7000,0.000932
83.587,54.7000,0.000932
83.610,54.7000,0.000932
83.629,54.7000,0.000932
83.645,54.7000,0.000932
83.661,54.7000,0.000932
83.686,54.7000,0.000932
83.702,54.7000,0.000932
83.717,54.7000,0.000932
83.733,54.7000,0.000913
83.764,54.7000,0.000913
83.795,54.7000,0.000913
83.826,54.7000,0.000913
83.856,54.7000,0.000913
83.887,54.7000,0.000913
83.918,54.7000,0.000913
83.934,54.7000,0.000913
83.949,54.7000,0.000913
83.973,54.7000,0.000913
83.994,54.7000,0.000913
84.012,54.7000,0.000941
84.028,54.7000,0.000941
84.045,54.7000,0.000941
84.061,54.7000,0.000941
84.077,54.7000,0.000941
84.093,54.7000,0.000941
84.118,54.7000,0.000941
84.149,54.7000,0.000941
84.165,54.7000,0.000941
84.196,54.7000,0.000941
84.213,54.7000,0.000941
84.243,54.7000,0.000941
84.274,54.7000,0.000838
84.303,54.7000,0.000838
84.334,54.7000,0.000838
84.350,54.7000,0.000838
84.366,54.7000,0.000838
84.382,54.7000,0.000838
84.398,54.7000,0.000838
84.413,54.7000,0.000838
84.428,54.7000,0.000838
84.445,54.7000,0.000838
84.461,54.7000,0.000838
84.476,54.7000,0.000838
84.492,54.7000,0.000687
84.508,54.7000,0.000687
84.531,54.7000,0.000687
84.553,54.7000,0.000687
84.572,54.7000,0.000687
84.589,54.7000,0.000687
84.604,54.7000,0.000687
84.621,54.7000,0.000687
84.636,54.7000,0.000687
84.653,54.7000,0.000687
84.669,54.7000,0.000687
84.685,54.7000,0.000687
84.700,54.7000,0.000687
84.717,54.7000,0.000687
84.733,54.7000,0.000527
84.748,54.7000,0.000527
84.764,54.6999,0.000527
84.781,54.6997,0.000527
84.796,54.6992,0.000527
84.813,54.6986,0.000527
84.828,54.6977,0.000527
84.852,54.6961,0.000527
84.869,54.6947,0.000527
84.884,54.6932,0.000527
84.901,54.6914,0.000527
84.917,54.6895,0.000527
84.932,54.6875,0.000527
84.949,54.6850,0.000527
84.970,54.6816,0.000527
85.000,54.6762,0.000414
85.031,54.6699,0.000414
85.047,54.6667,0.000414
85.079,54.6590,0.000414
85.109,54.6511,0.000414
85.124,54.6468,0.000414
85.141,54.6419,0.000414
85.171,54.6328,0.000414
85.188,54.6272,0.000414
85.205,54.6218,0.000414
85.221,54.6160,0.000414
85.236,54.6105,0.003455
85.252,54.6040,0.003455
85.269,54.5981,0.003455
85.295,54.5871,0.003455
85.317,54.5782,0.003455
85.333,54.5716,0.003455
85.348,54.5642,0.003455
85.364,54.5573,0.003455
85.389,54.5451,0.003455
85.410,54.5347,0.003455
85.425,54.5276,0.003455
85.451,54.5141,0.003455
85.469,54.5041,0.003455
85.498,54.4882,0.007446
85.516,54.4775,0.007446
85.532,54.4685,0.007446
85.549,54.4583,0.007446
85.565,54.4484,0.007446
85.580,54.4391,0.007446
85.596,54.4290,0.007446
85.612,54.4186,0.007446
85.628,54.4080,0.007446
85.646,54.3961,0.007446
85.661,54.3853,0.007446
85.685,54.3687,0.007446
85.718,54.3447,0.007446
85.740,54.3291,0.007446
85.756,54.3167,0.008133
85.772,54.3048,0.008133
85.788,54.2920,0.008133
85.804,54.2794,0.008133
85.820,54.2665,0.008133
85.836,54.2531,0.008133
85.852,54.2404,0.008133
85.868,54.2265,0.008133
85.884,54.2126,0.008133
85.902,54.1972,0.008133
85.933,54.1701,0.008133
85.964,54.1416,0.008133
85.980,54.1274,0.010571
85.996,54.1122,0.010571
86.014,54.0956,0.010571
86.041,54.0689,0.010571
86.060,54.0505,0.010571
86.076,54.0343,0.010571
86.092,54.0183,0.010571
86.108,54.0019,0.010571
86.124,53.9852,0.010571
86.140,53.9686,0.010571
86.156,53.9519,0.010571
86.172,53.9348,0.010571
86.188,53.9176,0.010571
86.204,53.8992,0.010571
86.220,53.8822,0.009413
86.236,53.8644,0.009413
86.252,53.8459,0.009413
86.268,53.8273,0.009413
86.284,53.8089,0.009413
86.300,53.7908,0.009413
86.316,53.7716,0.009413
86.332,53.7527,0.009413
86.348,53.7332,0.009413
86.364,53.7138,0.009413
86.380,53.6945,0.009413
86.396,53.6747,0.009413
86.412,53.6540,0.009413
86.428,53.6346,0.009413
86.447,53.6096,0.009413
86.474,53.5745,0.009413
86.507,53.5317,0.003473
86.524,53.5092,0.003473
86.551,53.4722,0.003473
86.572,53.4436,0.003473
86.597,53.4087,0.003473
86.628,53.3636,0.003473
86.651,53.3319,0.003473
86.666,53.3096,0.003473
86.682,53.2863,0.003473
86.698,53.2620,0.003473
86.714,53.2392,0.003473
86.731,53.2140,0.001459
86.752,53.1821,0.001459
86.782,53.1367,0.001459
86.798,53.1123,0.001459
86.815,53.0854,0.001459
86.845,53.0378,0.001459
86.861,53.0134,0.001459
86.877,52.9863,0.001459
86.908,52.9367,0.001459
86.924,52.9106,0.001459
86.940,52.8840,0.001459
86.956,52.8577,0.001459
86.987,52.8047,0.001628
87.006,52.7721,0.001628
87.034,52.7245,0.001628
87.065,52.6718,0.001628
87.082,52.6419,0.001628
87.111,52.5889,0.001628
87.129,52.5577,0.001628
87.145,52.5275,0.001628
87.174,52.4764,0.001628
87.193,52.4411,0.001628
87.209,52.4119,0.001628
87.225,52.3813,0.001873
87.240,52.3526,0.001873
87.257,52.3202,0.001873
87.272,52.2916,0.001873
87.288,52.2611,0.001873
87.304,52.2304,0.001873
87.321,52.1987,0.001873
87.337,52.1671,0.001873
87.352,52.1368,0.001873
87.368,52.1052,0.001873
87.385,52.0702,0.001873
87.401,52.0406,0.001873
87.416,52.0092,0.001873
87.433,51.9741,0.001873
87.449,51.9424,0.001873
87.464,51.9112,0.002052
87.480,51.8785,0.002052
87.497,51.8443,0.002052
87.512,51.8115,0.002052
87.529,51.7767,0.002052
87.544,51.7447,0.002052
87.562,51.7060,0.002052
87.591,51.6435,0.002052
87.621,51.5800,0.002052
87.638,51.5445,0.002052
87.654,51.5134,0.002052
87.670,51.4785,0.002052
87.688,51.4407,0.002052
87.715,51.3851,0.002165
87.733,51.3491,0.002165
87.750,51.3140,0.002165
87.777,51.2614,0.002165
87.797,51.2222,0.002165
87.814,51.1878,0.002165
87.830,51.1579,0.002165
87.854,51.1098,0.002165
87.885,51.0515,0.002165
87.915,50.9935,0.002165
87.930,50.9653,0.002165
87.961,50.9096,0.002382
87.977,50.8781,0.002382
88.007,50.8236,0.002382
88.023,50.7960,0.002382
88.039,50.7678,0.002382
88.070,50.7122,0.002382
88.085,50.6849,0.002382
88.101,50.6564,0.002382
88.117,50.6295,0.002382
88.133,50.6016,0.002382
88.149,50.5745,0.002382
88.176,50.5275,0.002382
88.199,50.4907,0.002382
88.222,50.4512,0.002664
88.241,50.4201,0.002664
88.268,50.3750,0.002664
88.288,50.3447,0.002664
88.304,50.3182,0.002664
88.321,50.2918,0.002664
88.336,50.2683,0.002664
88.352,50.2439,0.002664
88.370,50.2163,0.002664
88.391,50.1831,0.002664
88.422,50.1361,0.002664
88.453,50.0905,0.002664
88.468,50.0673,0.002928
88.499,50.0240,0.002928
88.514,50.0022,0.002928
88.529,49.9806,0.002928
88.560,49.9368,0.002928
88.576,49.9146,0.002928
88.592,49.8929,0.002928
88.609,49.8685,0.002928
88.637,49.8319,0.002928
88.656,49.8061,0.002928
88.672,49.7852,0.002928
88.688,49.7645,0.002928
88.704,49.7438,0.002928
88.729,49.7123,0.003088
88.745,49.6911,0.003088
88.761,49.6721,0.003088
88.777,49.6520,0.003088
88.793,49.6317,0.003088
88.809,49.6132,0.003088
88.825,49.5940,0.003088
88.841,49.5745,0.003088
88.857,49.5559,0.003088
88.873,49.5374,0.003088
88.889,49.5188,0.003088
88.905,49.5009,0.003088
88.922,49.4811,0.003088
88.947,49.4534,0.003088
88.962,49.4362,0.003088
88.993,49.4036,0.003266
89.023,49.3708,0.003266
89.054,49.3391,0.003266
89.085,49.3080,0.003266
89.101,49.2926,0.003266
89.132,49.2621,0.003266
89.148,49.2462,0.003266
89.163,49.2320,0.003266
89.179,49.2175,0.003266
89.209,49.1901,0.003266
89.225,49.1760,0.003266
89.241,49.1618,0.003266
89.271,49.1362,0.003473
89.287,49.1223,0.003473
89.302,49.1092,0.003473
89.318,49.0960,0.003473
89.336,49.0818,0.003473
89.363,49.0600,0.003473
89.383,49.0449,0.003473
89.399,49.0319,0.003473
89.424,49.0131,0.003473
89.440,49.0012,0.003473
89.464,48.9844,0.003473
89.479,48.9734,0.003473
89.494,48.9631,0.003577
89.510,48.9522,0.003577
89.528,48.9404,0.003577
89.543,48.9300,0.003577
89.559,48.9204,0.003577
89.575,48.9101,0.003577
89.590,48.9002,0.003577
89.607,48.8908,0.003577
89.622,48.8812,0.003577
89.639,48.8718,0.003577
89.654,48.8628,0.003577
89.671,48.8535,0.003577
89.687,48.8448,0.003577
89.702,48.8360,0.003577
89.720,48.8274,0.003577
89.751,48.8117,0.003605
89.768,48.8026,0.003605
89.783,48.7959,0.003605
89.798,48.7887,0.003605
89.829,48.7751,0.003605
89.851,48.7655,0.003605
89.874,48.7566,0.003605
89.892,48.7490,0.003605
89.909,48.7428,0.003605
89.925,48.7369,0.003605
89.941,48.7312,0.003605
89.958,48.7255,0.003605
89.980,48.7178,0.003605
89.995,48.7132,0.003568
90.012,48.7082,0.003568
90.043,48.6993,0.003568
90.058,48.6954,0.003568
90.073,48.6915,0.003568
90.104,48.6839,0.003568
90.120,48.6806,0.003568
90.136,48.6772,0.003568
90.167,48.6711,0.003568
90.197,48.6662,0.003568
90.213,48.6639,0.003568
90.229,48.6617,0.003464
90.244,48.6597,0.003464
90.261,48.6577,0.003464
90.277,48.6561,0.003464
90.292,48.6548,0.003464
90.308,48.6535,0.003464
90.324,48.6524,0.003464
90.341,48.6515,0.003464
90.357,48.6509,0.003464
90.382,48.6502,0.003464
90.397,48.6501,0.003464
90.414,48.6501,0.003464
90.429,48.6501,0.003464
90.446,48.6501,0.003464
90.462,48.6501,0.003464
90.478,48.6501,0.003361
90.494,48.6501,0.003361
90.514,48.6501,0.003361
90.538,48.6501,0.003361
90.557,48.6501,0.003361
90.574,48.6501,0.003361
90.590,48.6501,0.003361
90.615,48.6501,0.003361
90.639,48.6501,0.003361
90.654,48.6501,0.003361
90.677,48.6501,0.003361
90.692,48.6501,0.003361
90.723,48.6501,0.003361
90.739,48.6501,0.003351
90.775,48.6501,0.003351
90.800,48.6501,0.003351
90.831,48.6501,0.003351
90.847,48.6501,0.003351
90.863,48.6501,0.003351
90.879,48.6501,0.003351
90.910,48.6501,0.003351
90.939,48.6501,0.003351
90.955,48.6501,0.003351
90.971,48.6501,0.003398
90.987,48.6501,0.003398
91.011,48.6501,0.003398
91.034,48.6501,0.003398
91.051,48.6501,0.003398
91.068,48.6501,0.003398
91.083,48.6501,0.003398
91.099,48.6501,0.003398
91.115,48.6501,0.003398
91.131,48.6501,0.003398
91.147,48.6501,0.003398
91.163,48.6501,0.003398
91.179,48.6501,0.003398
91.195,48.6503,0.003398
91.211,48.6507,0.003398
91.227,48.6513,0.003389
91.243,48.6522,0.003389
91.260,48.6532,0.003389
91.282,48.6549,0.003389
91.313,48.6580,0.003389
91.344,48.6616,0.003389
91.375,48.6662,0.003389
91.390,48.6687,0.003389
91.406,48.6713,0.003389
91.422,48.6741,0.003389
91.438,48.6776,0.003389
91.455,48.6808,0.003389
91.485,48.6876,0.003257
91.515,48.6953,0.003257
91.531,48.6994,0.003257
91.547,48.7040,0.003257
91.566,48.7095,0.003257
91.592,48.7178,0.003257
91.611,48.7240,0.003257
91.627,48.7294,0.003257
91.643,48.7349,0.003257
91.659,48.7410,0.003257
91.675,48.7469,0.003257
91.691,48.7530,0.003257
91.708,48.7599,0.003257
91.724,48.7663,0.003229
91.740,48.7732,0.003229
91.755,48.7800,0.003229
91.771,48.7871,0.003229
91.787,48.7943,0.003229
91.803,48.8019,0.003229
91.819,48.8100,0.003229
91.836,48.8180,0.003229
91.856,48.8288,0.003229
91.872,48.8368,0.003229
91.903,48.8539,0.003229
91.934,48.8711,0.003229
91.950,48.8806,0.003229
91.980,48.8991,0.003436
91.996,48.9088,0.003436
92.021,48.9245,0.003436
92.036,48.9344,0.003436
92.052,48.9451,0.003436
92.068,48.9558,0.003436
92.085,48.9669,0.003436
92.105,48.9811,0.003436
92.120,48.9930,0.003436
92.137,49.0048,0.003436
92.167,49.0270,0.003436
92.183,49.0395,0.003436
92.214,49.0639,0.003436
92.245,49.0879,0.003558
92.276,49.1133,0.003558
92.292,49.1268,0.003558
92.308,49.1407,0.003558
92.324,49.1552,0.003558
92.340,49.1686,0.003558
92.356,49.1830,0.003558
92.372,49.1975,0.003558
92.388,49.2125,0.003558
92.404,49.2268,0.003558
92.420,49.2425,0.003558
92.436,49.2568,0.003558
92.453,49.2739,0.003558
92.468,49.2887,0.003558
92.484,49.3042,0.003549
92.500,49.3197,0.003549
92.516,49.3363,0.003549
92.531,49.3523,0.003549
92.548,49.3691,0.003549
92.571,49.3938,0.003549
92.586,49.4093,0.003549
92.602,49.4272,0.003549
92.618,49.4438,0.003549
92.634,49.4618,0.003549
92.650,49.4795,0.003549
92.666,49.4976,0.003549
92.681,49.5154,0.003549
92.698,49.5353,0.003549
92.714,49.5523,0.003549
92.729,49.5717,0.003502
92.746,49.5906,0.003502
92.762,49.6102,0.003502
92.778,49.6297,0.003502
92.793,49.6481,0.003502
92.810,49.6684,0.003502
92.826,49.6891,0.003502
92.847,49.7150,0.003502
92.879,49.7568,0.003502
92.909,49.7959,0.003502
92.925,49.8175,0.003502
92.941,49.8380,0.003502
92.957,49.8595,0.003502
92.988,49.9027,0.003370
93.018,49.9437,0.003370
93.033,49.9652,0.003370
93.049,49.9878,0.003370
93.065,50.0103,0.003370
93.082,50.0344,0.003370
93.098,50.0572,0.003370
93.125,50.0972,0.003370
93.140,50.1208,0.003370
93.157,50.1450,0.003370
93.172,50.1682,0.003370
93.188,50.1940,0.003370
93.204,50.2172,0.003370
93.220,50.2423,0.003191
93.236,50.2671,0.003191
93.253,50.2931,0.003191
93.269,50.3192,0.003191
93.285,50.3433,0.003191
93.300,50.3684,0.003191
93.317,50.3953,0.003191
93.333,50.4214,0.003191
93.348,50.4470,0.003191
93.364,50.4732,0.003191
93.381,50.5009,0.003191
93.396,50.5269,0.003191
93.412,50.5539,0.003191
93.428,50.5811,0.003191
93.445,50.6097,0.003191
93.460,50.6362,0.003191
93.476,50.6638,0.003003
93.492,50.6926,0.003003
93.508,50.7214,0.003003
93.524,50.7488,0.003003
93.540,50.7777,0.003003
93.556,50.8079,0.003003
93.573,50.8358,0.003003
93.588,50.8640,0.003003
93.604,50.8934,0.003003
93.621,50.9240,0.003003
93.636,50.9539,0.003003
93.653,50.9834,0.003003
93.681,51.0386,0.003003
93.697,51.0679,0.003003
93.713,51.0988,0.002824
93.743,51.1584,0.002824
93.763,51.1951,0.002824
93.790,51.2506,0.002824
93.808,51.2854,0.002824
93.824,51.3177,0.002824
93.840,51.3492,0.002824
93.857,51.3850,0.002824
93.872,51.4157,0.002824
93.889,51.4498,0.002824
93.904,51.4820,0.002824
93.920,51.5135,0.002824
93.936,51.5474,0.002824
93.952,51.5807,0.002824
93.969,51.6171,0.002504
93.990,51.6635,0.002504
94.007,51.6976,0.002504
94.037,51.7601,0.002504
94.067,51.8231,0.002504
94.083,51.8558,0.002504
94.114,51.9213,0.002504
94.130,51.9527,0.002504
94.146,51.9852,0.002504
94.177,52.0461,0.002504
94.208,52.1067,0.002504
94.224,52.1377,0.002504
94.240,52.1696,0.002240
94.256,52.2013,0.002240
94.272,52.2326,0.002240
94.288,52.2612,0.002240
94.305,52.2940,0.002240
94.320,52.3223,0.002240
94.336,52.3533,0.002240
94.352,52.3811,0.002240
94.368,52.4118,0.002240
94.384,52.4403,0.002240
94.400,52.4692,0.002240
94.416,52.4983,0.002240
94.432,52.5289,0.002240
94.448,52.5569,0.002240
94.464,52.5838,0.002137
94.480,52.6124,0.002137
94.496,52.6417,0.002137
94.513,52.6694,0.002137
94.533,52.7066,0.002137
94.550,52.7330,0.002137
94.581,52.7860,0.002137
94.611,52.8363,0.002137
94.642,52.8872,0.002137
94.672,52.9375,0.002137
94.689,52.9632,0.002137
94.719,53.0112,0.001901
94.737,53.0390,0.001901
94.752,53.0623,0.001901
94.768,53.0867,0.001901
94.796,53.1300,0.001901
94.812,53.1543,0.001901
94.828,53.1785,0.001901
94.844,53.2011,0.001901
94.867,53.2353,0.001901
94.889,53.2686,0.001901
94.908,53.2955,0.001901
94.924,53.3180,0.001901
94.940,53.3406,0.001901
94.956,53.3631,0.001619
94.972,53.3855,0.001619
94.988,53.4066,0.001619
95.004,53.4295,0.001619
95.020,53.4503,0.001619
95.036,53.4720,0.001619
95.052,53.4944,0.001619
95.068,53.5144,0.001619
95.084,53.5355,0.001619
95.101,53.5574,0.001619
95.122,53.5845,0.001619
95.138,53.6043,0.001619
95.153,53.6233,0.001619
95.183,53.6608,0.001619
95.199,53.6802,0.001619
95.232,53.7205,0.001619
95.260,53.7525,0.001440
95.275,53.7702,0.001440
95.292,53.7891,0.001440
95.307,53.8067,0.001440
95.333,53.8351,0.001440
95.349,53.8531,0.001440
95.365,53.8703,0.001440
95.380,53.8871,0.001440
95.398,53.9059,0.001440
95.414,53.9235,0.001440
95.430,53.9389,0.001440
95.460,53.9715,0.001440
95.478,53.9881,0.001440
95.493,54.0033,0.001365
95.508,54.0184,0.001365
95.525,54.0344,0.001365
95.540,54.0495,0.001365
95.556,54.0647,0.001365
95.573,54.0799,0.001365
95.589,54.0948,0.001365
95.606,54.1104,0.001365
95.629,54.1313,0.001365
95.660,54.1588,0.001365
95.691,54.1847,0.001365
95.723,54.2116,0.001365
95.754,54.2359,0.001205
95.784,54.2598,0.001205
95.814,54.2821,0.001205
95.830,54.2935,0.001205
95.846,54.3061,0.001205
95.861,54.3166,0.001205
95.891,54.3373,0.001205
95.907,54.3483,0.001205
95.923,54.3591,0.001205
95.939,54.3699,0.001205
95.956,54.3806,0.001205
95.971,54.3900,0.001205
95.987,54.4000,0.001073
96.003,54.4097,0.001073
96.020,54.4194,0.001073
96.035,54.4287,0.001073
96.052,54.4379,0.001073
96.067,54.4467,0.001073
96.083,54.4556,0.001073
96.099,54.4641,0.001073
96.115,54.4726,0.001073
96.131,54.4806,0.001073
96.160,54.4950,0.001073
96.180,54.5043,0.001073
96.195,54.5114,0.001073
96.212,54.5190,0.001073
96.227,54.5258,0.000913
96.243,54.5327,0.000913
96.259,54.5393,0.000913
96.276,54.5459,0.000913
96.292,54.5521,0.000913
96.308,54.5582,0.000913
96.324,54.5641,0.000913
96.339,54.5697,0.000913
96.356,54.5753,0.000913
96.371,54.5804,0.000913
96.389,54.5864,0.000913
96.418,54.5947,0.000913
96.448,54.6032,0.000913
96.464,54.6074,0.000913
96.480,54.6114,0.000489
96.495,54.6148,0.000489
96.511,54.6184,0.000489
96.527,54.6218,0.000489
96.543,54.6251,0.000489
96.559,54.6281,0.000489
96.576,54.6311,0.000489
96.592,54.6337,0.000489
96.607,54.6359,0.000489
96.623,54.6383,0.000489
96.640,54.6404,0.000489
96.656,54.6421,0.000489
96.671,54.6437,0.000489
96.687,54.6452,0.000489
96.705,54.6466,0.000489
96.731,54.6483,-0.000047
96.751,54.6492,-0.000047
96.768,54.6497,-0.000047
96.783,54.6499,-0.000047
96.800,54.6501,-0.000047
96.816,54.6501,-0.000047
96.839,54.6501,-0.000047
96.855,54.6501,-0.000047
96.885,54.6501,-0.000047
96.916,54.6501,-0.000047
96.946,54.6501,-0.000047
96.962,54.6501,-0.000047
96.989,54.6501,-0.000132
97.005,54.6501,-0.000132
