Elapsed Time (s),Position (mm),Force (N)
-0.021,62.9094,-0.630035
0.010,62.9094,-0.630035
0.041,62.9094,-0.516913
0.072,62.9094,-0.516913
0.103,62.9094,-0.516913
0.134,62.9094,-0.516913
0.165,62.9094,-0.516913
0.195,62.9094,-0.516913
0.226,62.9094,-0.516913
0.258,62.9094,-0.516913
0.287,62.9094,-0.516913
0.316,62.9094,-0.453562
0.349,62.9094,-0.453562
0.383,62.9094,-0.453562
0.411,62.9094,-0.453562
0.443,62.9094,-0.453562
0.474,62.9094,-0.453562
0.508,62.9094,-0.453562
0.536,62.9094,-0.414951
0.568,62.9094,-0.414951
0.599,62.9094,-0.414951
0.630,62.9094,-0.414951
0.661,62.9094,-0.414951
0.692,62.9094,-0.414951
0.723,62.9094,-0.414951
0.754,62.9094,-0.414951
0.786,62.9094,-0.414951
0.817,62.9094,-0.388385
0.848,62.9094,-0.388385
0.881,62.9094,-0.388385
0.911,62.9094,-0.388385
0.942,62.9094,-0.388385
0.974,62.9094,-0.388385
1.005,62.9094,-0.388385
1.037,62.9094,-0.369038
1.067,62.9094,-0.369038
1.097,62.9094,-0.369038
1.131,62.9094,-0.369038
1.160,62.9094,-0.369038
1.192,62.9094,-0.369038
1.223,62.9094,-0.369038
1.254,62.9094,-0.369038
1.285,62.9094,-0.354395
1.316,62.9094,-0.354395
1.348,62.9094,-0.354395
1.379,62.9094,-0.354395
1.409,62.9094,-0.354395
1.440,62.9094,-0.354395
1.471,62.9094,-0.354395
1.501,62.9094,-0.354395
1.534,62.9094,-0.354395
1.564,62.9094,-0.354395
1.595,62.9094,-0.342999
1.626,62.9094,-0.342999
1.660,62.9094,-0.342999
1.687,62.9094,-0.342999
1.720,62.9094,-0.342999
1.750,62.9094,-0.342999
1.781,62.9094,-0.342999
1.812,62.9094,-0.333899
1.843,62.9094,-0.333899
1.874,62.9094,-0.333899
1.905,62.9094,-0.333899
1.936,62.9094,-0.333899
1.968,62.9094,-0.333899
1.999,62.9094,-0.333899
2.033,62.9094,-0.333899
2.061,62.9094,-0.333899
2.091,62.9094,-0.326456
2.123,62.9094,-0.326456
2.153,62.9094,-0.326456
2.184,62.9094,-0.326456
2.215,62.9094,-0.326456
2.246,62.9094,-0.326456
2.276,62.9094,-0.326456
2.308,62.9094,-0.320283
2.338,62.9094,-0.320283
2.370,62.9094,-0.320283
2.401,62.9094,-0.320283
2.431,62.9094,-0.320283
2.463,62.9094,-0.320283
2.493,62.9094,-0.320283
2.524,62.9094,-0.320283
2.556,62.9094,-0.314937
2.588,62.9094,-0.314937
2.617,62.9094,-0.314937
2.650,62.9094,-0.314937
2.680,62.9094,-0.314937
2.712,62.9094,-0.314937
2.743,62.9094,-0.314937
2.774,62.9094,-0.314937
2.805,62.9094,-0.310307
2.837,62.9094,-0.310307
2.868,62.9094,-0.310307
2.899,62.9094,-0.310307
2.931,62.9094,-0.310307
2.962,62.9094,-0.310307
2.993,62.9094,-0.310307
3.024,62.9094,-0.310307
3.056,62.9094,-0.306317
3.086,62.9094,-0.306317
3.117,62.9094,-0.306317
3.148,62.9094,-0.306317
3.179,62.9094,-0.306317
3.210,62.9094,-0.306317
3.242,62.9094,-0.306317
3.274,62.9094,-0.306317
3.304,62.9094,-0.302864
3.336,62.9094,-0.302864
3.367,62.9094,-0.302864
3.399,62.9094,-0.302864
3.429,62.9094,-0.302864
3.458,62.9094,-0.302864
3.490,62.9094,-0.302864
3.522,62.9094,-0.302864
3.553,62.9094,-0.299467
3.583,62.9094,-0.299467
3.614,62.9094,-0.299467
3.646,62.9094,-0.299467
3.677,62.9094,-0.299467
3.708,62.9094,-0.299467
3.739,62.9094,-0.299467
3.771,62.9094,-0.299467
3.802,62.9094,-0.295251
3.833,62.9094,-0.295251
3.865,62.9094,-0.295251
3.896,62.9094,-0.295251
3.930,62.9094,-0.295251
3.957,62.9094,-0.295251
3.988,62.9094,-0.295251
4.019,62.9094,-0.295251
4.051,62.9094,-0.290207
4.082,62.9094,-0.290207
4.110,62.9094,-0.290207
4.144,62.9094,-0.290207
4.175,62.9093,-0.290207
4.207,62.9084,-0.290207
4.237,62.9069,-0.290207
4.269,62.9046,-0.290207
4.301,62.9015,-0.283582
4.331,62.8977,-0.283582
4.361,62.8935,-0.283582
4.392,62.8883,-0.283582
4.423,62.8825,-0.283582
4.454,62.8758,-0.283582
4.486,62.8681,-0.283582
4.515,62.8607,-0.283582
4.546,62.8517,0.161388
4.578,62.8419,0.161388
4.609,62.8318,0.161388
4.640,62.8208,0.161388
4.671,62.8093,0.161388
4.702,62.7965,0.161388
4.732,62.7840,0.161388
4.762,62.7702,0.161388
4.794,62.7556,0.161388
4.825,62.7401,0.342453
4.856,62.7242,0.342453
4.888,62.7069,0.342453
4.918,62.6896,0.342453
4.948,62.6718,0.342453
4.980,62.6524,0.342453
5.011,62.6331,0.342453
5.042,62.6124,0.342453
5.073,62.5908,0.051842
5.104,62.5697,0.051842
5.135,62.5466,0.051842
5.165,62.5242,0.051842
5.196,62.5001,0.051842
5.228,62.4748,0.051842
5.258,62.4491,0.051842
5.289,62.4237,0.051842
5.320,62.3972,0.034404
5.350,62.3695,0.034404
5.381,62.3412,0.034404
5.415,62.3089,0.034404
5.445,62.2808,0.034404
5.476,62.2502,0.034404
5.507,62.2180,0.034404
5.538,62.1866,0.034404
5.569,62.1534,0.061450
5.601,62.1192,0.061450
5.631,62.0856,0.061450
5.663,62.0495,0.061450
5.699,62.0085,0.061450
5.740,61.9606,0.061450
5.772,61.9204,0.061450
5.801,61.8851,0.061450
5.832,61.8464,0.083282
5.864,61.8058,0.083282
5.894,61.7658,0.083282
5.926,61.7239,0.083282
5.958,61.6803,0.083282
5.989,61.6368,0.083282
6.020,61.5951,0.083282
6.052,61.5497,0.092316
6.082,61.5056,0.092316
6.113,61.4607,0.092316
6.143,61.4138,0.092316
6.175,61.3667,0.092316
6.206,61.3213,0.092316
6.238,61.2737,0.092316
6.268,61.2278,0.092316
6.299,61.1819,0.092316
6.329,61.1361,0.092354
6.360,61.0889,0.092354
6.391,61.0430,0.092354
6.422,60.9958,0.092354
6.453,60.9492,0.092354
6.484,60.9041,0.092354
6.514,60.8573,0.092354
6.546,60.8114,0.091328
6.577,60.7640,0.091328
6.610,60.7133,0.091328
6.638,60.6713,0.091328
6.672,60.6220,0.091328
6.701,60.5786,0.091328
6.732,60.5321,0.091328
6.764,60.4837,0.091328
6.795,60.4370,0.091328
6.825,60.3920,0.091328
6.856,60.3456,0.091328
6.887,60.2995,0.093803
6.918,60.2537,0.093803
6.948,60.2077,0.093803
6.979,60.1622,0.093803
7.009,60.1160,0.093803
7.040,60.0699,0.101689
7.071,60.0226,0.101689
7.104,59.9745,0.101689
7.134,59.9285,0.101689
7.165,59.8829,0.101689
7.195,59.8360,0.101689
7.226,59.7910,0.101689
7.257,59.7441,0.101689
7.289,59.6968,0.116519
7.319,59.6498,0.116519
7.350,59.6042,0.116519
7.384,59.5527,0.116519
7.412,59.5114,0.116519
7.442,59.4669,0.116519
7.473,59.4194,0.116519
7.504,59.3746,0.116519
7.535,59.3262,0.135001
7.568,59.2791,0.135001
7.598,59.2343,0.135001
7.629,59.1911,0.135001
7.660,59.1473,0.135001
7.691,59.1032,0.135001
7.722,59.0619,0.135001
7.754,59.0189,0.135001
7.784,58.9797,0.132686
7.815,58.9390,0.132686
7.846,58.9001,0.132686
7.877,58.8615,0.132686
7.908,58.8232,0.132686
7.939,58.7869,0.132686
7.970,58.7500,0.132686
8.001,58.7148,0.132686
8.031,58.6811,0.074304
8.062,58.6471,0.074304
8.093,58.6140,0.074304
8.125,58.5795,0.074304
8.155,58.5484,0.074304
8.186,58.5171,0.074304
8.217,58.4868,0.074304
8.252,58.4513,0.074304
8.280,58.4267,0.024476
8.312,58.3969,0.024476
8.343,58.3699,0.024476
8.374,58.3431,0.024476
8.405,58.3166,0.024476
8.436,58.2913,0.024476
8.466,58.2671,0.024476
8.497,58.2435,0.024476
8.528,58.2197,0.024476
8.560,58.1970,0.020788
8.590,58.1760,0.020788
8.621,58.1550,0.020788
8.652,58.1344,0.020788
8.683,58.1144,0.020788
8.715,58.0952,0.020788
8.746,58.0771,0.020788
8.778,58.0591,0.020788
8.809,58.0422,0.019291
8.845,58.0235,0.019291
8.886,58.0039,0.019291
8.916,57.9901,0.019291
8.948,57.9765,0.019291
8.979,57.9638,0.019291
9.012,57.9507,0.019291
9.040,57.9409,0.019291
9.072,57.9300,0.018397
9.104,57.9201,0.018397
9.134,57.9111,0.018397
9.165,57.9029,0.018397
9.196,57.8953,0.018397
9.226,57.8887,0.018397
9.257,57.8826,0.018397
9.287,57.8770,0.017880
9.318,57.8724,0.017880
9.350,57.8683,0.017880
9.380,57.8651,0.017880
9.411,57.8626,0.017880
9.443,57.8607,0.017880
9.474,57.8597,0.017880
9.505,57.8593,0.017880
9.536,57.8593,0.017466
9.567,57.8593,0.017466
9.599,57.8593,0.017466
9.630,57.8593,0.017466
9.660,57.8593,0.017466
9.692,57.8595,0.017466
9.722,57.8605,0.017466
9.754,57.8623,0.017466
9.785,57.8647,0.017268
9.816,57.8680,0.017268
9.848,57.8719,0.017268
9.879,57.8767,0.017268
9.910,57.8820,0.017268
9.942,57.8884,0.017268
9.973,57.8951,0.017268
10.005,57.9033,0.017268
10.034,57.9109,0.017061
10.066,57.9199,0.017061
10.097,57.9300,0.017061
10.128,57.9408,0.017061
10.160,57.9518,0.017061
10.189,57.9635,0.017061
10.221,57.9761,0.017061
10.252,57.9899,0.017061
10.283,58.0037,0.016788
10.314,58.0188,0.016788
10.345,58.0343,0.016788
10.377,58.0509,0.016788
10.406,58.0673,0.016788
10.438,58.0851,0.016788
10.468,58.1034,0.016788
10.498,58.1225,0.016788
10.530,58.1423,0.016581
10.561,58.1634,0.016581
10.592,58.1847,0.016581
10.623,58.2063,0.016581
10.654,58.2299,0.016581
10.685,58.2528,0.016581
10.716,58.2774,0.016581
10.749,58.3038,0.016581
10.779,58.3290,0.016327
10.811,58.3567,0.016327
10.841,58.3830,0.016327
10.872,58.4113,0.016327
10.903,58.4391,0.016327
10.934,58.4691,0.016327
10.965,58.4990,0.016327
10.996,58.5309,0.016327
11.028,58.5624,0.015828
11.060,58.5955,0.015828
11.090,58.6279,0.015828
11.121,58.6621,0.015828
11.151,58.6957,0.015828
11.182,58.7298,0.015828
11.213,58.7661,0.015828
11.245,58.8039,0.015828
11.276,58.8413,0.015828
11.306,58.8780,0.014812
11.337,58.9173,0.014812
11.367,58.9554,0.014812
11.399,58.9973,0.014812
11.430,59.0389,0.014812
11.462,59.0810,0.014812
11.493,59.1236,0.014812
11.524,59.1681,0.014812
11.555,59.2119,0.013080
11.587,59.2582,0.013080
11.616,59.3009,0.013080
11.646,59.3450,0.013080
11.677,59.3906,0.013080
11.707,59.4375,0.013080
11.738,59.4839,0.013080
11.769,59.5295,0.013080
11.801,59.5764,0.013080
11.833,59.6248,0.010446
11.864,59.6705,0.010446
11.895,59.7182,0.010446
11.926,59.7640,0.010446
11.958,59.8125,0.010446
11.989,59.8583,0.010446
12.019,59.9042,0.010446
12.050,59.9506,0.007105
12.081,59.9982,0.007105
12.113,60.0446,0.007105
12.144,60.0916,0.007105
12.175,60.1382,0.007105
12.206,60.1844,0.007105
12.236,60.2301,0.007105
12.269,60.2786,0.007105
12.299,60.3239,0.002456
12.330,60.3710,0.002456
12.361,60.4173,0.002456
12.392,60.4633,0.002456
12.422,60.5100,0.002456
12.453,60.5559,0.002456
12.484,60.6026,0.002456
12.515,60.6482,0.002456
12.547,60.6967,-0.004517
12.578,60.7432,-0.004517
12.609,60.7902,-0.004517
12.639,60.8346,-0.004517
12.670,60.8822,-0.004517
12.699,60.9255,-0.004517
12.733,60.9755,-0.004517
12.761,61.0169,-0.004517
12.792,61.0637,-0.015132
12.822,61.1094,-0.015132
12.855,61.1596,-0.015132
12.884,61.2026,-0.015132
12.915,61.2501,-0.015132
12.947,61.2962,-0.015132
12.977,61.3420,-0.015132
13.008,61.3881,-0.015132
13.038,61.4323,-0.032325
13.070,61.4783,-0.032325
13.100,61.5212,-0.032325
13.131,61.5652,-0.032325
13.162,61.6081,-0.032325
13.194,61.6517,-0.032325
13.224,61.6932,-0.032325
13.255,61.7340,-0.032325
13.286,61.7727,-0.059925
13.317,61.8129,-0.059925
13.348,61.8511,-0.059925
13.378,61.8886,-0.059925
13.409,61.9258,-0.059925
13.440,61.9617,-0.059925
13.470,61.9963,-0.059925
13.502,62.0327,-0.059925
13.532,62.0657,-0.099976
13.563,62.0990,-0.099976
13.594,62.1325,-0.099976
13.625,62.1650,-0.099976
13.656,62.1959,-0.099976
13.688,62.2279,-0.099976
13.719,62.2572,-0.099976
13.749,62.2862,-0.099976
13.781,62.3153,-0.154791
13.813,62.3439,-0.154791
13.847,62.3735,-0.154791
13.874,62.3972,-0.154791
13.906,62.4229,-0.154791
13.937,62.4483,-0.154791
13.968,62.4720,-0.154791
13.998,62.4945,-0.154791
14.029,62.5177,-0.154791
14.061,62.5399,-0.244924
14.092,62.5615,-0.244924
14.123,62.5819,-0.244924
14.157,62.6032,-0.244924
14.182,62.6186,-0.244924
14.216,62.6389,-0.244924
14.247,62.6560,-0.244924
14.278,62.6734,-0.244924
14.310,62.6893,-0.244924
14.344,62.7065,-0.410048
14.371,62.7190,-0.410048
14.405,62.7347,-0.410048
14.433,62.7462,-0.410048
14.465,62.7590,-0.410048
14.496,62.7705,-0.410048
14.527,62.7814,-0.410048
14.557,62.7918,-0.410048
14.589,62.8014,-0.660440
14.619,62.8101,-0.660440
14.650,62.8181,-0.660440
14.680,62.8254,-0.660440
14.711,62.8321,-0.660440
14.742,62.8381,-0.660440
14.773,62.8432,-0.660440
14.804,62.8478,-0.971557
14.836,62.8515,-0.971557
14.866,62.8545,-0.971557
14.897,62.8567,-0.971557
14.928,62.8583,-0.971557
14.959,62.8592,-0.971557
14.990,62.8593,-0.971557
15.021,62.8593,-1.138591
15.057,62.8593,-1.138591
15.084,62.8593,-1.138591
15.115,62.8593,-1.138591
15.146,62.8593,-1.138591
15.177,62.8593,-1.138591
15.209,62.8593,-1.138591
15.240,62.8593,-1.138591
15.271,62.8593,-1.138591
15.302,62.8593,-1.138591
15.333,62.8593,-0.952990
15.364,62.8593,-0.952990
15.396,62.8593,-0.952990
15.427,62.8593,-0.952990
15.458,62.8593,-0.952990
15.488,62.8593,-0.952990
15.520,62.8593,-0.952990
15.546,62.8593,-0.952990
15.581,62.8593,-0.676080
15.612,62.8593,-0.676080
15.643,62.8593,-0.676080
15.673,62.8593,-0.676080
15.704,62.8593,-0.676080
15.735,62.8593,-0.676080
15.766,62.8593,-0.676080
15.798,62.8593,-0.676080
15.828,62.8593,-0.536938
15.859,62.8593,-0.536938
15.890,62.8593,-0.536938
15.921,62.8593,-0.536938
15.952,62.8593,-0.536938
15.983,62.8593,-0.536938
16.014,62.8593,-0.536938
16.045,62.8593,-0.536938
16.077,62.8593,-0.461627
16.108,62.8593,-0.461627
16.138,62.8593,-0.461627
16.171,62.8593,-0.461627
16.201,62.8593,-0.461627
16.232,62.8593,-0.461627
16.262,62.8593,-0.461627
16.294,62.8593,-0.461627
16.324,62.8593,-0.417002
16.355,62.8593,-0.417002
16.386,62.8593,-0.417002
16.417,62.8593,-0.417002
16.449,62.8593,-0.417002
16.479,62.8593,-0.417002
16.510,62.8593,-0.417002
16.541,62.8593,-0.417002
16.573,62.8593,-0.388310
16.603,62.8593,-0.388310
16.635,62.8593,-0.388310
16.666,62.8593,-0.388310
16.697,62.8593,-0.388310
16.728,62.8593,-0.388310
16.759,62.8593,-0.388310
16.789,62.8593,-0.388310
16.823,62.8593,-0.388310
16.851,62.8593,-0.367767
16.881,62.8593,-0.367767
16.912,62.8593,-0.367767
16.943,62.8593,-0.367767
16.975,62.8593,-0.367767
17.005,62.8593,-0.367767
17.039,62.8593,-0.367767
17.068,62.8593,-0.367767
17.099,62.8593,-0.352259
17.130,62.8593,-0.352259
17.162,62.8593,-0.352259
17.193,62.8593,-0.352259
17.231,62.8593,-0.352259
17.272,62.8593,-0.352259
17.304,62.8593,-0.352259
17.335,62.8593,-0.340552
17.366,62.8593,-0.340552
17.398,62.8593,-0.340552
17.428,62.8593,-0.340552
17.460,62.8593,-0.340552
17.490,62.8593,-0.340552
17.521,62.8593,-0.340552
17.551,62.8593,-0.331359
17.582,62.8593,-0.331359
17.612,62.8593,-0.331359
17.643,62.8593,-0.331359
17.675,62.8593,-0.331359
17.706,62.8593,-0.331359
17.737,62.8593,-0.331359
17.768,62.8593,-0.331359
17.799,62.8593,-0.323764
17.831,62.8593,-0.323764
17.862,62.8593,-0.323764
17.893,62.8593,-0.323764
17.925,62.8593,-0.323764
17.956,62.8593,-0.323764
17.987,62.8593,-0.323764
18.017,62.8593,-0.323764
18.048,62.8593,-0.317516
18.080,62.8593,-0.317516
18.112,62.8593,-0.317516
18.144,62.8593,-0.317516
18.174,62.8593,-0.317516
18.206,62.8593,-0.317516
18.238,62.8593,-0.317516
18.268,62.8593,-0.317516
18.298,62.8593,-0.312048
18.330,62.8593,-0.312048
18.361,62.8593,-0.312048
18.392,62.8593,-0.312048
18.422,62.8593,-0.312048
18.453,62.8593,-0.312048
18.485,62.8593,-0.312048
18.515,62.8593,-0.312048
18.545,62.8593,-0.312048
18.576,62.8593,-0.307541
18.607,62.8593,-0.307541
18.638,62.8593,-0.307541
18.669,62.8593,-0.307541
18.700,62.8593,-0.307541
18.731,62.8593,-0.307541
18.762,62.8593,-0.307541
18.793,62.8593,-0.307541
18.824,62.8593,-0.303711
18.855,62.8593,-0.303711
18.885,62.8593,-0.303711
18.917,62.8593,-0.303711
18.948,62.8593,-0.303711
18.979,62.8593,-0.303711
19.010,62.8593,-0.303711
19.041,62.8593,-0.303711
19.072,62.8593,-0.300210
19.104,62.8593,-0.300210
19.134,62.8593,-0.300210
19.166,62.8593,-0.300210
19.197,62.8593,-0.300210
19.228,62.8593,-0.300210
19.257,62.8593,-0.300210
19.289,62.8593,-0.300210
19.319,62.8593,-0.297171
19.350,62.8593,-0.297171
19.381,62.8593,-0.297171
19.411,62.8593,-0.297171
19.442,62.8593,-0.297171
19.474,62.8593,-0.297171
19.505,62.8593,-0.297171
19.536,62.8593,-0.297171
19.567,62.8593,-0.297171
19.598,62.8593,-0.294075
19.629,62.8593,-0.294075
19.664,62.8593,-0.294075
19.690,62.8593,-0.294075
19.722,62.8593,-0.294075
19.752,62.8593,-0.294075
19.784,62.8593,-0.294075
19.813,62.8593,-0.290141
19.845,62.8593,-0.290141
19.877,62.8593,-0.290141
19.911,62.8593,-0.290141
19.938,62.8593,-0.290141
19.970,62.8593,-0.290141
20.001,62.8593,-0.290141
20.032,62.8593,-0.285342
20.063,62.8593,-0.285342
20.093,62.8593,-0.285342
20.124,62.8587,-0.285342
20.155,62.8574,-0.285342
20.186,62.8555,-0.285342
20.217,62.8527,-0.285342
20.249,62.8491,-0.285342
20.281,62.8448,-0.285342
20.311,62.8398,-0.258108
20.343,62.8340,-0.258108
20.375,62.8273,-0.258108
20.406,62.8204,-0.258108
20.436,62.8127,-0.258108
20.470,62.8032,-0.258108
20.499,62.7946,-0.258108
20.530,62.7840,-0.258108
20.561,62.7733,0.462473
20.592,62.7619,0.462473
20.623,62.7498,0.462473
20.655,62.7361,0.462473
20.685,62.7229,0.462473
20.716,62.7082,0.462473
20.749,62.6921,0.462473
20.778,62.6771,0.462473
20.812,62.6589,0.594181
20.840,62.6432,0.594181
20.871,62.6251,0.594181
20.902,62.6063,0.594181
20.933,62.5867,0.594181
20.963,62.5672,0.594181
20.995,62.5458,0.594181
21.026,62.5241,0.029040
21.057,62.5016,0.029040
21.088,62.4777,0.029040
21.119,62.4544,0.029040
21.150,62.4294,0.029040
21.181,62.4046,0.029040
21.213,62.3773,0.029040
21.244,62.3508,0.029040
21.275,62.3228,0.029040
21.306,62.2949,0.042413
21.338,62.2647,0.042413
21.369,62.2346,0.042413
21.401,62.2038,0.042413
21.430,62.1738,0.042413
21.462,62.1419,0.042413
21.493,62.1091,0.042413
21.523,62.0763,0.069100
21.557,62.0381,0.069100
21.587,62.0040,0.069100
21.617,61.9712,0.069100
21.647,61.9353,0.069100
21.678,61.8982,0.069100
21.710,61.8597,0.069100
21.740,61.8226,0.069100
21.777,61.7743,0.069100
21.818,61.7231,0.087573
21.849,61.6800,0.087573
21.880,61.6396,0.087573
21.911,61.5959,0.087573
21.943,61.5526,0.087573
21.974,61.5077,0.087573
22.005,61.4634,0.087573
22.036,61.4178,0.087573
22.067,61.3721,0.093709
22.099,61.3238,0.093709
22.130,61.2786,0.093709
22.160,61.2312,0.093709
22.192,61.1850,0.093709
22.224,61.1372,0.093709
22.255,61.0902,0.093709
22.286,61.0441,0.092636
22.317,60.9958,0.092636
22.350,60.9486,0.092636
22.380,60.9033,0.092636
22.411,60.8559,0.092636
22.441,60.8107,0.092636
22.472,60.7637,0.092636
22.503,60.7175,0.092636
22.536,60.6679,0.092636
22.566,60.6243,0.092259
22.597,60.5773,0.092259
22.630,60.5272,0.092259
22.658,60.4845,0.092259
22.691,60.4362,0.092259
22.720,60.3917,0.092259
22.751,60.3463,0.092259
22.782,60.2985,0.092259
22.814,60.2516,0.096080
22.844,60.2059,0.096080
22.875,60.1607,0.096080
22.907,60.1132,0.096080
22.937,60.0677,0.096080
22.968,60.0210,0.096080
22.999,59.9730,0.096080
23.030,59.9265,0.105509
23.061,59.8812,0.105509
23.091,59.8357,0.105509
23.122,59.7885,0.105509
23.154,59.7410,0.105509
23.185,59.6961,0.105509
23.216,59.6482,0.105509
23.247,59.6010,0.105509
23.278,59.5549,0.122034
23.310,59.5084,0.122034
23.341,59.4609,0.122034
23.371,59.4159,0.122034
23.402,59.3685,0.122034
23.433,59.3236,0.122034
23.464,59.2763,0.122034
23.495,59.2309,0.122034
23.526,59.1853,0.139048
23.557,59.1406,0.139048
23.589,59.0970,0.139048
23.619,59.0540,0.139048
23.650,59.0125,0.139048
23.681,58.9705,0.139048
23.712,58.9299,0.139048
23.742,58.8905,0.139048
23.773,58.8522,0.139048
23.805,58.8122,0.111918
23.835,58.7757,0.111918
23.865,58.7395,0.111918
23.897,58.7029,0.111918
23.927,58.6673,0.111918
23.959,58.6313,0.111918
23.990,58.5974,0.111918
24.021,58.5641,0.111918
24.055,58.5275,0.111918
24.083,58.4997,0.111918
24.114,58.4676,0.051400
24.145,58.4374,0.051400
24.176,58.4073,0.051400
24.206,58.3791,0.051400
24.238,58.3499,0.051400
24.269,58.3226,0.051400
24.300,58.2949,0.051400
24.331,58.2692,0.051400
24.362,58.2438,0.022980
24.393,58.2188,0.022980
24.424,58.1949,0.022980
24.455,58.1708,0.022980
24.486,58.1488,0.022980
24.517,58.1271,0.022980
24.548,58.1057,0.022980
24.579,58.0855,0.020317
24.610,58.0654,0.020317
24.642,58.0464,0.020317
24.672,58.0282,0.020317
24.703,58.0112,0.020317
24.735,57.9936,0.020317
24.765,57.9785,0.020317
24.795,57.9632,0.020317
24.826,57.9485,0.019103
24.857,57.9348,0.019103
24.888,57.9217,0.019103
24.918,57.9095,0.019103
24.949,57.8977,0.019103
24.979,57.8872,0.019103
25.010,57.8768,0.019103
25.041,57.8676,0.019103
25.072,57.8585,0.018303
25.102,57.8507,0.018303
25.134,57.8429,0.018303
25.167,57.8362,0.018303
25.198,57.8301,0.018303
25.229,57.8251,0.018303
25.262,57.8203,0.018303
25.291,57.8170,0.018303
25.322,57.8140,0.017757
25.353,57.8117,0.017757
25.385,57.8102,0.017757
25.416,57.8094,0.017757
25.447,57.8093,0.017757
25.477,57.8093,0.017757
25.509,57.8093,0.017757
25.540,57.8093,0.017447
25.571,57.8093,0.017447
25.601,57.8093,0.017447
25.632,57.8094,0.017447
25.665,57.8103,0.017447
25.693,57.8117,0.017447
25.724,57.8138,0.017447
25.756,57.8167,0.017447
25.787,57.8203,0.017447
25.820,57.8252,0.017306
25.848,57.8298,0.017306
25.881,57.8363,0.017306
25.907,57.8414,0.017306
25.942,57.8495,0.017306
25.973,57.8576,0.017306
26.004,57.8662,0.017306
26.034,57.8758,0.017306
26.067,57.8863,0.017089
26.098,57.8972,0.017089
26.128,57.9085,0.017089
26.159,57.9209,0.017089
26.194,57.9358,0.017089
26.220,57.9476,0.017089
26.251,57.9625,0.017089
26.283,57.9776,0.017089
26.314,57.9941,0.016845
26.346,58.0111,0.016845
26.376,58.0286,0.016845
26.408,58.0473,0.016845
26.440,58.0668,0.016845
26.471,58.0860,0.016845
26.502,58.1070,0.016845
26.533,58.1276,0.016638
26.564,58.1504,0.016638
26.597,58.1737,0.016638
26.626,58.1953,0.016638
26.657,58.2195,0.016638
26.688,58.2443,0.016638
26.722,58.2728,0.016638
26.750,58.2957,0.016638
26.781,58.3230,0.016638
26.812,58.3513,0.016638
26.843,58.3791,0.016289
26.874,58.4083,0.016289
26.905,58.4384,0.016289
26.936,58.4685,0.016289
26.967,58.5005,0.016289
26.997,58.5312,0.016289
27.029,58.5650,0.016289
27.060,58.5986,0.016289
27.091,58.6329,0.015697
27.123,58.6692,0.015697
27.154,58.7043,0.015697
27.185,58.7423,0.015697
27.216,58.7782,0.015697
27.247,58.8161,0.015697
27.278,58.8563,0.014596
27.309,58.8941,0.014596
27.339,58.9330,0.014596
27.370,58.9746,0.014596
27.402,59.0169,0.014596
27.434,59.0596,0.014596
27.464,59.1024,0.014596
27.495,59.1460,0.014596
27.527,59.1920,0.014596
27.557,59.2351,0.014596
27.588,59.2818,0.012676
27.619,59.3276,0.012676
27.650,59.3742,0.012676
27.682,59.4219,0.012676
27.714,59.4711,0.012676
27.743,59.5143,0.012676
27.774,59.5604,0.012676
27.805,59.6083,0.009843
27.838,59.6574,0.009843
27.868,59.7012,0.009843
27.899,59.7484,0.009843
27.930,59.7941,0.009843
27.965,59.8475,0.009843
27.991,59.8865,0.009843
28.022,59.9325,0.009843
28.052,59.9771,0.006352
28.083,60.0250,0.006352
28.115,60.0717,0.006352
28.146,60.1185,0.006352
28.178,60.1655,0.006352
28.210,60.2155,0.006352
28.240,60.2593,0.006352
28.271,60.3061,0.006352
28.301,60.3507,0.001430
28.332,60.3978,0.001430
28.364,60.4460,0.001430
28.395,60.4928,0.001430
28.426,60.5387,0.001430
28.458,60.5854,0.001430
28.488,60.6317,0.001430
28.520,60.6797,0.001430
28.550,60.7251,0.001430
28.581,60.7714,-0.006230
28.612,60.8174,-0.006230
28.643,60.8634,-0.006230
28.674,60.9103,-0.006230
28.705,60.9567,-0.006230
28.736,61.0037,-0.006230
28.767,61.0495,-0.006230
28.797,61.0956,-0.017889
28.829,61.1437,-0.017889
28.860,61.1887,-0.017889
28.890,61.2353,-0.017889
28.922,61.2826,-0.017889
28.954,61.3312,-0.017889
28.984,61.3754,-0.017889
29.015,61.4210,-0.017889
29.049,61.4701,-0.036823
29.077,61.5092,-0.036823
29.108,61.5518,-0.036823
29.139,61.5948,-0.036823
29.170,61.6362,-0.036823
29.201,61.6778,-0.036823
29.232,61.7168,-0.036823
29.263,61.7575,-0.036823
29.294,61.7958,-0.036823
29.325,61.8339,-0.067322
29.355,61.8700,-0.067322
29.386,61.9064,-0.067322
29.419,61.9454,-0.067322
29.448,61.9769,-0.067322
29.479,62.0121,-0.067322
29.509,62.0437,-0.067322
29.539,62.0770,-0.111127
29.570,62.1083,-0.111127
29.601,62.1402,-0.111127
29.633,62.1723,-0.111127
29.663,62.2009,-0.111127
29.695,62.2309,-0.111127
29.725,62.2596,-0.111127
29.757,62.2877,-0.111127
29.788,62.3147,-0.170911
29.818,62.3408,-0.170911
29.849,62.3668,-0.170911
29.880,62.3915,-0.170911
29.911,62.4158,-0.170911
29.942,62.4394,-0.170911
29.973,62.4619,-0.170911
30.004,62.4844,-0.170911
30.035,62.5057,-0.271424
30.067,62.5269,-0.271424
30.098,62.5465,-0.271424
30.129,62.5662,-0.271424
30.160,62.5841,-0.271424
30.191,62.6022,-0.271424
30.221,62.6186,-0.271424
30.252,62.6349,-0.271424
30.283,62.6507,-0.448508
30.315,62.6661,-0.448508
30.346,62.6798,-0.448508
30.376,62.6930,-0.448508
30.408,62.7056,-0.448508
30.439,62.7179,-0.448508
30.470,62.7292,-0.448508
30.501,62.7395,-0.448508
30.531,62.7488,-0.448508
30.562,62.7578,-0.709289
30.593,62.7662,-0.709289
30.624,62.7737,-0.709289
30.655,62.7805,-0.709289
30.686,62.7867,-0.709289
30.718,62.7921,-0.709289
30.748,62.7968,-0.709289
30.779,62.8006,-0.709289
30.810,62.8039,-1.008106
30.840,62.8062,-1.008106
30.872,62.8081,-1.008106
30.903,62.8091,-1.008106
30.934,62.8093,-1.008106
30.964,62.8093,-1.008106
30.995,62.8093,-1.008106
31.026,62.8093,-1.094249
31.057,62.8093,-1.094249
31.088,62.8093,-1.094249
31.119,62.8093,-1.094249
31.149,62.8093,-1.094249
31.180,62.8093,-1.094249
31.212,62.8093,-1.094249
31.242,62.8093,-1.094249
31.274,62.8093,-1.094249
31.305,62.8093,-0.869680
31.337,62.8093,-0.869680
31.368,62.8093,-0.869680
31.399,62.8093,-0.869680
31.429,62.8093,-0.869680
31.462,62.8093,-0.869680
31.492,62.8093,-0.869680
31.523,62.8093,-0.869680
31.554,62.8093,-0.632660
31.584,62.8093,-0.632660
31.614,62.8093,-0.632660
31.645,62.8093,-0.632660
31.676,62.8093,-0.632660
31.706,62.8093,-0.632660
31.737,62.8093,-0.632660
31.768,62.8093,-0.632660
31.799,62.8093,-0.632660
31.831,62.8093,-0.517110
31.862,62.8093,-0.517110
31.894,62.8093,-0.517110
31.924,62.8093,-0.517110
31.955,62.8093,-0.517110
31.985,62.8093,-0.517110
32.017,62.8093,-0.517110
32.048,62.8093,-0.517110
32.079,62.8093,-0.452282
32.110,62.8093,-0.452282
32.141,62.8093,-0.452282
32.173,62.8093,-0.452282
32.204,62.8093,-0.452282
32.234,62.8093,-0.452282
32.266,62.8093,-0.452282
32.297,62.8093,-0.452282
32.328,62.8093,-0.411196
32.359,62.8093,-0.411196
32.390,62.8093,-0.411196
32.421,62.8093,-0.411196
32.452,62.8093,-0.411196
32.483,62.8093,-0.411196
32.514,62.8093,-0.411196
32.545,62.8093,-0.411196
32.576,62.8093,-0.383360
32.607,62.8093,-0.383360
32.639,62.8093,-0.383360
32.669,62.8093,-0.383360
32.700,62.8093,-0.383360
32.731,62.8093,-0.383360
32.763,62.8093,-0.383360
32.792,62.8093,-0.383360
32.823,62.8093,-0.363279
32.854,62.8093,-0.363279
32.885,62.8093,-0.363279
32.916,62.8093,-0.363279
32.947,62.8093,-0.363279
32.979,62.8093,-0.363279
33.008,62.8093,-0.363279
33.039,62.8093,-0.363279
33.070,62.8093,-0.348278
33.101,62.8093,-0.348278
33.132,62.8093,-0.348278
33.164,62.8093,-0.348278
33.194,62.8093,-0.348278
33.226,62.8093,-0.348278
33.257,62.8093,-0.348278
33.287,62.8093,-0.348278
33.319,62.8093,-0.336779
33.350,62.8093,-0.336779
33.382,62.8093,-0.336779
33.414,62.8093,-0.336779
33.444,62.8093,-0.336779
33.475,62.8093,-0.336779
33.506,62.8093,-0.336779
33.537,62.8093,-0.336779
33.567,62.8093,-0.327566
33.598,62.8093,-0.327566
33.628,62.8093,-0.327566
33.660,62.8093,-0.327566
33.690,62.8093,-0.327566
33.722,62.8093,-0.327566
33.754,62.8093,-0.327566
33.786,62.8093,-0.327566
33.816,62.8093,-0.319991
33.846,62.8093,-0.319991
33.878,62.8093,-0.319991
33.910,62.8093,-0.319991
33.940,62.8093,-0.319991
33.976,62.8093,-0.319991
34.002,62.8093,-0.319991
34.033,62.8093,-0.319991
34.064,62.8093,-0.319991
34.094,62.8093,-0.313742
34.125,62.8093,-0.313742
34.155,62.8093,-0.313742
34.187,62.8093,-0.313742
34.217,62.8093,-0.313742
34.248,62.8093,-0.313742
34.279,62.8093,-0.313742
34.310,62.8093,-0.308472
34.341,62.8093,-0.308472
34.373,62.8093,-0.308472
34.403,62.8093,-0.308472
34.434,62.8093,-0.308472
34.465,62.8093,-0.308472
34.496,62.8093,-0.308472
34.528,62.8093,-0.308472
34.559,62.8093,-0.303833
34.591,62.8093,-0.303833
34.622,62.8093,-0.303833
34.653,62.8093,-0.303833
34.684,62.8093,-0.303833
34.716,62.8093,-0.303833
34.746,62.8093,-0.303833
34.778,62.8093,-0.303833
34.809,62.8093,-0.299175
34.840,62.8093,-0.299175
34.871,62.8093,-0.299175
34.903,62.8093,-0.299175
34.933,62.8093,-0.299175
34.965,62.8093,-0.299175
34.996,62.8093,-0.299175
35.027,62.8093,-0.299175
35.058,62.8093,-0.293952
35.089,62.8093,-0.293952
35.121,62.8093,-0.293952
35.152,62.8093,-0.293952
35.183,62.8093,-0.293952
35.214,62.8093,-0.293952
35.245,62.8093,-0.293952
35.276,62.8091,-0.293952
35.307,62.8081,-0.288268
35.338,62.8062,-0.288268
35.369,62.8039,-0.288268
35.401,62.8005,-0.288268
35.432,62.7967,-0.288268
35.463,62.7918,-0.288268
35.493,62.7866,-0.288268
35.525,62.7803,-0.288268
35.557,62.7735,-0.205241
35.587,62.7659,-0.205241
35.617,62.7580,-0.205241
35.648,62.7488,-0.205241
35.678,62.7392,-0.205241
35.715,62.7270,-0.205241
35.756,62.7117,-0.205241
35.787,62.6997,-0.205241
35.818,62.6868,0.441404
35.852,62.6714,0.441404
35.879,62.6586,0.441404
35.910,62.6436,0.441404
35.944,62.6258,0.441404
35.972,62.6115,0.441404
36.005,62.5920,0.441404
36.034,62.5758,0.441404
36.067,62.5558,0.512480
36.098,62.5357,0.512480
36.130,62.5150,0.512480
36.163,62.4932,0.512480
36.193,62.4711,0.512480
36.224,62.4488,0.512480
36.255,62.4263,0.512480
36.285,62.4025,0.512480
36.317,62.3775,0.025577
36.347,62.3524,0.025577
36.378,62.3257,0.025577
36.409,62.2998,0.025577
36.445,62.2675,0.025577
36.471,62.2439,0.025577
36.502,62.2144,0.025577
36.532,62.1854,0.048661
36.564,62.1538,0.048661
36.597,62.1202,0.048661
36.624,62.0926,0.048661
36.656,62.0595,0.048661
36.687,62.0262,0.048661
36.718,61.9921,0.048661
36.749,61.9565,0.048661
36.780,61.9206,0.048661
36.811,61.8852,0.048661
36.842,61.8483,0.073956
36.874,61.8097,0.073956
36.904,61.7714,0.073956
36.935,61.7325,0.073956
36.966,61.6921,0.073956
36.997,61.6527,0.073956
37.028,61.6100,0.073956
37.059,61.5683,0.088204
37.091,61.5232,0.088204
37.121,61.4823,0.088204
37.152,61.4376,0.088204
37.183,61.3922,0.088204
37.215,61.3463,0.088204
37.246,61.2995,0.088204
37.277,61.2529,0.088204
37.308,61.2057,0.088204
37.339,61.1588,0.091507
37.370,61.1130,0.091507
37.401,61.0659,0.091507
37.431,61.0211,0.091507
37.462,60.9738,0.091507
37.493,60.9284,0.091507
37.524,60.8812,0.091507
37.556,60.8341,0.090754
37.587,60.7865,0.090754
37.617,60.7421,0.090754
37.649,60.6935,0.090754
37.680,60.6470,0.090754
37.711,60.6021,0.090754
37.743,60.5544,0.090754
37.773,60.5093,0.092043
37.804,60.4623,0.092043
37.835,60.4160,0.092043
37.867,60.3677,0.092043
37.897,60.3233,0.092043
37.929,60.2744,0.092043
37.959,60.2296,0.092043
37.991,60.1815,0.092043
38.021,60.1365,0.092043
38.052,60.0899,0.097567
38.084,60.0427,0.097567
38.117,59.9932,0.097567
38.146,59.9491,0.097567
38.177,59.9015,0.097567
38.208,59.8558,0.097567
38.243,59.8034,0.097567
38.270,59.7626,0.097567
38.301,59.7164,0.097567
38.331,59.6713,0.109095
38.363,59.6245,0.109095
38.394,59.5784,0.109095
38.425,59.5298,0.109095
38.456,59.4842,0.109095
38.488,59.4355,0.109095
38.519,59.3902,0.109095
38.550,59.3431,0.109095
38.580,59.2992,0.127285
38.611,59.2515,0.127285
38.642,59.2064,0.127285
38.673,59.1599,0.127285
38.703,59.1166,0.127285
38.735,59.0699,0.127285
38.766,59.0285,0.127285
38.797,58.9844,0.127285
38.828,58.9430,0.139133
38.860,58.9003,0.139133
38.890,58.8612,0.139133
38.921,58.8221,0.139133
38.956,58.7783,0.139133
38.983,58.7457,0.139133
39.014,58.7085,0.139133
39.045,58.6700,0.139133
39.078,58.6329,0.088034
39.107,58.5993,0.088034
39.138,58.5654,0.088034
39.169,58.5309,0.088034
39.200,58.4983,0.088034
39.231,58.4659,0.088034
39.263,58.4330,0.088034
39.293,58.4020,0.029182
39.324,58.3725,0.029182
39.355,58.3422,0.029182
39.387,58.3135,0.029182
39.418,58.2853,0.029182
39.449,58.2569,0.029182
39.480,58.2315,0.029182
39.511,58.2053,0.029182
39.547,58.1769,0.029182
39.574,58.1553,0.021653
39.605,58.1315,0.021653
39.636,58.1091,0.021653
39.666,58.0865,0.021653
39.698,58.0653,0.021653
39.728,58.0443,0.021653
39.760,58.0244,0.021653
39.791,58.0046,0.021653
39.822,57.9865,0.019809
39.854,57.9682,0.019809
39.884,57.9518,0.019809
39.917,57.9337,0.019809
39.945,57.9201,0.019809
39.977,57.9049,0.019809
40.007,57.8909,0.019809
40.038,57.8774,0.019809
40.069,57.8647,0.019809
40.101,57.8525,0.018774
40.131,57.8413,0.018774
40.162,57.8308,0.018774
40.194,57.8208,0.018774
40.225,57.8118,0.018774
40.256,57.8032,0.018774
40.287,57.7957,0.018774
40.318,57.7888,0.018049
40.349,57.7825,0.018049
40.380,57.7772,0.018049
40.411,57.7725,0.018049
40.442,57.7684,0.018049
40.473,57.7652,0.018049
40.503,57.7627,0.018049
40.535,57.7608,0.018049
40.566,57.7597,0.017626
40.597,57.7593,0.017626
40.629,57.7593,0.017626
40.659,57.7593,0.017626
40.691,57.7593,0.017626
40.720,57.7593,0.017626
40.751,57.7595,0.017626
40.782,57.7601,0.017626
40.814,57.7616,0.017437
40.844,57.7637,0.017437
40.876,57.7666,0.017437
40.909,57.7704,0.017437
40.939,57.7748,0.017437
40.971,57.7800,0.017437
41.002,57.7859,0.017437
41.034,57.7926,0.017202
41.068,57.8008,0.017202
41.096,57.8078,0.017202
41.127,57.8166,0.017202
41.158,57.8262,0.017202
41.191,57.8370,0.017202
41.220,57.8476,0.017202
41.251,57.8592,0.017202
41.282,57.8713,0.016967
41.312,57.8843,0.016967
41.347,57.9001,0.016967
41.375,57.9129,0.016967
41.406,57.9285,0.016967
41.437,57.9441,0.016967
41.467,57.9611,0.016967
41.501,57.9797,0.016967
41.529,57.9966,0.016967
41.562,58.0164,0.016798
41.593,58.0361,0.016798
41.624,58.0569,0.016798
41.656,58.0783,0.016798
41.686,58.0998,0.016798
41.717,58.1221,0.016798
41.747,58.1448,0.016798
41.779,58.1703,0.016525
41.809,58.1938,0.016525
41.840,58.2197,0.016525
41.871,58.2450,0.016525
41.902,58.2725,0.016525
41.933,58.2998,0.016525
41.964,58.3282,0.016525
41.995,58.3577,0.016525
42.026,58.3873,0.016525
42.057,58.4180,0.016101
42.088,58.4490,0.016101
42.119,58.4811,0.016101
42.151,58.5154,0.016101
42.182,58.5486,0.016101
42.213,58.5832,0.016101
42.244,58.6187,0.016101
42.275,58.6538,0.016101
42.306,58.6904,0.015358
42.337,58.7276,0.015358
42.367,58.7643,0.015358
42.399,58.8036,0.015358
42.429,58.8422,0.015358
42.461,58.8838,0.015358
42.492,58.9237,0.015358
42.523,58.9666,0.015358
42.555,59.0086,0.013918
42.587,59.0544,0.013918
42.617,59.0957,0.013918
42.648,59.1409,0.013918
42.679,59.1863,0.013918
42.711,59.2332,0.013918
42.745,59.2838,0.013918
42.771,59.3236,0.013918
42.803,59.3711,0.011509
42.834,59.4184,0.011509
42.867,59.4689,0.011509
42.896,59.5105,0.011509
42.927,59.5575,0.011509
42.958,59.6036,0.011509
42.991,59.6539,0.011509
43.020,59.6977,0.011509
43.052,59.7444,0.008432
43.082,59.7911,0.008432
43.115,59.8412,0.008432
43.143,59.8815,0.008432
43.176,59.9321,0.008432
43.205,59.9740,0.008432
43.236,60.0209,0.008432
43.268,60.0693,0.008432
43.298,60.1137,0.004338
43.329,60.1603,0.004338
43.360,60.2078,0.004338
43.391,60.2538,0.004338
43.422,60.2992,0.004338
43.452,60.3448,0.004338
43.483,60.3909,0.004338
43.514,60.4371,0.004338
43.544,60.4840,0.004338
43.575,60.5283,-0.001901
43.608,60.5784,-0.001901
43.637,60.6224,-0.001901
43.669,60.6707,-0.001901
43.700,60.7184,-0.001901
43.730,60.7614,-0.001901
43.761,60.8086,-0.001901
43.792,60.8542,-0.001901
43.823,60.9020,-0.011236
43.852,60.9454,-0.011236
43.883,60.9924,-0.011236
43.914,61.0380,-0.011236
43.945,61.0844,-0.011236
43.976,61.1309,-0.011236
44.007,61.1775,-0.011236
44.040,61.2260,-0.025907
44.071,61.2730,-0.025907
44.102,61.3189,-0.025907
44.133,61.3644,-0.025907
44.164,61.4106,-0.025907
44.195,61.4545,-0.025907
44.226,61.4960,-0.025907
44.257,61.5399,-0.025907
44.288,61.5810,-0.025907
44.319,61.6224,-0.049941
44.351,61.6636,-0.049941
44.381,61.7024,-0.049941
44.411,61.7397,-0.049941
44.443,61.7791,-0.049941
44.475,61.8169,-0.049941
44.505,61.8526,-0.049941
44.536,61.8888,-0.086472
44.567,61.9240,-0.086472
44.598,61.9590,-0.086472
44.629,61.9922,-0.086472
44.660,62.0250,-0.086472
44.691,62.0576,-0.086472
44.722,62.0889,-0.086472
44.753,62.1205,-0.086472
44.785,62.1510,-0.086472
44.815,62.1796,-0.136479
44.846,62.2077,-0.136479
44.877,62.2357,-0.136479
44.909,62.2637,-0.136479
44.939,62.2897,-0.136479
44.970,62.3158,-0.136479
45.000,62.3409,-0.136479
45.031,62.3639,-0.212091
45.062,62.3880,-0.212091
45.093,62.4106,-0.212091
45.124,62.4327,-0.212091
45.155,62.4545,-0.212091
45.185,62.4745,-0.212091
45.216,62.4948,-0.212091
45.247,62.5139,-0.212091
45.278,62.5326,-0.212091
45.309,62.5504,-0.352842
45.339,62.5672,-0.352842
45.371,62.5832,-0.352842
45.401,62.5986,-0.352842
45.433,62.6139,-0.352842
45.462,62.6272,-0.352842
45.495,62.6420,-0.352842
45.527,62.6548,-0.352842
45.558,62.6671,-0.576292
45.590,62.6785,-0.576292
45.620,62.6886,-0.576292
45.652,62.6984,-0.576292
45.683,62.7077,-0.576292
45.714,62.7162,-0.576292
45.745,62.7236,-0.576292
45.776,62.7304,-0.876314
45.807,62.7365,-0.876314
45.838,62.7420,-0.876314
45.868,62.7464,-0.876314
45.902,62.7508,-0.876314
45.930,62.7536,-0.876314
45.961,62.7562,-0.876314
45.992,62.7580,-0.876314
46.023,62.7590,-0.876314
46.054,62.7593,-0.876314
46.085,62.7593,-1.117512
46.115,62.7593,-1.117512
46.146,62.7593,-1.117512
46.178,62.7593,-1.117512
46.210,62.7593,-1.117512
46.240,62.7593,-1.117512
46.270,62.7593,-1.117512
46.301,62.7593,-1.117512
46.332,62.7593,-1.016613
46.363,62.7593,-1.016613
46.394,62.7593,-1.016613
46.425,62.7593,-1.016613
46.457,62.7593,-1.016613
46.488,62.7593,-1.016613
46.518,62.7593,-1.016613
46.549,62.7593,-0.732862
46.580,62.7593,-0.732862
46.611,62.7593,-0.732862
46.642,62.7593,-0.732862
46.673,62.7593,-0.732862
46.705,62.7593,-0.732862
46.736,62.7593,-0.732862
46.768,62.7593,-0.732862
46.799,62.7593,-0.567202
46.830,62.7593,-0.567202
46.861,62.7593,-0.567202
46.892,62.7593,-0.567202
46.923,62.7593,-0.567202
46.954,62.7593,-0.567202
46.984,62.7593,-0.567202
47.017,62.7593,-0.567202
47.047,62.7593,-0.567202
47.077,62.7593,-0.481953
47.108,62.7593,-0.481953
47.139,62.7593,-0.481953
47.170,62.7593,-0.481953
47.204,62.7593,-0.481953
47.232,62.7593,-0.481953
47.263,62.7593,-0.481953
47.294,62.7593,-0.430535
47.325,62.7593,-0.430535
47.356,62.7593,-0.430535
47.387,62.7593,-0.430535
47.417,62.7593,-0.430535
47.448,62.7593,-0.430535
47.479,62.7593,-0.430535
47.510,62.7593,-0.430535
47.541,62.7593,-0.430535
47.572,62.7593,-0.430535
47.603,62.7593,-0.396742
47.632,62.7593,-0.396742
47.663,62.7593,-0.396742
47.694,62.7593,-0.396742
47.726,62.7593,-0.396742
47.757,62.7593,-0.396742
47.787,62.7593,-0.396742
47.818,62.7593,-0.373094
47.849,62.7593,-0.373094
47.880,62.7593,-0.373094
47.912,62.7593,-0.373094
47.943,62.7593,-0.373094
47.975,62.7593,-0.373094
48.006,62.7593,-0.373094
48.037,62.7593,-0.373094
48.068,62.7593,-0.355666
48.099,62.7593,-0.355666
48.130,62.7593,-0.355666
48.161,62.7593,-0.355666
48.193,62.7593,-0.355666
48.223,62.7593,-0.355666
48.254,62.7593,-0.355666
48.285,62.7593,-0.355666
48.315,62.7593,-0.342453
48.346,62.7593,-0.342453
48.381,62.7593,-0.342453
48.409,62.7593,-0.342453
48.439,62.7593,-0.342453
48.471,62.7593,-0.342453
48.502,62.7593,-0.342453
48.533,62.7593,-0.332205
48.564,62.7593,-0.332205
48.595,62.7593,-0.332205
48.620,62.7593,-0.332205
48.656,62.7593,-0.332205
48.686,62.7593,-0.332205
48.718,62.7593,-0.332205
48.750,62.7593,-0.332205
48.782,62.7593,-0.323953
48.812,62.7593,-0.323953
48.842,62.7593,-0.323953
48.874,62.7593,-0.323953
48.904,62.7593,-0.323953
48.935,62.7593,-0.323953
48.968,62.7593,-0.323953
48.998,62.7593,-0.323953
49.029,62.7593,-0.323953
49.065,62.7593,-0.323953
49.092,62.7593,-0.317111
49.124,62.7593,-0.317111
49.157,62.7593,-0.317111
49.186,62.7593,-0.317111
49.217,62.7593,-0.317111
49.247,62.7593,-0.317111
49.279,62.7593,-0.317111
49.310,62.7593,-0.311380
49.341,62.7593,-0.311380
49.371,62.7593,-0.311380
49.402,62.7593,-0.311380
49.433,62.7593,-0.311380
49.464,62.7593,-0.311380
49.495,62.7593,-0.311380
49.526,62.7593,-0.311380
49.557,62.7593,-0.306534
49.588,62.7593,-0.306534
49.619,62.7593,-0.306534
49.651,62.7593,-0.306534
49.682,62.7593,-0.306534
49.713,62.7593,-0.306534
49.744,62.7593,-0.306534
49.774,62.7593,-0.306534
49.805,62.7593,-0.302092
49.837,62.7593,-0.302092
49.867,62.7593,-0.302092
49.898,62.7593,-0.302092
49.931,62.7593,-0.302092
49.960,62.7593,-0.302092
49.990,62.7593,-0.302092
50.021,62.7593,-0.302092
50.057,62.7593,-0.297142
50.084,62.7593,-0.297142
50.116,62.7593,-0.297142
50.147,62.7593,-0.297142
50.177,62.7593,-0.297142
50.208,62.7593,-0.297142
50.239,62.7593,-0.297142
50.270,62.7593,-0.297142
50.301,62.7593,-0.297142
50.332,62.7593,-0.291468
50.363,62.7593,-0.291468
50.393,62.7593,-0.291468
50.424,62.7592,-0.291468
50.454,62.7586,-0.291468
50.488,62.7570,-0.291468
50.516,62.7551,-0.291468
50.546,62.7524,-0.285737
50.577,62.7488,-0.285737
50.608,62.7444,-0.285737
50.639,62.7394,-0.285737
50.670,62.7338,-0.285737
50.701,62.7272,-0.285737
50.731,62.7203,-0.285737
50.762,62.7125,-0.285737
50.793,62.7038,0.087667
50.825,62.6941,0.087667
50.856,62.6840,0.087667
50.886,62.6735,0.087667
50.917,62.6618,0.087667
50.949,62.6494,0.087667
50.979,62.6365,0.087667
51.011,62.6225,0.087667
51.043,62.6074,0.087667
51.074,62.5924,0.279554
51.105,62.5765,0.279554
51.136,62.5597,0.279554
51.168,62.5417,0.279554
51.199,62.5236,0.279554
51.230,62.5050,0.279554
51.261,62.4854,0.279554
51.291,62.4653,0.279554
51.322,62.4447,0.059812
51.353,62.4222,0.059812
51.384,62.4007,0.059812
51.415,62.3768,0.059812
51.446,62.3534,0.059812
51.477,62.3279,0.059812
51.508,62.3030,0.059812
51.539,62.2765,0.059812
51.571,62.2493,0.032052
51.604,62.2191,0.032052
51.633,62.1930,0.032052
51.664,62.1636,0.032052
51.696,62.1326,0.032052
51.728,62.1020,0.032052
51.759,62.0701,0.032052
51.790,62.0385,0.032052
51.820,62.0066,0.059229
51.851,61.9727,0.059229
51.883,61.9385,0.059229
51.914,61.9028,0.059229
51.945,61.8682,0.059229
51.975,61.8325,0.059229
52.007,61.7938,0.059229
52.038,61.7565,0.059229
52.069,61.7169,0.081626
52.100,61.6776,0.081626
52.131,61.6369,0.081626
52.163,61.5951,0.081626
52.195,61.5525,0.081626
52.226,61.5110,0.081626
52.258,61.4665,0.081626
52.289,61.4230,0.081626
52.319,61.3794,0.091685
52.349,61.3364,0.091685
52.381,61.2897,0.091685
52.412,61.2429,0.091685
52.443,61.1965,0.091685
52.474,61.1485,0.091685
52.505,61.1031,0.091685
52.540,61.0505,0.091685
52.567,61.0090,0.091685
52.601,60.9591,0.092645
52.630,60.9150,0.092645
52.663,60.8646,0.092645
52.692,60.8228,0.092645
52.725,60.7717,0.092645
52.753,60.7319,0.092645
52.786,60.6822,0.092645
52.815,60.6378,0.092090
52.849,60.5866,0.092090
52.876,60.5449,0.092090
52.908,60.4984,0.092090
52.939,60.4513,0.092090
52.969,60.4069,0.092090
53.001,60.3587,0.092090
53.032,60.3123,0.092090
53.062,60.2670,0.092090
53.097,60.2149,0.094311
53.124,60.1733,0.094311
53.158,60.1235,0.094311
53.185,60.0820,0.094311
53.216,60.0355,0.094311
53.247,59.9894,0.094311
53.281,59.9376,0.094311
53.310,59.8954,0.094311
53.341,59.8489,0.101679
53.372,59.8025,0.101679
53.402,59.7572,0.101679
53.433,59.7103,0.101679
53.465,59.6635,0.101679
53.495,59.6181,0.101679
53.525,59.5733,0.101679
53.557,59.5244,0.116190
53.588,59.4769,0.116190
53.620,59.4299,0.116190
53.651,59.3842,0.116190
53.681,59.3398,0.116190
53.712,59.2931,0.116190
53.744,59.2450,0.116190
53.774,59.1991,0.116190
53.806,59.1519,0.116190
53.838,59.1051,0.134164
53.867,59.0614,0.134164
53.899,59.0178,0.134164
53.930,58.9739,0.134164
53.961,58.9323,0.134164
53.991,58.8905,0.134164
54.024,58.8468,0.134164
54.053,58.8093,0.133411
54.084,58.7691,0.133411
54.115,58.7303,0.133411
54.147,58.6926,0.133411
54.178,58.6548,0.133411
54.208,58.6191,0.133411
54.239,58.5835,0.133411
54.270,58.5469,0.133411
54.301,58.5126,0.075829
54.331,58.4798,0.075829
54.362,58.4474,0.075829
54.392,58.4158,0.075829
54.424,58.3833,0.075829
54.457,58.3502,0.075829
54.486,58.3216,0.075829
54.517,58.2918,0.075829
54.548,58.2636,0.075829
54.579,58.2361,0.024834
54.609,58.2087,0.024834
54.640,58.1826,0.024834
54.671,58.1565,0.024834
54.702,58.1316,0.024834
54.733,58.1073,0.024834
54.763,58.0836,0.024834
54.794,58.0616,0.024834
54.827,58.0373,0.020966
54.855,58.0179,0.020966
54.886,57.9971,0.020966
54.916,57.9775,0.020966
54.949,57.9568,0.020966
54.979,57.9392,0.020966
55.010,57.9208,0.020966
55.042,57.9037,0.019432
55.074,57.8863,0.019432
55.103,57.8716,0.019432
55.135,57.8563,0.019432
55.165,57.8425,0.019432
55.197,57.8288,0.019432
55.228,57.8155,0.019432
55.259,57.8037,0.019432
55.290,57.7924,0.018529
55.321,57.7819,0.018529
55.352,57.7717,0.018529
55.383,57.7627,0.018529
55.414,57.7542,0.018529
55.445,57.7464,0.018529
55.477,57.7394,0.018529
55.507,57.7333,0.018529
55.539,57.7276,0.017936
55.570,57.7227,0.017936
55.601,57.7186,0.017936
55.632,57.7153,0.017936
55.664,57.7127,0.017936
55.695,57.7108,0.017936
55.726,57.7097,0.017936
55.757,57.7093,0.017936
55.789,57.7093,0.017936
55.819,57.7093,0.017635
55.850,57.7093,0.017635
55.879,57.7093,0.017635
55.910,57.7100,0.017635
55.941,57.7113,0.017635
55.973,57.7134,0.017635
56.004,57.7163,0.017635
56.035,57.7198,0.017635
56.066,57.7240,0.017494
56.096,57.7288,0.017494
56.128,57.7348,0.017494
56.160,57.7415,0.017494
56.190,57.7483,0.017494
56.221,57.7564,0.017494
56.252,57.7649,0.017494
56.282,57.7738,0.017494
56.314,57.7844,0.017212
56.345,57.7949,0.017212
56.376,57.8065,0.017212
56.406,57.8185,0.017212
56.438,57.8318,0.017212
56.469,57.8454,0.017212
56.500,57.8597,0.017212
56.531,57.8750,0.017212
56.562,57.8909,0.016920
56.592,57.9072,0.016920
56.623,57.9243,0.016920
56.654,57.9430,0.016920
56.685,57.9612,0.016920
56.717,57.9816,0.016920
56.748,58.0018,0.016920
56.778,58.0221,0.016920
56.811,58.0447,0.016750
56.841,58.0672,0.016750
56.872,58.0906,0.016750
56.903,58.1139,0.016750
56.934,58.1388,0.016750
56.965,58.1636,0.016750
56.996,58.1896,0.016750
57.028,58.2171,0.016750
57.058,58.2441,0.016431
57.089,58.2722,0.016431
57.120,58.3017,0.016431
57.151,58.3307,0.016431
57.183,58.3625,0.016431
57.212,58.3922,0.016431
57.244,58.4242,0.016431
57.276,58.4586,0.015828
57.306,58.4911,0.015828
57.337,58.5252,0.015828
57.368,58.5593,0.015828
57.399,58.5951,0.015828
57.430,58.6315,0.015828
57.460,58.6672,0.015828
57.491,58.7050,0.015828
57.523,58.7442,0.015828
57.553,58.7823,0.015828
57.584,58.8223,0.014737
57.615,58.8639,0.014737
57.646,58.9046,0.014737
57.677,58.9470,0.014737
57.708,58.9889,0.014737
57.740,59.0343,0.014737
57.770,59.0766,0.014737
57.801,59.1217,0.012930
57.832,59.1680,0.012930
57.863,59.2144,0.012930
57.894,59.2603,0.012930
57.926,59.3081,0.012930
57.956,59.3532,0.012930
57.988,59.4011,0.012930
58.018,59.4463,0.012930
58.049,59.4937,0.010182
58.080,59.5393,0.010182
58.111,59.5864,0.010182
58.142,59.6315,0.010182
58.173,59.6798,0.010182
58.205,59.7275,0.010182
58.236,59.7740,0.010182
58.267,59.8215,0.010182
58.298,59.8678,0.010182
58.329,59.9130,0.006644
58.361,59.9604,0.006644
58.391,60.0068,0.006644
58.419,60.0476,0.006644
58.454,60.1013,0.006644
58.485,60.1470,0.006644
58.515,60.1922,0.006644
58.549,60.2423,0.001684
58.577,60.2843,0.001684
58.607,60.3316,0.001684
58.638,60.3756,0.001684
58.670,60.4236,0.001684
58.700,60.4691,0.001684
58.731,60.5151,0.001684
58.761,60.5610,0.001684
58.793,60.6098,-0.005947
58.824,60.6550,-0.005947
58.855,60.7009,-0.005947
58.885,60.7472,-0.005947
58.916,60.7931,-0.005947
58.947,60.8390,-0.005947
58.977,60.8858,-0.005947
59.008,60.9314,-0.005947
59.041,60.9800,-0.005947
59.071,61.0252,-0.017522
59.102,61.0725,-0.017522
59.133,61.1184,-0.017522
59.165,61.1663,-0.017522
59.195,61.2119,-0.017522
59.227,61.2610,-0.017522
59.258,61.3048,-0.017522
59.289,61.3494,-0.017522
59.320,61.3932,-0.035966
59.350,61.4365,-0.035966
59.380,61.4777,-0.035966
59.412,61.5205,-0.035966
59.443,61.5614,-0.035966
59.474,61.6022,-0.035966
59.504,61.6414,-0.035966
59.536,61.6807,-0.035966
59.566,61.7179,-0.065430
59.599,61.7593,-0.065430
59.628,61.7938,-0.065430
59.660,61.8313,-0.065430
59.691,61.8654,-0.065430
59.721,61.8994,-0.065430
59.752,61.9332,-0.065430
59.785,61.9686,-0.065430
59.815,61.9997,-0.108154
59.845,62.0309,-0.108154
59.876,62.0615,-0.108154
59.907,62.0922,-0.108154
59.938,62.1216,-0.108154
59.969,62.1506,-0.108154
60.000,62.1793,-0.108154
60.031,62.2068,-0.108154
60.063,62.2340,-0.167157
60.093,62.2588,-0.167157
60.125,62.2852,-0.167157
60.156,62.3091,-0.167157
60.191,62.3364,-0.167157
60.218,62.3564,-0.167157
60.249,62.3788,-0.167157
60.281,62.4004,-0.167157
60.311,62.4209,-0.167157
60.345,62.4428,-0.268563
60.372,62.4601,-0.268563
60.405,62.4798,-0.268563
60.435,62.4968,-0.268563
60.465,62.5138,-0.268563
60.496,62.5300,-0.268563
60.530,62.5477,-0.268563
60.558,62.5608,-0.268563
60.590,62.5757,-0.448330
60.619,62.5886,-0.448330
60.651,62.6016,-0.448330
60.681,62.6135,-0.448330
60.713,62.6256,-0.448330
60.744,62.6359,-0.448330
60.775,62.6459,-0.448330
60.805,62.6550,-0.712225
60.837,62.6636,-0.712225
60.867,62.6715,-0.712225
60.899,62.6786,-0.712225
60.930,62.6849,-0.712225
60.961,62.6905,-0.712225
60.992,62.6953,-0.712225
61.023,62.6996,-0.712225
61.053,62.7029,-0.712225
61.085,62.7056,-1.018778
61.115,62.7076,-1.018778
61.147,62.7089,-1.018778
61.179,62.7094,-1.018778
61.209,62.7094,-1.018778
61.240,62.7094,-1.018778
61.272,62.7094,-1.018778
61.303,62.7094,-1.111178
61.334,62.7094,-1.111178
61.365,62.7094,-1.111178
61.395,62.7094,-1.111178
61.425,62.7094,-1.111178
61.456,62.7094,-1.111178
61.486,62.7094,-1.111178
61.519,62.7094,-1.111178
61.547,62.7094,-1.111178
61.579,62.7094,-0.878648
61.610,62.7094,-0.878648
61.642,62.7094,-0.878648
61.671,62.7094,-0.878648
61.703,62.7094,-0.878648
61.734,62.7094,-0.878648
61.764,62.7094,-0.878648
61.795,62.7094,-0.633300
61.831,62.7094,-0.633300
61.856,62.7094,-0.633300
61.886,62.7094,-0.633300
61.917,62.7094,-0.633300
61.948,62.7094,-0.633300
61.979,62.7094,-0.633300
62.010,62.7094,-0.633300
62.042,62.7094,-0.516950
62.073,62.7094,-0.516950
62.104,62.7094,-0.516950
62.136,62.7094,-0.516950
62.166,62.7094,-0.516950
62.197,62.7094,-0.516950
62.228,62.7094,-0.516950
62.255,62.7094,-0.516950
62.290,62.7094,-0.452066
62.321,62.7094,-0.452066
62.352,62.7094,-0.452066
62.384,62.7094,-0.452066
62.415,62.7094,-0.452066
62.447,62.7094,-0.452066
62.478,62.7094,-0.452066
62.512,62.7094,-0.452066
62.540,62.7094,-0.452066
62.571,62.7094,-0.411356
62.603,62.7094,-0.411356
62.635,62.7094,-0.411356
62.665,62.7094,-0.411356
62.699,62.7094,-0.411356
62.727,62.7094,-0.411356
62.758,62.7094,-0.411356
62.788,62.7094,-0.411356
62.820,62.7094,-0.383125
62.850,62.7094,-0.383125
62.881,62.7094,-0.383125
62.912,62.7094,-0.383125
62.943,62.7094,-0.383125
62.975,62.7094,-0.383125
63.005,62.7094,-0.383125
63.036,62.7094,-0.362865
63.067,62.7094,-0.362865
63.100,62.7094,-0.362865
63.130,62.7094,-0.362865
63.161,62.7094,-0.362865
63.192,62.7094,-0.362865
63.223,62.7094,-0.362865
63.256,62.7094,-0.362865
63.281,62.7094,-0.362865
63.316,62.7094,-0.362865
63.348,62.7094,-0.348297
63.378,62.7094,-0.348297
63.412,62.7094,-0.348297
63.440,62.7094,-0.348297
63.471,62.7094,-0.348297
63.502,62.7094,-0.348297
63.533,62.7094,-0.348297
63.564,62.7094,-0.337099
63.595,62.7094,-0.337099
63.626,62.7094,-0.337099
63.658,62.7094,-0.337099
63.689,62.7094,-0.337099
63.722,62.7094,-0.337099
63.751,62.7094,-0.337099
63.782,62.7094,-0.337099
63.813,62.7094,-0.337099
63.844,62.7094,-0.327924
63.876,62.7094,-0.327924
63.906,62.7094,-0.327924
63.936,62.7094,-0.327924
63.967,62.7094,-0.327924
63.999,62.7094,-0.327924
64.029,62.7094,-0.327924
64.060,62.7094,-0.327924
64.093,62.7094,-0.320442
64.121,62.7094,-0.320442
64.152,62.7094,-0.320442
64.182,62.7094,-0.320442
64.212,62.7094,-0.320442
64.244,62.7094,-0.320442
64.275,62.7094,-0.320442
64.306,62.7094,-0.314279
64.336,62.7094,-0.314279
64.367,62.7094,-0.314279
64.400,62.7094,-0.314279
64.430,62.7094,-0.314279
64.463,62.7094,-0.314279
64.492,62.7094,-0.314279
64.523,62.7094,-0.314279
64.554,62.7094,-0.308962
64.585,62.7094,-0.308962
64.617,62.7094,-0.308962
64.647,62.7094,-0.308962
64.678,62.7094,-0.308962
64.708,62.7094,-0.308962
64.740,62.7094,-0.308962
64.771,62.7094,-0.304257
64.802,62.7094,-0.304257
64.833,62.7094,-0.304257
64.864,62.7094,-0.304257
64.896,62.7094,-0.304257
64.928,62.7094,-0.304257
64.957,62.7094,-0.304257
64.988,62.7094,-0.304257
65.019,62.7094,-0.304257
65.052,62.7094,-0.304257
65.081,62.7094,-0.299476
65.113,62.7094,-0.299476
65.143,62.7094,-0.299476
65.173,62.7094,-0.299476
65.204,62.7094,-0.299476
65.234,62.7094,-0.299476
65.265,62.7094,-0.299476
65.296,62.7094,-0.299476
65.327,62.7094,-0.294037
65.358,62.7094,-0.294037
65.390,62.7094,-0.294037
65.421,62.7094,-0.294037
65.452,62.7094,-0.294037
65.483,62.7094,-0.294037
65.514,62.7094,-0.294037
65.545,62.7089,-0.288174
65.577,62.7076,-0.288174
65.607,62.7056,-0.288174
65.638,62.7029,-0.288174
65.669,62.6996,-0.288174
65.700,62.6955,-0.288174
65.731,62.6904,-0.288174
65.763,62.6847,-0.288174
65.795,62.6783,-0.215583
65.825,62.6713,-0.215583
65.856,62.6636,-0.215583
65.888,62.6548,-0.215583
65.919,62.6456,-0.215583
65.949,62.6358,-0.215583
65.980,62.6249,-0.215583
66.011,62.6135,-0.215583
66.043,62.6015,0.525147
66.073,62.5886,0.525147
66.104,62.5750,0.525147
66.138,62.5593,0.525147
66.167,62.5451,0.525147
66.198,62.5293,0.525147
66.229,62.5128,0.525147
66.260,62.4953,0.525147
66.291,62.4776,0.606782
66.326,62.4561,0.606782
66.353,62.4395,0.606782
66.385,62.4184,0.606782
66.415,62.3984,0.606782
66.449,62.3744,0.606782
66.477,62.3539,0.606782
66.508,62.3306,0.606782
66.539,62.3074,0.606782
66.570,62.2826,0.025380
66.600,62.2577,0.025380
66.632,62.2309,0.025380
66.661,62.2067,0.025380
66.695,62.1754,0.025380
66.724,62.1496,0.025380
66.757,62.1190,0.025380
66.785,62.0923,0.048153
66.819,62.0587,0.048153
66.848,62.0306,0.048153
66.879,61.9984,0.048153
66.909,61.9665,0.048153
66.939,61.9333,0.048153
66.971,61.8997,0.048153
67.002,61.8641,0.048153
67.033,61.8299,0.048153
67.064,61.7933,0.073862
67.095,61.7562,0.073862
67.126,61.7184,0.073862
67.157,61.6809,0.073862
67.188,61.6408,0.073862
67.218,61.6033,0.073862
67.252,61.5564,0.073862
67.280,61.5203,0.088853
67.311,61.4795,0.088853
67.342,61.4369,0.088853
67.373,61.3930,0.088853
67.403,61.3505,0.088853
67.434,61.3061,0.088853
67.465,61.2603,0.088853
67.499,61.2085,0.088853
67.526,61.1694,0.088853
67.557,61.1212,0.092391
67.589,61.0756,0.092391
67.620,61.0275,0.092391
67.651,60.9802,0.092391
67.682,60.9347,0.092391
67.714,60.8866,0.092391
67.746,60.8387,0.092391
67.777,60.7924,0.091300
67.809,60.7442,0.091300
67.840,60.6976,0.091300
67.871,60.6514,0.091300
67.903,60.6036,0.091300
67.934,60.5567,0.091300
67.965,60.5089,0.091300
67.997,60.4618,0.091300
68.030,60.4131,0.091300
68.060,60.3678,0.091300
68.091,60.3207,0.092325
68.121,60.2751,0.092325
68.153,60.2279,0.092325
68.184,60.1819,0.092325
68.214,60.1354,0.092325
68.246,60.0894,0.092325
68.277,60.0421,0.092325
68.308,59.9958,0.098028
68.339,59.9476,0.098028
68.371,59.9025,0.098028
68.401,59.8554,0.098028
68.433,59.8087,0.098028
68.464,59.7614,0.098028
68.495,59.7151,0.098028
68.526,59.6690,0.098028
68.557,59.6225,0.109537
68.588,59.5768,0.109537
68.620,59.5281,0.109537
68.651,59.4806,0.109537
68.681,59.4358,0.109537
68.712,59.3900,0.109537
68.743,59.3435,0.109537
68.774,59.2972,0.109537
68.806,59.2493,0.127812
68.838,59.2004,0.127812
68.868,59.1566,0.127812
68.898,59.1098,0.127812
68.929,59.0652,0.127812
68.960,59.0211,0.127812
68.990,58.9775,0.127812
69.021,58.9341,0.141175
69.052,58.8905,0.141175
69.083,58.8500,0.141175
69.114,58.8078,0.141175
69.146,58.7669,0.141175
69.176,58.7273,0.141175
69.207,58.6885,0.141175
69.238,58.6517,0.141175
69.269,58.6138,0.141175
69.299,58.5774,0.091855
69.330,58.5414,0.091855
69.361,58.5058,0.091855
69.394,58.4696,0.091855
69.424,58.4362,0.091855
69.457,58.4007,0.091855
69.486,58.3696,0.091855
69.518,58.3373,0.091855
69.548,58.3070,0.031581
69.580,58.2760,0.031581
69.611,58.2470,0.031581
69.642,58.2176,0.031581
69.673,58.1891,0.031581
69.703,58.1620,0.031581
69.734,58.1357,0.031581
69.766,58.1092,0.031581
69.797,58.0844,0.021926
69.828,58.0596,0.021926
69.860,58.0357,0.021926
69.890,58.0123,0.021926
69.921,57.9906,0.021926
69.952,57.9687,0.021926
69.984,57.9476,0.021926
70.018,57.9253,0.021926
70.046,57.9075,0.019969
70.077,57.8892,0.019969
70.107,57.8719,0.019969
70.138,57.8545,0.019969
70.169,57.8385,0.019969
70.200,57.8226,0.019969
70.231,57.8071,0.019969
70.263,57.7929,0.019969
70.295,57.7787,0.018943
70.325,57.7661,0.018943
70.356,57.7539,0.018943
70.388,57.7425,0.018943
70.419,57.7317,0.018943
70.450,57.7217,0.018943
70.482,57.7123,0.018943
70.512,57.7041,0.018943
70.544,57.6961,0.018266
70.576,57.6891,0.018266
70.607,57.6828,0.018266
70.642,57.6766,0.018266
70.670,57.6725,0.018266
70.702,57.6684,0.018266
70.733,57.6652,0.018266
70.763,57.6627,0.018266
70.794,57.6609,0.017814
70.825,57.6597,0.017814
70.856,57.6594,0.017814
70.886,57.6594,0.017814
70.918,57.6594,0.017814
70.948,57.6594,0.017814
70.980,57.6594,0.017814
71.010,57.6596,0.017814
71.041,57.6606,0.017569
71.072,57.6623,0.017569
71.106,57.6651,0.017569
71.135,57.6680,0.017569
71.166,57.6719,0.017569
71.197,57.6767,0.017569
71.231,57.6826,0.017569
71.260,57.6883,0.017569
71.291,57.6951,0.017569
71.322,57.7025,0.017325
71.353,57.7111,0.017325
71.384,57.7200,0.017325
71.415,57.7299,0.017325
71.446,57.7401,0.017325
71.476,57.7514,0.017325
71.507,57.7630,0.017325
71.539,57.7759,0.017325
71.569,57.7890,0.017080
71.600,57.8032,0.017080
71.631,57.8176,0.017080
71.661,57.8334,0.017080
71.692,57.8495,0.017080
71.728,57.8690,0.017080
71.768,57.8927,0.017080
71.800,57.9113,0.016929
71.835,57.9335,0.016929
71.861,57.9503,0.016929
71.893,57.9722,0.016929
71.925,57.9953,0.016929
71.956,58.0172,0.016929
71.988,58.0407,0.016929
72.018,58.0642,0.016929
72.049,58.0887,0.016703
72.081,58.1155,0.016703
72.113,58.1421,0.016703
72.143,58.1679,0.016703
72.173,58.1945,0.016703
72.205,58.2239,0.016703
72.237,58.2537,0.016703
72.267,58.2827,0.016703
72.298,58.3125,0.016703
72.329,58.3440,0.016280
72.358,58.3747,0.016280
72.390,58.4073,0.016280
72.420,58.4411,0.016280
72.451,58.4746,0.016280
72.482,58.5088,0.016280
72.513,58.5446,0.016280
72.544,58.5809,0.015471
72.575,58.6186,0.015471
72.606,58.6553,0.015471
72.637,58.6951,0.015471
72.669,58.7338,0.015471
72.699,58.7737,0.015471
72.731,58.8143,0.015471
72.762,58.8566,0.015471
72.792,58.8967,0.015471
72.823,58.9404,0.013965
72.855,58.9848,0.013965
72.885,59.0282,0.013965
72.914,59.0700,0.013965
72.946,59.1168,0.013965
72.977,59.1635,0.013965
73.008,59.2099,0.013965
73.039,59.2573,0.011565
73.070,59.3038,0.011565
73.101,59.3489,0.011565
73.132,59.3963,0.011565
73.163,59.4427,0.011565
73.194,59.4895,0.011565
73.226,59.5381,0.011565
73.256,59.5822,0.011565
73.287,59.6295,0.011565
73.318,59.6755,0.008422
73.349,59.7221,0.008422
73.380,59.7693,0.008422
73.411,59.8154,0.008422
73.442,59.8612,0.008422
73.473,59.9075,0.008422
73.505,59.9553,0.008422
73.536,60.0030,0.004329
73.567,60.0487,0.004329
73.597,60.0939,0.004329
73.629,60.1405,0.004329
73.659,60.1870,0.004329
73.692,60.2353,0.004329
73.721,60.2795,0.004329
73.752,60.3259,0.004329
73.783,60.3715,0.004329
73.813,60.4168,-0.001929
73.844,60.4633,-0.001929
73.874,60.5100,-0.001929
73.905,60.5544,-0.001929
73.936,60.6014,-0.001929
73.965,60.6467,-0.001929
73.997,60.6941,-0.001929
74.028,60.7410,-0.001929
74.060,60.7875,-0.011499
74.091,60.8359,-0.011499
74.123,60.8816,-0.011499
74.152,60.9259,-0.011499
74.185,60.9754,-0.011499
74.214,61.0192,-0.011499
74.245,61.0664,-0.011499
74.277,61.1135,-0.011499
74.307,61.1587,-0.026217
74.338,61.2038,-0.026217
74.368,61.2501,-0.026217
74.399,61.2950,-0.026217
74.432,61.3410,-0.026217
74.462,61.3830,-0.026217
74.494,61.4288,-0.026217
74.524,61.4685,-0.050336
74.556,61.5098,-0.050336
74.587,61.5515,-0.050336
74.619,61.5921,-0.050336
74.650,61.6305,-0.050336
74.681,61.6689,-0.050336
74.712,61.7074,-0.050336
74.744,61.7447,-0.050336
74.774,61.7802,-0.050336
74.804,61.8138,-0.087027
74.835,61.8486,-0.087027
74.866,61.8824,-0.087027
74.897,61.9157,-0.087027
74.928,61.9483,-0.087027
74.961,61.9817,-0.087027
74.990,62.0116,-0.087027
75.022,62.0422,-0.087027
75.052,62.0717,-0.137533
75.084,62.1009,-0.137533
75.115,62.1292,-0.137533
75.146,62.1560,-0.137533
75.177,62.1832,-0.137533
75.208,62.2095,-0.137533
75.240,62.2348,-0.137533
75.271,62.2600,-0.214387
75.302,62.2836,-0.214387
75.332,62.3064,-0.214387
75.363,62.3279,-0.214387
75.395,62.3502,-0.214387
75.425,62.3705,-0.214387
75.457,62.3916,-0.214387
75.487,62.4103,-0.214387
75.519,62.4296,-0.214387
75.550,62.4472,-0.356710
75.580,62.4644,-0.356710
75.611,62.4803,-0.356710
75.642,62.4960,-0.356710
75.673,62.5110,-0.356710
75.703,62.5249,-0.356710
75.733,62.5388,-0.356710
75.765,62.5516,-0.356710
75.797,62.5639,-0.582879
75.828,62.5757,-0.582879
75.861,62.5872,-0.582879
75.890,62.5962,-0.582879
75.921,62.6053,-0.582879
75.952,62.6140,-0.582879
75.983,62.6217,-0.582879
76.016,62.6291,-0.582879
76.045,62.6351,-0.884783
76.076,62.6406,-0.884783
76.108,62.6456,-0.884783
76.138,62.6497,-0.884783
76.169,62.6530,-0.884783
76.200,62.6558,-0.884783
76.231,62.6576,-0.884783
76.261,62.6589,-0.884783
76.293,62.6594,-0.884783
76.324,62.6594,-1.124438
76.358,62.6594,-1.124438
76.387,62.6594,-1.124438
76.418,62.6594,-1.124438
76.449,62.6594,-1.124438
76.480,62.6594,-1.124438
76.512,62.6594,-1.124438
76.542,62.6594,-1.124438
76.574,62.6594,-1.012981
76.605,62.6594,-1.012981
76.637,62.6594,-1.012981
76.668,62.6594,-1.012981
76.699,62.6594,-1.012981
76.730,62.6594,-1.012981
76.761,62.6594,-1.012981
76.793,62.6594,-0.721843
76.824,62.6594,-0.721843
76.856,62.6594,-0.721843
76.887,62.6594,-0.721843
76.918,62.6594,-0.721843
76.949,62.6594,-0.721843
76.980,62.6594,-0.721843
77.012,62.6594,-0.721843
77.043,62.6594,-0.558394
77.074,62.6594,-0.558394
77.105,62.6594,-0.558394
77.137,62.6594,-0.558394
77.168,62.6594,-0.558394
77.199,62.6594,-0.558394
77.230,62.6594,-0.558394
77.261,62.6594,-0.558394
77.291,62.6594,-0.558394
77.323,62.6594,-0.474679
77.354,62.6594,-0.474679
77.385,62.6594,-0.474679
77.416,62.6594,-0.474679
77.447,62.6594,-0.474679
77.478,62.6594,-0.474679
77.509,62.6594,-0.474679
77.541,62.6594,-0.424917
77.572,62.6594,-0.424917
77.603,62.6594,-0.424917
77.636,62.6594,-0.424917
77.666,62.6594,-0.424917
77.697,62.6594,-0.424917
77.727,62.6594,-0.424917
77.759,62.6594,-0.424917
77.790,62.6594,-0.424917
77.820,62.6594,-0.392357
77.851,62.6594,-0.392357
77.885,62.6594,-0.392357
77.914,62.6594,-0.392357
77.945,62.6594,-0.392357
77.977,62.6594,-0.392357
78.007,62.6594,-0.392357
78.039,62.6594,-0.369649
78.070,62.6594,-0.369649
78.102,62.6594,-0.369649
78.136,62.6594,-0.369649
78.163,62.6594,-0.369649
78.194,62.6594,-0.369649
78.225,62.6594,-0.369649
78.259,62.6594,-0.369649
78.287,62.6594,-0.353059
78.318,62.6594,-0.353059
78.349,62.6594,-0.353059
78.383,62.6594,-0.353059
78.411,62.6594,-0.353059
78.442,62.6594,-0.353059
78.473,62.6594,-0.353059
78.504,62.6594,-0.353059
78.535,62.6594,-0.340496
78.566,62.6594,-0.340496
78.597,62.6594,-0.340496
78.631,62.6594,-0.340496
78.659,62.6594,-0.340496
78.690,62.6594,-0.340496
78.721,62.6594,-0.340496
78.751,62.6594,-0.340496
78.783,62.6594,-0.340496
78.813,62.6594,-0.340496
78.844,62.6594,-0.330653
78.876,62.6594,-0.330653
78.907,62.6594,-0.330653
78.938,62.6594,-0.330653
78.968,62.6594,-0.330653
79.000,62.6594,-0.330653
79.031,62.6594,-0.330653
79.061,62.6594,-0.322654
79.092,62.6594,-0.322654
79.123,62.6594,-0.322654
79.152,62.6594,-0.322654
79.183,62.6594,-0.322654
79.214,62.6594,-0.322654
79.245,62.6594,-0.322654
79.276,62.6594,-0.322654
79.307,62.6594,-0.322654
79.337,62.6594,-0.316038
79.369,62.6594,-0.316038
79.399,62.6594,-0.316038
79.430,62.6594,-0.316038
79.461,62.6594,-0.316038
79.493,62.6594,-0.316038
79.525,62.6594,-0.316038
79.557,62.6594,-0.310590
79.587,62.6594,-0.310590
79.618,62.6594,-0.310590
79.650,62.6594,-0.310590
79.681,62.6594,-0.310590
79.712,62.6594,-0.310590
79.744,62.6594,-0.310590
79.774,62.6594,-0.310590
79.806,62.6594,-0.306026
79.837,62.6594,-0.306026
79.868,62.6594,-0.306026
79.898,62.6594,-0.306026
79.933,62.6594,-0.306026
79.961,62.6594,-0.306026
79.992,62.6594,-0.306026
80.022,62.6594,-0.306026
80.053,62.6594,-0.301829
80.083,62.6594,-0.301829
80.116,62.6594,-0.301829
80.144,62.6594,-0.301829
80.175,62.6594,-0.301829
80.206,62.6594,-0.301829
80.237,62.6594,-0.301829
80.268,62.6594,-0.301829
80.299,62.6594,-0.297001
80.330,62.6594,-0.297001
80.361,62.6594,-0.297001
80.392,62.6594,-0.297001
80.423,62.6594,-0.297001
80.454,62.6594,-0.297001
80.485,62.6594,-0.297001
80.517,62.6594,-0.297001
80.547,62.6594,-0.297001
80.578,62.6594,-0.291449
80.609,62.6591,-0.291449
80.640,62.6581,-0.291449
80.671,62.6564,-0.291449
80.701,62.6540,-0.291449
80.732,62.6508,-0.291449
80.763,62.6471,-0.291449
80.794,62.6423,-0.291449
80.825,62.6370,-0.280881
80.855,62.6311,-0.280881
80.886,62.6245,-0.280881
80.915,62.6172,-0.280881
80.946,62.6093,-0.280881
80.977,62.6002,-0.280881
81.008,62.5907,-0.280881
81.039,62.5801,-0.280881
81.069,62.5696,0.438938
81.100,62.5579,0.438938
81.131,62.5451,0.438938
81.162,62.5321,0.438938
81.195,62.5167,0.438938
81.224,62.5035,0.438938
81.255,62.4878,0.438938
81.285,62.4721,0.589354
81.316,62.4552,0.589354
81.348,62.4371,0.589354
81.380,62.4180,0.589354
81.411,62.3989,0.589354
81.442,62.3793,0.589354
81.474,62.3584,0.589354
81.505,62.3372,0.589354
81.535,62.3155,0.026462
81.566,62.2931,0.026462
81.596,62.2704,0.026462
81.627,62.2460,0.026462
81.658,62.2206,0.026462
81.689,62.1949,0.026462
81.721,62.1681,0.026462
81.751,62.1414,0.026462
81.783,62.1129,0.039627
81.815,62.0838,0.039627
81.846,62.0549,0.039627
81.877,62.0247,0.039627
81.907,61.9940,0.039627
81.939,61.9624,0.039627
81.969,61.9314,0.039627
82.000,61.8986,0.039627
82.031,61.8643,0.039627
82.062,61.8297,0.066795
82.093,61.7955,0.066795
82.124,61.7593,0.066795
82.155,61.7220,0.066795
82.185,61.6867,0.066795
82.217,61.6476,0.066795
82.247,61.6088,0.066795
82.279,61.5696,0.066795
82.310,61.5284,0.085823
82.341,61.4880,0.085823
82.373,61.4459,0.085823
82.403,61.4036,0.085823
82.434,61.3611,0.085823
82.465,61.3163,0.085823
82.495,61.2743,0.085823
82.526,61.2284,0.085823
82.556,61.1839,0.085823
82.588,61.1364,0.092372
82.619,61.0906,0.092372
82.650,61.0430,0.092372
82.679,60.9991,0.092372
82.711,60.9508,0.092372
82.742,60.9054,0.092372
82.773,60.8583,0.092372
82.804,60.8129,0.091732
82.836,60.7635,0.091732
82.867,60.7172,0.091732
82.898,60.6716,0.091732
82.928,60.6265,0.091732
82.959,60.5801,0.091732
82.990,60.5316,0.091732
83.021,60.4870,0.091732
83.052,60.4401,0.091507
83.083,60.3935,0.091507
83.114,60.3477,0.091507
83.145,60.3003,0.091507
83.176,60.2548,0.091507
83.207,60.2077,0.091507
83.237,60.1624,0.091507
83.269,60.1155,0.091507
83.300,60.0681,0.095487
83.331,60.0216,0.095487
83.362,59.9751,0.095487
83.393,59.9287,0.095487
83.424,59.8830,0.095487
83.454,59.8361,0.095487
83.485,59.7913,0.095487
83.516,59.7449,0.095487
83.546,59.6994,0.104832
83.577,59.6528,0.104832
83.608,59.6053,0.104832
83.639,59.5593,0.104832
83.670,59.5124,0.104832
83.701,59.4659,0.104832
83.733,59.4184,0.104832
83.763,59.3740,0.104832
83.794,59.3279,0.120801
83.825,59.2811,0.120801
83.856,59.2353,0.120801
83.888,59.1866,0.120801
83.918,59.1418,0.120801
83.950,59.0926,0.120801
83.980,59.0493,0.120801
84.010,59.0035,0.120801
84.041,58.9599,0.137053
84.072,58.9161,0.137053
84.105,58.8695,0.137053
84.134,58.8299,0.137053
84.165,58.7881,0.137053
84.196,58.7480,0.137053
84.227,58.7072,0.137053
84.258,58.6679,0.137053
84.289,58.6287,0.137053
84.320,58.5912,0.108878
84.351,58.5525,0.108878
84.382,58.5166,0.108878
84.412,58.4811,0.108878
84.444,58.4447,0.108878
84.476,58.4100,0.108878
84.510,58.3716,0.108878
84.539,58.3420,0.108878
84.569,58.3105,0.049574
84.600,58.2785,0.049574
84.631,58.2479,0.049574
84.663,58.2171,0.049574
84.697,58.1844,0.049574
84.726,58.1581,0.049574
84.757,58.1303,0.049574
84.787,58.1030,0.049574
84.819,58.0762,0.022999
84.850,58.0508,0.022999
84.880,58.0270,0.022999
84.912,58.0019,0.022999
84.942,57.9788,0.022999
84.973,57.9557,0.022999
85.003,57.9342,0.022999
85.036,57.9118,0.022999
85.065,57.8927,0.020430
85.100,57.8690,0.020430
85.127,57.8533,0.020430
85.158,57.8351,0.020430
85.189,57.8176,0.020430
85.219,57.8005,0.020430
85.249,57.7849,0.020430
85.282,57.7684,0.020430
85.312,57.7540,0.020430
85.344,57.7396,0.019216
85.374,57.7265,0.019216
85.405,57.7139,0.019216
85.435,57.7023,0.019216
85.467,57.6907,0.019216
85.497,57.6802,0.019216
85.527,57.6708,0.019216
85.559,57.6615,0.018473
85.591,57.6528,0.018473
85.621,57.6456,0.018473
85.652,57.6385,0.018473
85.683,57.6325,0.018473
85.714,57.6270,0.018473
85.745,57.6224,0.018473
85.776,57.6183,0.018473
85.810,57.6148,0.017917
85.838,57.6126,0.017917
85.869,57.6107,0.017917
85.901,57.6098,0.017917
85.934,57.6094,0.017917
85.963,57.6094,0.017917
85.992,57.6094,0.017917
86.023,57.6094,0.017588
86.056,57.6094,0.017588
86.083,57.6094,0.017588
86.114,57.6094,0.017588
86.146,57.6101,0.017588
86.177,57.6115,0.017588
86.208,57.6136,0.017588
86.240,57.6165,0.017588
86.270,57.6200,0.017588
86.301,57.6244,0.017494
86.332,57.6294,0.017494
86.364,57.6353,0.017494
86.395,57.6420,0.017494
86.427,57.6493,0.017494
86.457,57.6570,0.017494
86.488,57.6658,0.017494
86.519,57.6752,0.017494
86.550,57.6853,0.017296
86.580,57.6960,0.017296
86.612,57.7076,0.017296
86.642,57.7198,0.017296
86.672,57.7324,0.017296
86.704,57.7463,0.017296
86.734,57.7608,0.017296
86.765,57.7756,0.017296
86.796,57.7918,0.017014
86.826,57.8077,0.017014
86.858,57.8258,0.017014
86.889,57.8448,0.017014
86.921,57.8636,0.017014
86.953,57.8832,0.017014
86.981,57.9023,0.017014
87.013,57.9238,0.017014
87.044,57.9454,0.016788
87.076,57.9681,0.016788
87.109,57.9935,0.016788
87.138,58.0156,0.016788
87.169,58.0401,0.016788
87.200,58.0653,0.016788
87.230,58.0908,0.016788
87.262,58.1185,0.016788
87.295,58.1480,0.016487
87.323,58.1731,0.016487
87.354,58.2025,0.016487
87.385,58.2326,0.016487
87.416,58.2626,0.016487
87.447,58.2939,0.016487
87.477,58.3257,0.016487
87.509,58.3584,0.016487
87.541,58.3931,0.015922
87.571,58.4261,0.015922
87.602,58.4611,0.015922
87.637,58.5006,0.015922
87.664,58.5321,0.015922
87.695,58.5692,0.015922
87.726,58.6079,0.015922
87.757,58.6467,0.015922
87.789,58.6867,0.014784
87.820,58.7260,0.014784
87.853,58.7701,0.014784
87.881,58.8065,0.014784
87.912,58.8491,0.014784
87.944,58.8931,0.014784
87.976,58.9387,0.014784
88.006,58.9813,0.014784
88.037,59.0267,0.014784
88.068,59.0716,0.012873
88.100,59.1191,0.012873
88.130,59.1651,0.012873
88.162,59.2134,0.012873
88.192,59.2574,0.012873
88.224,59.3057,0.012873
88.256,59.3532,0.012873
88.286,59.3993,0.012873
88.318,59.4472,0.010116
88.348,59.4912,0.010116
88.379,59.5375,0.010116
88.410,59.5845,0.010116
88.440,59.6300,0.010116
88.474,59.6807,0.010116
88.503,59.7242,0.010116
88.535,59.7722,0.010116
88.565,59.8182,0.010116
88.596,59.8633,0.006521
88.628,59.9120,0.006521
88.659,59.9584,0.006521
88.690,60.0050,0.006521
88.720,60.0510,0.006521
88.751,60.0961,0.006521
88.783,60.1443,0.006521
88.814,60.1907,0.001459
88.845,60.2372,0.001459
88.876,60.2842,0.001459
88.907,60.3303,0.001459
88.937,60.3767,0.001459
88.968,60.4227,0.001459
88.999,60.4697,0.001459
89.031,60.5161,0.001459
89.062,60.5635,0.001459
89.093,60.6095,-0.006371
89.124,60.6561,-0.006371
89.154,60.7013,-0.006371
89.186,60.7498,-0.006371
89.220,60.7998,-0.006371
89.248,60.8408,-0.006371
89.279,60.8883,-0.006371
89.310,60.9343,-0.018266
89.341,60.9820,-0.018266
89.372,61.0268,-0.018266
89.401,61.0719,-0.018266
89.433,61.1194,-0.018266
89.464,61.1663,-0.018266
89.495,61.2110,-0.018266
89.526,61.2559,-0.018266
89.557,61.3001,-0.018266
89.588,61.3442,-0.037275
89.620,61.3868,-0.037275
89.651,61.4283,-0.037275
89.682,61.4690,-0.037275
89.712,61.5093,-0.037275
89.743,61.5491,-0.037275
89.774,61.5876,-0.037275
89.805,61.6256,-0.067642
89.836,61.6631,-0.067642
89.866,61.6989,-0.067642
89.897,61.7353,-0.067642
89.927,61.7693,-0.067642
89.958,61.8047,-0.067642
89.989,61.8376,-0.067642
90.021,61.8717,-0.067642
90.051,61.9028,-0.111475
90.087,61.9398,-0.111475
90.114,61.9661,-0.111475
90.145,61.9968,-0.111475
90.176,62.0261,-0.111475
90.207,62.0549,-0.111475
90.238,62.0835,-0.111475
90.270,62.1112,-0.111475
90.301,62.1383,-0.172398
90.332,62.1641,-0.172398
90.363,62.1889,-0.172398
90.394,62.2135,-0.172398
90.425,62.2363,-0.172398
90.458,62.2615,-0.172398
90.485,62.2805,-0.172398
90.517,62.3026,-0.172398
90.548,62.3236,-0.172398
90.581,62.3447,-0.278717
90.610,62.3630,-0.278717
90.645,62.3835,-0.278717
90.673,62.3999,-0.278717
90.704,62.4172,-0.278717
90.736,62.4335,-0.278717
90.766,62.4489,-0.278717
90.797,62.4635,-0.465306
90.830,62.4793,-0.465306
90.859,62.4918,-0.465306
90.890,62.5045,-0.465306
90.922,62.5165,-0.465306
90.952,62.5277,-0.465306
90.984,62.5383,-0.465306
91.014,62.5480,-0.465306
91.046,62.5572,-0.465306
91.076,62.5654,-0.736485
91.107,62.5730,-0.736485
91.139,62.5800,-0.736485
91.170,62.5863,-0.736485
91.200,62.5917,-0.736485
91.232,62.5964,-0.736485
91.263,62.6005,-0.736485
91.293,62.6036,-1.041024
91.325,62.6062,-1.041024
91.356,62.6080,-1.041024
91.390,62.6091,-1.041024
91.418,62.6094,-1.041024
91.450,62.6094,-1.041024
91.482,62.6094,-1.041024
91.512,62.6094,-1.041024
91.543,62.6094,-1.107913
91.574,62.6094,-1.107913
