Elapsed Time (s),Position (mm),Force (N)
-0.017,71.9093,-0.193374
0.013,71.9093,-0.193374
0.046,71.9093,-0.193374
0.074,71.9093,-0.193374
0.106,71.9093,-0.141485
0.137,71.9093,-0.141485
0.168,71.9093,-0.141485
0.199,71.9093,-0.141485
0.233,71.9093,-0.141485
0.262,71.9093,-0.141485
0.293,71.9093,-0.141485
0.323,71.9093,-0.128828
0.358,71.9093,-0.128828
0.384,71.9093,-0.128828
0.416,71.9093,-0.128828
0.447,71.9093,-0.128828
0.482,71.9093,-0.128828
0.510,71.9093,-0.128828
0.541,71.9093,-0.128828
0.571,71.9093,-0.121714
0.602,71.9093,-0.121714
0.632,71.9093,-0.121714
0.663,71.9093,-0.121714
0.694,71.9093,-0.121714
0.726,71.9093,-0.121714
0.756,71.9093,-0.121714
0.788,71.9093,-0.121714
0.820,71.9093,-0.121714
0.851,71.9093,-0.116303
0.881,71.9093,-0.116303
0.912,71.9093,-0.116303
0.944,71.9093,-0.116303
0.975,71.9093,-0.116303
1.006,71.9093,-0.116303
1.037,71.9093,-0.116303
1.068,71.9093,-0.112247
1.099,71.9093,-0.112247
1.130,71.9093,-0.112247
1.161,71.9093,-0.112247
1.191,71.9093,-0.112247
1.222,71.9093,-0.112247
1.253,71.9093,-0.112247
1.285,71.9093,-0.112247
1.315,71.9093,-0.112247
1.346,71.9093,-0.108963
1.377,71.9093,-0.108963
1.408,71.9093,-0.108963
1.439,71.9093,-0.108963
1.471,71.9093,-0.108963
1.501,71.9093,-0.108963
1.532,71.9093,-0.108963
1.562,71.9093,-0.108963
1.594,71.9093,-0.106017
1.624,71.9093,-0.106017
1.656,71.9093,-0.106017
1.687,71.9093,-0.106017
1.718,71.9093,-0.106017
1.749,71.9093,-0.106017
1.781,71.9093,-0.106017
1.812,71.9093,-0.106017
1.843,71.9093,-0.103731
1.874,71.9093,-0.103731
1.906,71.9093,-0.103731
1.937,71.9093,-0.103731
1.969,71.9093,-0.103731
1.999,71.9093,-0.103731
2.032,71.9093,-0.103731
2.061,71.9093,-0.103731
2.092,71.9093,-0.103731
2.123,71.9093,-0.101849
2.160,71.9093,-0.101849
2.187,71.9093,-0.101849
2.217,71.9093,-0.101849
2.249,71.9093,-0.101849
2.279,71.9093,-0.101849
2.313,71.9093,-0.101849
2.341,71.9093,-0.101849
2.372,71.9093,-0.099901
2.403,71.9093,-0.099901
2.434,71.9093,-0.099901
2.465,71.9093,-0.099901
2.496,71.9093,-0.099901
2.527,71.9093,-0.099901
2.558,71.9093,-0.099901
2.590,71.9093,-0.098263
2.621,71.9093,-0.098263
2.652,71.9093,-0.098263
2.684,71.9093,-0.098263
2.714,71.9093,-0.098263
2.745,71.9093,-0.098263
2.776,71.9093,-0.098263
2.806,71.9093,-0.098263
2.837,71.9093,-0.096936
2.868,71.9093,-0.096936
2.899,71.9093,-0.096936
2.930,71.9093,-0.096936
2.961,71.9093,-0.096936
2.993,71.9093,-0.096936
3.024,71.9093,-0.096936
3.053,71.9093,-0.096936
3.084,71.9093,-0.095431
3.118,71.9093,-0.095431
3.147,71.9093,-0.095431
3.178,71.9093,-0.095431
3.210,71.9093,-0.095431
3.241,71.9093,-0.095431
3.272,71.9093,-0.095431
3.303,71.9093,-0.095431
3.335,71.9093,-0.094424
3.366,71.9093,-0.094424
3.395,71.9093,-0.094424
3.426,71.9093,-0.094424
3.457,71.9093,-0.094424
3.488,71.9093,-0.094424
3.519,71.9093,-0.094424
3.551,71.9093,-0.094424
3.582,71.9093,-0.093304
3.614,71.9093,-0.093304
3.645,71.9093,-0.093304
3.676,71.9093,-0.093304
3.710,71.9093,-0.093304
3.737,71.9093,-0.093304
3.767,71.9093,-0.093304
3.798,71.9093,-0.093304
3.829,71.9093,-0.093304
3.860,71.9093,-0.093304
3.891,71.9093,-0.091817
3.922,71.9093,-0.091817
3.953,71.9093,-0.091817
3.985,71.9093,-0.091817
4.017,71.9093,-0.091817
4.046,71.9093,-0.091817
4.077,71.9093,-0.091817
4.108,71.9093,-0.091027
4.139,71.9088,-0.091027
4.170,71.9075,-0.091027
4.201,71.9057,-0.091027
4.232,71.9030,-0.091027
4.262,71.8996,-0.091027
4.294,71.8954,-0.091027
4.325,71.8904,-0.062617
4.356,71.8850,-0.062617
4.387,71.8785,-0.062617
4.418,71.8716,-0.062617
4.450,71.8636,-0.062617
4.482,71.8550,-0.062617
4.511,71.8459,-0.062617
4.543,71.8357,-0.062617
4.574,71.8251,-0.030010
4.604,71.8138,-0.030010
4.635,71.8019,-0.030010
4.667,71.7889,-0.030010
4.697,71.7755,-0.030010
4.728,71.7610,-0.030010
4.759,71.7461,-0.030010
4.791,71.7301,-0.030010
4.821,71.7139,-0.030010
4.852,71.6971,-0.021013
4.882,71.6790,-0.021013
4.913,71.6609,-0.021013
4.944,71.6409,-0.021013
4.975,71.6208,-0.021013
5.006,71.6005,-0.021013
5.037,71.5793,-0.021013
5.069,71.5559,-0.021013
5.099,71.5335,-0.005769
5.130,71.5102,-0.005769
5.160,71.4861,-0.005769
5.191,71.4604,-0.005769
5.223,71.4337,-0.005769
5.253,71.4081,-0.005769
5.285,71.3793,-0.005769
5.317,71.3509,-0.005769
5.348,71.3213,0.015160
5.379,71.2923,0.015160
5.410,71.2619,0.015160
5.441,71.2312,0.015160
5.472,71.1990,0.015160
5.503,71.1669,0.015160
5.534,71.1336,0.015160
5.565,71.0994,0.015160
5.596,71.0653,0.032334
5.628,71.0280,0.032334
5.659,70.9931,0.032334
5.689,70.9564,0.032334
5.720,70.9197,0.032334
5.754,70.8773,0.032334
5.781,70.8429,0.032334
5.814,70.8011,0.032334
5.843,70.7628,0.042488
5.878,70.7144,0.042488
5.904,70.6813,0.042488
5.937,70.6356,0.042488
5.966,70.5940,0.042488
5.997,70.5506,0.042488
6.028,70.5068,0.042488
6.059,70.4609,0.042488
6.090,70.4143,0.048021
6.121,70.3682,0.048021
6.151,70.3223,0.048021
6.183,70.2748,0.048021
6.217,70.2233,0.048021
6.245,70.1819,0.048021
6.276,70.1359,0.048021
6.308,70.0871,0.048021
6.338,70.0425,0.052152
6.372,69.9918,0.052152
6.400,69.9498,0.052152
6.431,69.9023,0.052152
6.461,69.8574,0.052152
6.495,69.8070,0.052152
6.523,69.7654,0.052152
6.555,69.7177,0.052152
6.586,69.6714,0.054938
6.615,69.6254,0.054938
6.646,69.5804,0.054938
6.678,69.5324,0.054938
6.708,69.4882,0.054938
6.743,69.4324,0.054938
6.769,69.3966,0.054938
6.799,69.3503,0.054938
6.830,69.3039,0.056265
6.861,69.2574,0.056265
6.892,69.2104,0.056265
6.924,69.1635,0.056265
6.954,69.1178,0.056265
6.984,69.0727,0.056265
7.015,69.0261,0.056265
7.047,68.9785,0.056265
7.077,68.9333,0.056265
7.103,68.8949,0.050694
7.139,68.8403,0.050694
7.171,68.7931,0.050694
7.201,68.7487,0.050694
7.231,68.7022,0.050694
7.262,68.6565,0.050694
7.293,68.6094,0.050694
7.323,68.5652,0.028448
7.353,68.5196,0.028448
7.384,68.4737,0.028448
7.415,68.4268,0.028448
7.446,68.3808,0.028448
7.479,68.3292,0.028448
7.508,68.2876,0.028448
7.539,68.2424,0.028448
7.570,68.1986,0.028448
7.601,68.1542,0.028448
7.633,68.1111,0.011095
7.663,68.0683,0.011095
7.694,68.0269,0.011095
7.724,67.9873,0.011095
7.755,67.9476,0.011095
7.786,67.9075,0.011095
7.818,67.8690,0.011095
7.850,67.8297,0.009608
7.881,67.7923,0.009608
7.912,67.7547,0.009608
7.943,67.7193,0.009608
7.974,67.6844,0.009608
8.005,67.6506,0.009608
8.037,67.6163,0.009608
8.067,67.5841,0.009608
8.098,67.5515,0.009608
8.130,67.5198,0.009128
8.160,67.4907,0.009128
8.186,67.4652,0.009128
8.223,67.4304,0.009128
8.253,67.4026,0.009128
8.283,67.3751,0.009128
8.317,67.3453,0.009128
8.345,67.3218,0.008808
8.376,67.2964,0.008808
8.406,67.2719,0.008808
8.437,67.2479,0.008808
8.469,67.2245,0.008808
8.500,67.2017,0.008808
8.530,67.1797,0.008808
8.562,67.1582,0.008808
8.593,67.1376,0.008676
8.625,67.1175,0.008676
8.656,67.0980,0.008676
8.687,67.0803,0.008676
8.716,67.0631,0.008676
8.747,67.0463,0.008676
8.779,67.0302,0.008676
8.810,67.0147,0.008676
8.841,67.0003,0.008535
8.872,66.9859,0.008535
8.903,66.9728,0.008535
8.939,66.9584,0.008535
8.966,66.9482,0.008535
8.998,66.9369,0.008535
9.028,66.9269,0.008535
9.058,66.9177,0.008535
9.089,66.9089,0.008356
9.120,66.9006,0.008356
9.150,66.8934,0.008356
9.181,66.8870,0.008356
9.211,66.8809,0.008356
9.243,66.8755,0.008356
9.275,66.8710,0.008356
9.305,66.8672,0.008356
9.336,66.8643,0.008253
9.367,66.8619,0.008253
9.398,66.8603,0.008253
9.430,66.8594,0.008253
9.461,66.8593,0.008253
9.492,66.8593,0.008253
9.523,66.8593,0.008253
9.555,66.8593,0.008253
9.587,66.8593,0.008215
9.617,66.8593,0.008215
9.648,66.8593,0.008215
9.678,66.8593,0.008215
9.709,66.8593,0.008215
9.739,66.8593,0.008215
9.771,66.8593,0.008215
9.802,66.8593,0.008215
9.832,66.8593,0.008215
9.863,66.8593,0.008215
9.894,66.8593,0.008215
9.925,66.8593,0.008215
9.957,66.8593,0.008215
9.988,66.8593,0.008215
10.019,66.8593,0.008215
10.050,66.8593,0.008215
10.080,66.8593,0.008196
10.111,66.8594,0.008196
10.142,66.8602,0.008196
10.173,66.8615,0.008196
10.205,66.8638,0.008196
10.235,66.8666,0.008196
10.267,66.8705,0.008196
10.297,66.8747,0.008196
10.330,66.8800,0.008196
10.360,66.8856,0.008196
10.391,66.8923,0.008065
10.423,66.8996,0.008065
10.454,66.9078,0.008065
10.485,66.9166,0.008065
10.516,66.9261,0.008065
10.547,66.9363,0.008065
10.578,66.9475,0.007905
10.609,66.9588,0.007905
10.640,66.9714,0.007905
10.672,66.9847,0.007905
10.703,66.9988,0.007905
10.734,67.0136,0.007905
10.765,67.0286,0.007905
10.796,67.0446,0.007905
10.827,67.0613,0.007905
10.860,67.0799,0.007735
10.889,67.0974,0.007735
10.920,67.1160,0.007735
10.950,67.1355,0.007735
10.981,67.1555,0.007735
11.012,67.1770,0.007735
11.043,67.1989,0.007735
11.075,67.2219,0.007735
11.106,67.2454,0.007557
11.137,67.2693,0.007557
11.168,67.2941,0.007557
11.193,67.3145,0.007557
11.230,67.3460,0.007557
11.261,67.3733,0.007557
11.292,67.4008,0.007557
11.324,67.4301,0.007557
11.354,67.4591,0.007321
11.383,67.4857,0.007321
11.417,67.5195,0.007321
11.448,67.5517,0.007321
11.479,67.5833,0.007321
11.509,67.6150,0.007321
11.540,67.6490,0.007321
11.571,67.6832,0.006926
11.602,67.7184,0.006926
11.633,67.7531,0.006926
11.664,67.7902,0.006926
11.695,67.8271,0.006926
11.726,67.8656,0.006926
11.758,67.9039,0.006926
11.788,67.9434,0.006926
11.820,67.9839,0.006926
11.850,68.0249,0.006550
11.882,68.0672,0.006550
11.913,68.1096,0.006550
11.944,68.1525,0.006550
11.975,68.1960,0.006550
12.007,68.2420,0.006550
12.038,68.2867,0.006550
12.070,68.3336,0.006550
12.101,68.3804,0.005929
12.132,68.4281,0.005929
12.164,68.4746,0.005929
12.196,68.5225,0.005929
12.226,68.5681,0.005929
12.257,68.6153,0.005929
12.289,68.6632,0.005929
12.320,68.7096,0.005355
12.351,68.7561,0.005355
12.383,68.8029,0.005355
12.413,68.8491,0.005355
12.444,68.8945,0.005355
12.476,68.9423,0.005355
12.506,68.9888,0.005355
12.537,69.0339,0.005355
12.569,69.0822,0.005355
12.599,69.1276,0.004724
12.630,69.1748,0.004724
12.662,69.2241,0.004724
12.694,69.2699,0.004724
12.722,69.3129,0.004724
12.754,69.3601,0.004724
12.785,69.4062,0.004724
12.815,69.4520,0.003708
12.846,69.4990,0.003708
12.877,69.5445,0.003708
12.908,69.5920,0.003708
12.939,69.6377,0.003708
12.971,69.6853,0.003708
13.002,69.7321,0.003708
13.034,69.7801,0.003708
13.065,69.8262,0.003708
13.095,69.8721,0.003708
13.126,69.9173,0.002277
13.156,69.9635,0.002277
13.187,70.0090,0.002277
13.218,70.0556,0.002277
13.248,70.1026,0.002277
13.284,70.1556,0.002277
13.310,70.1939,0.002277
13.341,70.2405,0.002277
13.372,70.2871,-0.000245
13.403,70.3337,-0.000245
13.436,70.3835,-0.000245
13.464,70.4239,-0.000245
13.495,70.4701,-0.000245
13.526,70.5139,-0.000245
13.557,70.5584,-0.000245
13.588,70.6020,-0.000245
13.618,70.6428,-0.005289
13.649,70.6842,-0.005289
13.683,70.7302,-0.005289
13.714,70.7690,-0.005289
13.743,70.8070,-0.005289
13.774,70.8450,-0.005289
13.805,70.8840,-0.005289
13.836,70.9209,-0.005289
13.868,70.9585,-0.014944
13.899,70.9941,-0.014944
13.929,71.0292,-0.014944
13.960,71.0621,-0.014944
13.991,71.0971,-0.014944
14.022,71.1298,-0.014944
14.054,71.1617,-0.014944
14.084,71.1935,-0.014944
14.115,71.2238,-0.031647
14.146,71.2533,-0.031647
14.177,71.2826,-0.031647
14.208,71.3121,-0.031647
14.239,71.3394,-0.031647
14.271,71.3677,-0.031647
14.302,71.3933,-0.031647
14.334,71.4204,-0.055860
14.365,71.4451,-0.055860
14.396,71.4689,-0.055860
14.427,71.4931,-0.055860
14.458,71.5151,-0.055860
14.489,71.5376,-0.055860
14.520,71.5589,-0.055860
14.550,71.5790,-0.055860
14.581,71.5987,-0.084355
14.613,71.6183,-0.084355
14.643,71.6361,-0.084355
14.675,71.6543,-0.084355
14.706,71.6710,-0.084355
14.737,71.6875,-0.084355
14.769,71.7034,-0.084355
14.800,71.7182,-0.084355
14.831,71.7319,-0.118034
14.862,71.7455,-0.118034
14.893,71.7580,-0.118034
14.924,71.7696,-0.118034
14.955,71.7807,-0.118034
14.985,71.7907,-0.118034
15.016,71.8004,-0.118034
15.048,71.8094,-0.118034
15.079,71.8174,-0.118034
15.110,71.8251,-0.171664
15.141,71.8318,-0.171664
15.172,71.8377,-0.171664
15.204,71.8431,-0.171664
15.234,71.8475,-0.171664
15.265,71.8512,-0.171664
15.297,71.8545,-0.171664
15.327,71.8567,-0.229049
15.359,71.8583,-0.229049
15.390,71.8592,-0.229049
15.420,71.8593,-0.229049
15.451,71.8593,-0.229049
15.487,71.8593,-0.229049
15.514,71.8593,-0.229049
15.545,71.8593,-0.229049
15.576,71.8593,-0.229049
15.607,71.8593,-0.229049
15.639,71.8593,-0.209814
15.670,71.8593,-0.209814
15.701,71.8593,-0.209814
15.732,71.8593,-0.209814
15.764,71.8593,-0.209814
15.796,71.8593,-0.209814
15.827,71.8593,-0.209814
15.857,71.8593,-0.209814
15.888,71.8593,-0.152655
15.919,71.8593,-0.152655
15.950,71.8593,-0.152655
15.981,71.8593,-0.152655
16.012,71.8593,-0.152655
16.044,71.8593,-0.152655
16.076,71.8593,-0.152655
16.107,71.8593,-0.132602
16.138,71.8593,-0.132602
16.169,71.8593,-0.132602
16.199,71.8593,-0.132602
16.230,71.8593,-0.132602
16.261,71.8593,-0.132602
16.292,71.8593,-0.132602
16.324,71.8593,-0.123963
16.354,71.8593,-0.123963
16.385,71.8593,-0.123963
16.417,71.8593,-0.123963
16.447,71.8593,-0.123963
16.478,71.8593,-0.123963
16.508,71.8593,-0.123963
16.539,71.8593,-0.123963
16.570,71.8593,-0.123963
16.602,71.8593,-0.117837
16.634,71.8593,-0.117837
16.665,71.8593,-0.117837
16.696,71.8593,-0.117837
16.727,71.8593,-0.117837
16.762,71.8593,-0.117837
16.789,71.8593,-0.117837
16.820,71.8593,-0.117837
16.851,71.8593,-0.113386
16.882,71.8593,-0.113386
16.912,71.8593,-0.113386
16.943,71.8593,-0.113386
16.974,71.8593,-0.113386
17.004,71.8593,-0.113386
17.036,71.8593,-0.113386
17.067,71.8593,-0.113386
17.097,71.8593,-0.109725
17.129,71.8593,-0.109725
17.160,71.8593,-0.109725
17.190,71.8593,-0.109725
17.221,71.8593,-0.109725
17.252,71.8593,-0.109725
17.279,71.8593,-0.109725
17.314,71.8593,-0.109725
17.345,71.8593,-0.106855
17.376,71.8593,-0.106855
17.407,71.8593,-0.106855
17.439,71.8593,-0.106855
17.470,71.8593,-0.106855
17.501,71.8593,-0.106855
17.533,71.8593,-0.106855
17.563,71.8593,-0.106855
17.593,71.8593,-0.106855
17.625,71.8593,-0.104164
17.655,71.8593,-0.104164
17.686,71.8593,-0.104164
17.717,71.8593,-0.104164
17.747,71.8593,-0.104164
17.778,71.8593,-0.104164
17.809,71.8593,-0.104164
17.840,71.8593,-0.104164
17.871,71.8593,-0.101999
17.903,71.8593,-0.101999
17.934,71.8593,-0.101999
17.964,71.8593,-0.101999
17.995,71.8593,-0.101999
18.027,71.8593,-0.101999
18.058,71.8593,-0.101999
18.088,71.8593,-0.101999
18.119,71.8593,-0.100117
18.150,71.8593,-0.100117
18.181,71.8593,-0.100117
18.212,71.8593,-0.100117
18.243,71.8593,-0.100117
18.275,71.8593,-0.100117
18.306,71.8593,-0.100117
18.337,71.8593,-0.100117
18.368,71.8593,-0.098433
18.400,71.8593,-0.098433
18.430,71.8593,-0.098433
18.460,71.8593,-0.098433
18.492,71.8593,-0.098433
18.522,71.8593,-0.098433
18.554,71.8593,-0.098433
18.586,71.8593,-0.097049
18.616,71.8593,-0.097049
18.647,71.8593,-0.097049
18.678,71.8593,-0.097049
18.709,71.8593,-0.097049
18.741,71.8593,-0.097049
18.772,71.8593,-0.097049
18.803,71.8593,-0.097049
18.835,71.8593,-0.095619
18.865,71.8593,-0.095619
18.898,71.8593,-0.095619
18.929,71.8593,-0.095619
18.958,71.8593,-0.095619
18.991,71.8593,-0.095619
19.022,71.8593,-0.095619
19.054,71.8593,-0.095619
19.085,71.8593,-0.095619
19.116,71.8593,-0.094292
19.146,71.8593,-0.094292
19.178,71.8593,-0.094292
19.212,71.8593,-0.094292
19.240,71.8593,-0.094292
19.271,71.8593,-0.094292
19.302,71.8593,-0.094292
19.332,71.8593,-0.094292
19.363,71.8593,-0.092862
19.394,71.8593,-0.092862
19.424,71.8593,-0.092862
19.451,71.8593,-0.092862
19.487,71.8593,-0.092862
19.519,71.8593,-0.092862
19.550,71.8593,-0.092862
19.580,71.8593,-0.091535
19.614,71.8593,-0.091535
19.642,71.8593,-0.091535
19.673,71.8593,-0.091535
19.703,71.8587,-0.091535
19.734,71.8573,-0.091535
19.765,71.8553,-0.091535
19.796,71.8526,-0.091535
19.826,71.8493,-0.091535
19.857,71.8450,-0.089530
19.888,71.8401,-0.089530
19.919,71.8345,-0.089530
19.949,71.8283,-0.089530
19.980,71.8211,-0.089530
20.011,71.8133,-0.089530
20.042,71.8050,-0.089530
20.073,71.7956,-0.049292
20.103,71.7858,-0.049292
20.135,71.7751,-0.049292
20.166,71.7631,-0.049292
20.199,71.7507,-0.049292
20.229,71.7376,-0.049292
20.259,71.7246,-0.049292
20.291,71.7095,-0.049292
20.321,71.6951,-0.049292
20.353,71.6786,-0.015913
20.384,71.6624,-0.015913
20.415,71.6445,-0.015913
20.447,71.6263,-0.015913
20.479,71.6068,-0.015913
20.510,71.5873,-0.015913
20.541,71.5677,-0.015913
20.572,71.5461,-0.015913
20.603,71.5246,-0.011274
20.634,71.5022,-0.011274
20.665,71.4793,-0.011274
20.696,71.4552,-0.011274
20.728,71.4301,-0.011274
20.759,71.4045,-0.011274
20.790,71.3782,-0.011274
20.820,71.3516,-0.011274
20.851,71.3248,0.009354
20.883,71.2957,0.009354
20.914,71.2666,0.009354
20.945,71.2373,0.009354
20.975,71.2062,0.009354
21.006,71.1761,0.009354
21.038,71.1428,0.009354
21.069,71.1102,0.009354
21.099,71.0773,0.027836
21.131,71.0431,0.027836
21.162,71.0070,0.027836
21.195,70.9702,0.027836
21.223,70.9366,0.027836
21.253,70.9018,0.027836
21.283,70.8654,0.027836
21.314,70.8259,0.027836
21.345,70.7870,0.039684
21.376,70.7472,0.039684
21.407,70.7080,0.039684
21.438,70.6658,0.039684
21.469,70.6243,0.039684
21.500,70.5810,0.039684
21.532,70.5371,0.039684
21.562,70.4931,0.039684
21.593,70.4478,0.045829
21.625,70.4023,0.045829
21.656,70.3550,0.045829
21.688,70.3076,0.045829
21.719,70.2600,0.045829
21.751,70.2134,0.045829
21.781,70.1680,0.045829
21.811,70.1222,0.045829
21.843,70.0745,0.045829
21.874,70.0288,0.050044
21.906,69.9808,0.050044
21.938,69.9326,0.050044
21.968,69.8875,0.050044
21.999,69.8408,0.050044
22.030,69.7936,0.050044
22.062,69.7466,0.050044
22.092,69.7010,0.050044
22.123,69.6547,0.053310
22.154,69.6074,0.053310
22.185,69.5611,0.053310
22.216,69.5153,0.053310
22.248,69.4666,0.053310
22.279,69.4204,0.053310
22.310,69.3731,0.053310
22.342,69.3266,0.053310
22.373,69.2791,0.055352
22.405,69.2315,0.055352
22.436,69.1842,0.055352
22.468,69.1365,0.055352
22.498,69.0922,0.055352
22.530,69.0441,0.055352
22.561,68.9970,0.055352
22.592,68.9521,0.055352
22.623,68.9056,0.052689
22.653,68.8597,0.052689
22.684,68.8135,0.052689
22.715,68.7653,0.052689
22.746,68.7197,0.052689
22.777,68.6739,0.052689
22.808,68.6268,0.052689
22.839,68.5811,0.031365
22.870,68.5341,0.031365
22.902,68.4866,0.031365
22.932,68.4408,0.031365
22.964,68.3940,0.031365
22.994,68.3482,0.031365
23.027,68.2997,0.031365
23.057,68.2551,0.031365
23.089,68.2078,0.031365
23.119,68.1638,0.011782
23.151,68.1183,0.011782
23.182,68.0758,0.011782
23.213,68.0321,0.011782
23.244,67.9900,0.011782
23.279,67.9434,0.011782
23.307,67.9084,0.011782
23.339,67.8671,0.011782
23.370,67.8289,0.009740
23.402,67.7896,0.009740
23.431,67.7536,0.009740
23.461,67.7175,0.009740
23.493,67.6815,0.009740
23.524,67.6454,0.009740
23.555,67.6120,0.009740
23.586,67.5774,0.009740
23.617,67.5444,0.009166
23.649,67.5109,0.009166
23.680,67.4797,0.009166
23.712,67.4477,0.009166
23.743,67.4178,0.009166
23.774,67.3879,0.009166
23.805,67.3600,0.009166
23.836,67.3310,0.008818
23.868,67.3038,0.008818
23.898,67.2775,0.008818
23.930,67.2518,0.008818
23.961,67.2265,0.008818
23.992,67.2025,0.008818
24.023,67.1784,0.008818
24.055,67.1552,0.008818
24.086,67.1333,0.008818
24.116,67.1122,0.008695
24.147,67.0917,0.008695
24.178,67.0719,0.008695
24.211,67.0518,0.008695
24.240,67.0340,0.008695
24.271,67.0163,0.008695
24.303,66.9992,0.008695
24.333,66.9828,0.008695
24.365,66.9674,0.008563
24.397,66.9522,0.008563
24.428,66.9382,0.008563
24.465,66.9222,0.008563
24.505,66.9062,0.008563
24.536,66.8944,0.008563
24.570,66.8827,0.008563
24.599,66.8736,0.008563
24.632,66.8634,0.008460
24.661,66.8557,0.008460
24.692,66.8476,0.008460
24.723,66.8406,0.008460
24.754,66.8342,0.008460
24.785,66.8285,0.008460
24.817,66.8236,0.008460
24.848,66.8194,0.008460
24.879,66.8159,0.008328
24.910,66.8132,0.008328
24.942,66.8112,0.008328
24.973,66.8098,0.008328
25.005,66.8093,0.008328
25.036,66.8093,0.008328
25.066,66.8093,0.008328
25.097,66.8093,0.008196
25.129,66.8093,0.008196
25.160,66.8093,0.008196
25.191,66.8093,0.008196
25.222,66.8093,0.008196
25.253,66.8094,0.008196
25.284,66.8103,0.008196
25.316,66.8119,0.008196
25.346,66.8142,0.008206
25.377,66.8171,0.008206
25.408,66.8209,0.008206
25.439,66.8254,0.008206
25.470,66.8304,0.008206
25.501,66.8365,0.008206
25.531,66.8429,0.008206
25.563,66.8505,0.008206
25.593,66.8583,0.008046
25.623,66.8670,0.008046
25.655,66.8765,0.008046
25.685,66.8867,0.008046
25.716,66.8979,0.008046
25.746,66.9089,0.008046
25.778,66.9217,0.008046
25.809,66.9347,0.008046
25.840,66.9488,0.008046
25.871,66.9634,0.007801
25.901,66.9781,0.007801
25.933,66.9945,0.007801
25.963,67.0107,0.007801
25.994,67.0283,0.007801
26.025,67.0467,0.007801
26.055,67.0654,0.007801
26.087,67.0849,0.007641
26.117,67.1049,0.007641
26.149,67.1263,0.007641
26.181,67.1494,0.007641
26.211,67.1712,0.007641
26.242,67.1944,0.007641
26.273,67.2185,0.007641
26.304,67.2435,0.007641
26.335,67.2694,0.007472
26.367,67.2964,0.007472
26.397,67.3224,0.007472
26.427,67.3492,0.007472
26.458,67.3773,0.007472
26.488,67.4057,0.007472
26.519,67.4355,0.007472
26.549,67.4655,0.007472
26.580,67.4959,0.007218
26.610,67.5272,0.007218
26.642,67.5607,0.007218
26.674,67.5956,0.007218
26.706,67.6297,0.007218
26.736,67.6646,0.007218
26.768,67.7005,0.007218
26.799,67.7366,0.007218
26.829,67.7746,0.006870
26.861,67.8119,0.006870
26.890,67.8496,0.006870
26.921,67.8886,0.006870
26.952,67.9280,0.006870
26.983,67.9673,0.006870
27.014,68.0101,0.006870
27.045,68.0528,0.006870
27.076,68.0942,0.006399
27.107,68.1384,0.006399
27.138,68.1825,0.006399
27.169,68.2279,0.006399
27.201,68.2742,0.006399
27.231,68.3209,0.006399
27.262,68.3663,0.006399
27.294,68.4139,0.006399
27.324,68.4598,0.006399
27.355,68.5063,0.005750
27.387,68.5535,0.005750
27.418,68.5998,0.005750
27.448,68.6470,0.005750
27.479,68.6921,0.005750
27.510,68.7389,0.005750
27.541,68.7854,0.005750
27.573,68.8328,0.005750
27.603,68.8785,0.005750
27.635,68.9264,0.005072
27.665,68.9720,0.005072
27.696,69.0179,0.005072
27.727,69.0644,0.005072
27.758,69.1096,0.005072
27.789,69.1568,0.005072
27.821,69.2063,0.005072
27.851,69.2507,0.004319
27.882,69.2972,0.004319
27.913,69.3430,0.004319
27.944,69.3900,0.004319
27.975,69.4349,0.004319
28.007,69.4834,0.004319
28.037,69.5279,0.004319
28.067,69.5747,0.004319
28.098,69.6206,0.003152
28.131,69.6707,0.003152
28.161,69.7147,0.003152
28.193,69.7623,0.003152
28.223,69.8085,0.003152
28.254,69.8553,0.003152
28.285,69.9012,0.003152
28.316,69.9481,0.003152
28.347,69.9929,0.001365
28.379,70.0419,0.001365
28.408,70.0864,0.001365
28.439,70.1312,0.001365
28.470,70.1775,0.001365
28.501,70.2247,0.001365
28.532,70.2713,0.001365
28.563,70.3171,0.001365
28.593,70.3631,0.001365
28.624,70.4090,-0.002042
28.655,70.4524,-0.002042
28.686,70.4967,-0.002042
28.717,70.5397,-0.002042
28.747,70.5821,-0.002042
28.778,70.6234,-0.002042
28.809,70.6645,-0.002042
28.840,70.7050,-0.008836
28.871,70.7451,-0.008836
28.902,70.7834,-0.008836
28.934,70.8237,-0.008836
28.964,70.8599,-0.008836
28.995,70.8964,-0.008836
29.026,70.9331,-0.008836
29.058,70.9684,-0.008836
29.089,71.0039,-0.021296
29.125,71.0437,-0.021296
29.151,71.0713,-0.021296
29.182,71.1034,-0.021296
29.214,71.1359,-0.021296
29.245,71.1666,-0.021296
29.276,71.1970,-0.021296
29.306,71.2257,-0.021296
29.337,71.2547,-0.021296
29.368,71.2821,-0.041415
29.399,71.3100,-0.041415
29.431,71.3367,-0.041415
29.462,71.3628,-0.041415
29.493,71.3883,-0.041415
29.524,71.4128,-0.041415
29.555,71.4366,-0.041415
29.587,71.4599,-0.067924
29.617,71.4809,-0.067924
29.648,71.5030,-0.067924
29.679,71.5232,-0.067924
29.710,71.5438,-0.067924
29.741,71.5626,-0.067924
29.771,71.5806,-0.067924
29.803,71.5990,-0.067924
29.834,71.6162,-0.097605
29.865,71.6326,-0.097605
29.896,71.6485,-0.097605
29.928,71.6637,-0.097605
29.960,71.6787,-0.097605
29.989,71.6914,-0.097605
30.021,71.7040,-0.097605
30.051,71.7161,-0.097605
30.082,71.7271,-0.139302
30.113,71.7378,-0.139302
30.143,71.7472,-0.139302
30.174,71.7565,-0.139302
30.204,71.7644,-0.139302
30.235,71.7722,-0.139302
30.265,71.7791,-0.139302
30.295,71.7851,-0.139302
30.325,71.7905,-0.200573
30.356,71.7954,-0.200573
30.387,71.7995,-0.200573
30.422,71.8032,-0.200573
30.450,71.8057,-0.200573
30.481,71.8077,-0.200573
30.512,71.8088,-0.200573
30.543,71.8093,-0.200573
30.574,71.8093,-0.200573
30.604,71.8093,-0.233142
30.635,71.8093,-0.233142
30.666,71.8093,-0.233142
30.697,71.8093,-0.233142
30.728,71.8093,-0.233142
30.761,71.8093,-0.233142
30.792,71.8093,-0.233142
30.825,71.8093,-0.233142
30.854,71.8093,-0.189384
30.884,71.8093,-0.189384
30.915,71.8093,-0.189384
30.947,71.8093,-0.189384
30.978,71.8093,-0.189384
31.009,71.8093,-0.189384
31.040,71.8093,-0.189384
31.071,71.8093,-0.189384
31.103,71.8093,-0.189384
31.133,71.8093,-0.139763
31.164,71.8093,-0.139763
31.195,71.8093,-0.139763
31.226,71.8093,-0.139763
31.258,71.8093,-0.139763
31.289,71.8093,-0.139763
31.320,71.8093,-0.139763
31.351,71.8093,-0.139763
31.382,71.8093,-0.127595
31.413,71.8093,-0.127595
31.444,71.8093,-0.127595
31.475,71.8093,-0.127595
31.506,71.8093,-0.127595
31.537,71.8093,-0.127595
31.568,71.8093,-0.127595
31.599,71.8093,-0.120538
31.631,71.8093,-0.120538
31.662,71.8093,-0.120538
31.693,71.8093,-0.120538
31.725,71.8093,-0.120538
31.756,71.8093,-0.120538
31.786,71.8093,-0.120538
31.817,71.8093,-0.120538
31.847,71.8093,-0.115343
31.879,71.8093,-0.115343
31.910,71.8093,-0.115343
31.942,71.8093,-0.115343
31.973,71.8093,-0.115343
32.003,71.8093,-0.115343
32.034,71.8093,-0.115343
32.065,71.8093,-0.115343
32.096,71.8093,-0.111353
32.130,71.8093,-0.111353
32.158,71.8093,-0.111353
32.190,71.8093,-0.111353
32.221,71.8093,-0.111353
32.251,71.8093,-0.111353
32.282,71.8093,-0.111353
32.313,71.8093,-0.111353
32.344,71.8093,-0.111353
32.375,71.8093,-0.108022
32.406,71.8093,-0.108022
32.437,71.8093,-0.108022
32.468,71.8093,-0.108022
32.499,71.8093,-0.108022
32.530,71.8093,-0.108022
32.561,71.8093,-0.108022
32.592,71.8093,-0.105255
32.623,71.8093,-0.105255
32.654,71.8093,-0.105255
32.688,71.8093,-0.105255
32.716,71.8093,-0.105255
32.747,71.8093,-0.105255
32.777,71.8093,-0.105255
32.808,71.8093,-0.105255
32.839,71.8093,-0.102856
32.870,71.8093,-0.102856
32.901,71.8093,-0.102856
32.936,71.8093,-0.102856
32.963,71.8093,-0.102856
32.995,71.8093,-0.102856
33.025,71.8093,-0.102856
33.057,71.8093,-0.102856
33.087,71.8093,-0.102856
33.119,71.8093,-0.100813
33.150,71.8093,-0.100813
33.181,71.8093,-0.100813
33.212,71.8093,-0.100813
33.242,71.8093,-0.100813
33.272,71.8093,-0.100813
33.304,71.8093,-0.100813
33.335,71.8093,-0.099129
33.367,71.8093,-0.099129
33.397,71.8093,-0.099129
33.429,71.8093,-0.099129
33.459,71.8093,-0.099129
33.492,71.8093,-0.099129
33.522,71.8093,-0.099129
33.553,71.8093,-0.099129
33.584,71.8093,-0.097435
33.616,71.8093,-0.097435
33.646,71.8093,-0.097435
33.679,71.8093,-0.097435
33.707,71.8093,-0.097435
33.739,71.8093,-0.097435
33.769,71.8093,-0.097435
33.799,71.8093,-0.097435
33.830,71.8093,-0.096155
33.861,71.8093,-0.096155
33.892,71.8093,-0.096155
33.923,71.8093,-0.096155
33.954,71.8093,-0.096155
33.985,71.8093,-0.096155
34.017,71.8093,-0.096155
34.049,71.8093,-0.096155
34.079,71.8093,-0.094866
34.110,71.8093,-0.094866
34.141,71.8093,-0.094866
34.174,71.8093,-0.094866
34.203,71.8093,-0.094866
34.235,71.8093,-0.094866
34.266,71.8093,-0.094866
34.297,71.8093,-0.094866
34.328,71.8093,-0.093633
34.358,71.8093,-0.093633
34.390,71.8093,-0.093633
34.422,71.8093,-0.093633
34.453,71.8093,-0.093633
34.485,71.8093,-0.093633
34.515,71.8093,-0.093633
34.546,71.8093,-0.093633
34.578,71.8093,-0.092523
34.608,71.8093,-0.092523
34.639,71.8093,-0.092523
34.670,71.8093,-0.092523
34.701,71.8093,-0.092523
34.732,71.8093,-0.092523
34.763,71.8093,-0.092523
34.794,71.8093,-0.092523
34.824,71.8093,-0.092523
34.855,71.8093,-0.091149
34.886,71.8093,-0.091149
34.916,71.8093,-0.091149
34.948,71.8093,-0.091149
34.979,71.8093,-0.091149
35.014,71.8093,-0.091149
35.042,71.8093,-0.091149
35.073,71.8093,-0.091149
35.104,71.8093,-0.091149
35.134,71.8093,-0.090010
35.165,71.8088,-0.090010
35.198,71.8076,-0.090010
35.227,71.8057,-0.090010
35.260,71.8027,-0.090010
35.289,71.7996,-0.090010
35.320,71.7954,-0.090010
35.351,71.7907,-0.073250
35.382,71.7850,-0.073250
35.413,71.7787,-0.073250
35.444,71.7719,-0.073250
35.474,71.7642,-0.073250
35.505,71.7559,-0.073250
35.535,71.7468,-0.073250
35.566,71.7369,-0.073250
35.597,71.7266,-0.039665
35.628,71.7149,-0.039665
35.659,71.7033,-0.039665
35.689,71.6904,-0.039665
35.720,71.6771,-0.039665
35.751,71.6627,-0.039665
35.782,71.6480,-0.039665
35.812,71.6323,-0.039665
35.843,71.6167,-0.020072
35.875,71.5981,-0.020072
35.905,71.5815,-0.020072
35.938,71.5618,-0.020072
35.968,71.5433,-0.020072
36.004,71.5190,-0.020072
36.044,71.4926,-0.020072
36.075,71.4701,-0.007509
36.106,71.4480,-0.007509
36.137,71.4246,-0.007509
36.168,71.4010,-0.007509
36.200,71.3751,-0.007509
36.231,71.3497,-0.007509
36.262,71.3236,-0.007509
36.293,71.2966,-0.007509
36.323,71.2693,-0.007509
36.354,71.2418,0.013240
36.385,71.2125,0.013240
36.417,71.1820,0.013240
36.448,71.1513,0.013240
36.480,71.1190,0.013240
36.510,71.0878,0.013240
36.542,71.0540,0.013240
36.573,71.0199,0.013240
36.603,70.9869,0.030810
36.635,70.9503,0.030810
36.665,70.9152,0.030810
36.696,70.8794,0.030810
36.728,70.8414,0.030810
36.758,70.8046,0.030810
36.790,70.7658,0.030810
36.820,70.7276,0.030810
36.851,70.6872,0.041415
36.882,70.6460,0.041415
36.913,70.6046,0.041415
36.944,70.5621,0.041415
36.976,70.5182,0.041415
37.006,70.4755,0.041415
37.041,70.4234,0.041415
37.069,70.3858,0.047024
37.100,70.3377,0.047024
37.131,70.2920,0.047024
37.166,70.2396,0.047024
37.192,70.1997,0.047024
37.223,70.1541,0.047024
37.255,70.1061,0.047024
37.288,70.0567,0.047024
37.317,70.0135,0.047024
37.350,69.9639,0.051089
37.379,69.9198,0.051089
37.412,69.8700,0.051089
37.441,69.8274,0.051089
37.475,69.7766,0.051089
37.502,69.7357,0.051089
37.534,69.6885,0.051089
37.564,69.6434,0.054063
37.595,69.5964,0.054063
37.625,69.5514,0.054063
37.656,69.5055,0.054063
37.686,69.4599,0.054063
37.718,69.4122,0.054063
37.748,69.3669,0.054063
37.779,69.3200,0.054063
37.810,69.2745,0.054063
37.841,69.2279,0.054063
37.871,69.1819,0.054063
37.902,69.1362,0.055841
37.933,69.0884,0.055841
37.964,69.0432,0.055841
37.995,68.9967,0.055841
38.026,68.9497,0.055841
38.057,68.9033,0.055841
38.088,68.8558,0.055841
38.119,68.8106,0.051484
38.153,68.7592,0.051484
38.180,68.7184,0.051484
38.211,68.6719,0.051484
38.242,68.6266,0.051484
38.272,68.5794,0.051484
38.305,68.5321,0.051484
38.336,68.4847,0.051484
38.366,68.4397,0.029473
38.397,68.3927,0.029473
38.428,68.3467,0.029473
38.461,68.2985,0.029473
38.491,68.2522,0.029473
38.521,68.2074,0.029473
38.552,68.1620,0.029473
38.583,68.1175,0.011283
38.614,68.0735,0.011283
38.652,68.0198,0.011283
38.691,67.9655,0.011283
38.723,67.9247,0.011283
38.753,67.8832,0.011283
38.787,67.8400,0.011283
38.816,67.8027,0.011283
38.848,67.7640,0.009702
38.879,67.7251,0.009702
38.910,67.6896,0.009702
38.941,67.6529,0.009702
38.971,67.6173,0.009702
39.003,67.5819,0.009702
39.034,67.5474,0.009702
39.065,67.5144,0.009702
39.096,67.4818,0.009702
39.127,67.4497,0.009194
39.157,67.4186,0.009194
39.188,67.3885,0.009194
39.219,67.3590,0.009194
39.249,67.3306,0.009194
39.280,67.3019,0.009194
39.311,67.2739,0.009194
39.346,67.2429,0.009194
39.372,67.2216,0.008893
39.404,67.1958,0.008893
39.434,67.1711,0.008893
39.466,67.1463,0.008893
39.496,67.1232,0.008893
39.527,67.1016,0.008893
39.556,67.0803,0.008893
39.588,67.0590,0.008893
39.619,67.0385,0.008695
39.649,67.0190,0.008695
39.680,66.9998,0.008695
39.712,66.9807,0.008695
39.743,66.9637,0.008695
39.777,66.9446,0.008695
39.804,66.9307,0.008695
39.835,66.9152,0.008695
39.866,66.9007,0.008611
39.899,66.8857,0.008611
39.928,66.8734,0.008611
39.960,66.8605,0.008611
39.990,66.8490,0.008611
40.021,66.8380,0.008611
40.052,66.8277,0.008611
40.083,66.8181,0.008611
40.114,66.8094,0.008507
40.145,66.8011,0.008507
40.176,66.7938,0.008507
40.207,66.7867,0.008507
40.237,66.7812,0.008507
40.269,66.7756,0.008507
40.300,66.7712,0.008507
40.330,66.7675,0.008507
40.362,66.7644,0.008356
40.393,66.7619,0.008356
40.424,66.7603,0.008356
40.456,66.7595,0.008356
40.486,66.7593,0.008356
40.517,66.7593,0.008356
40.548,66.7593,0.008356
40.579,66.7593,0.008356
40.610,66.7598,0.008262
40.640,66.7611,0.008262
40.672,66.7631,0.008262
40.702,66.7657,0.008262
40.732,66.7690,0.008262
40.763,66.7731,0.008262
40.793,66.7779,0.008262
40.824,66.7834,0.008262
40.855,66.7896,0.008084
40.887,66.7967,0.008084
40.918,66.8045,0.008084
40.949,66.8132,0.008084
40.980,66.8221,0.008084
41.011,66.8321,0.008084
41.042,66.8427,0.008084
41.073,66.8541,0.008084
41.104,66.8662,0.008084
41.135,66.8795,0.007914
41.166,66.8925,0.007914
41.196,66.9068,0.007914
41.228,66.9218,0.007914
41.260,66.9384,0.007914
41.289,66.9538,0.007914
41.321,66.9714,0.007914
41.351,66.9885,0.007820
41.382,67.0076,0.007820
41.413,67.0272,0.007820
41.449,67.0500,0.007820
41.475,67.0678,0.007820
41.506,67.0897,0.007820
41.538,67.1119,0.007820
41.569,67.1356,0.007820
41.600,67.1587,0.007641
41.631,67.1830,0.007641
41.661,67.2082,0.007641
41.694,67.2352,0.007641
41.723,67.2613,0.007641
41.754,67.2879,0.007641
41.785,67.3164,0.007641
41.816,67.3445,0.007641
41.845,67.3724,0.007302
41.876,67.4024,0.007302
41.910,67.4371,0.007302
41.939,67.4659,0.007302
41.969,67.4972,0.007302
41.999,67.5301,0.007302
42.030,67.5640,0.007302
42.061,67.5979,0.007302
42.092,67.6332,0.007001
42.123,67.6689,0.007001
42.154,67.7065,0.007001
42.184,67.7423,0.007001
42.215,67.7803,0.007001
42.245,67.8185,0.007001
42.277,67.8595,0.007001
42.308,67.8995,0.007001
42.340,67.9423,0.006597
42.370,67.9826,0.006597
42.400,68.0241,0.006597
42.431,68.0683,0.006597
42.463,68.1135,0.006597
42.493,68.1567,0.006597
42.524,68.2005,0.006597
42.554,68.2472,0.006597
42.585,68.2931,0.006597
42.617,68.3401,0.005957
42.648,68.3858,0.005957
42.679,68.4334,0.005957
42.708,68.4768,0.005957
42.739,68.5232,0.005957
42.770,68.5695,0.005957
42.801,68.6170,0.005957
42.833,68.6647,0.005345
42.862,68.7076,0.005345
42.893,68.7546,0.005345
42.924,68.8013,0.005345
42.955,68.8470,0.005345
42.986,68.8942,0.005345
43.017,68.9400,0.005345
43.047,68.9854,0.005345
43.078,69.0313,0.005345
43.109,69.0783,0.004715
43.140,69.1241,0.004715
43.172,69.1716,0.004715
43.202,69.2169,0.004715
43.233,69.2640,0.004715
43.262,69.3091,0.004715
43.295,69.3570,0.004715
43.326,69.4030,0.004715
43.357,69.4506,0.003708
43.388,69.4968,0.003708
43.419,69.5438,0.003708
43.450,69.5888,0.003708
43.481,69.6362,0.003708
43.513,69.6848,0.003708
43.542,69.7288,0.003708
43.574,69.7750,0.003708
43.605,69.8218,0.003708
43.635,69.8677,0.002127
43.666,69.9136,0.002127
43.697,69.9605,0.002127
43.729,70.0078,0.002127
43.760,70.0553,0.002127
43.791,70.1009,0.002127
43.822,70.1475,0.002127
43.853,70.1939,-0.000527
43.885,70.2428,-0.000527
43.916,70.2879,-0.000527
43.947,70.3349,-0.000527
43.979,70.3806,-0.000527
44.010,70.4256,-0.000527
44.041,70.4691,-0.000527
44.071,70.5113,-0.000527
44.102,70.5541,-0.005957
44.133,70.5955,-0.005957
44.164,70.6352,-0.005957
44.195,70.6765,-0.005957
44.227,70.7154,-0.005957
44.258,70.7555,-0.005957
44.289,70.7932,-0.005957
44.321,70.8313,-0.005957
44.352,70.8669,-0.015894
44.384,70.9040,-0.015894
44.414,70.9373,-0.015894
44.445,70.9727,-0.015894
44.476,71.0057,-0.015894
44.506,71.0378,-0.015894
44.536,71.0687,-0.015894
44.568,71.1009,-0.015894
44.599,71.1312,-0.032880
44.634,71.1651,-0.032880
44.659,71.1888,-0.032880
44.691,71.2174,-0.032880
44.722,71.2458,-0.032880
44.753,71.2725,-0.032880
44.784,71.2995,-0.032880
44.816,71.3251,-0.032880
44.847,71.3499,-0.032880
44.878,71.3736,-0.057328
44.909,71.3973,-0.057328
44.941,71.4201,-0.057328
44.972,71.4418,-0.057328
45.002,71.4627,-0.057328
45.034,71.4836,-0.057328
45.065,71.5032,-0.057328
45.096,71.5220,-0.085945
45.130,71.5425,-0.085945
45.158,71.5582,-0.085945
45.190,71.5755,-0.085945
45.221,71.5912,-0.085945
45.252,71.6064,-0.085945
45.282,71.6208,-0.085945
45.313,71.6348,-0.085945
45.344,71.6476,-0.121036
45.374,71.6595,-0.121036
45.405,71.6713,-0.121036
45.436,71.6822,-0.121036
45.468,71.6927,-0.121036
45.500,71.7025,-0.121036
45.529,71.7108,-0.121036
45.561,71.7190,-0.121036
45.592,71.7264,-0.176464
45.623,71.7329,-0.176464
45.654,71.7388,-0.176464
45.686,71.7441,-0.176464
45.716,71.7482,-0.176464
45.747,71.7519,-0.176464
45.778,71.7548,-0.176464
45.808,71.7570,-0.176464
45.839,71.7585,-0.230752
45.870,71.7592,-0.230752
45.901,71.7593,-0.230752
45.932,71.7593,-0.230752
45.963,71.7593,-0.230752
45.994,71.7593,-0.230752
46.025,71.7593,-0.230752
46.056,71.7593,-0.230752
46.087,71.7593,-0.205193
46.118,71.7593,-0.205193
46.149,71.7593,-0.205193
46.182,71.7593,-0.205193
46.210,71.7593,-0.205193
46.242,71.7593,-0.205193
46.272,71.7593,-0.205193
46.304,71.7593,-0.205193
46.335,71.7593,-0.147423
46.365,71.7593,-0.147423
46.395,71.7593,-0.147423
46.427,71.7593,-0.147423
46.458,71.7593,-0.147423
46.489,71.7593,-0.147423
46.520,71.7593,-0.147423
46.551,71.7593,-0.147423
46.581,71.7593,-0.147423
46.613,71.7593,-0.147423
46.643,71.7593,-0.129647
46.674,71.7593,-0.129647
46.706,71.7593,-0.129647
46.737,71.7593,-0.129647
46.768,71.7593,-0.129647
46.799,71.7593,-0.129647
46.830,71.7593,-0.129647
46.861,71.7593,-0.121686
46.892,71.7593,-0.121686
46.924,71.7593,-0.121686
46.955,71.7593,-0.121686
46.986,71.7593,-0.121686
47.018,71.7593,-0.121686
47.048,71.7593,-0.121686
47.079,71.7593,-0.121686
47.110,71.7593,-0.116021
47.141,71.7593,-0.116021
47.172,71.7593,-0.116021
47.203,71.7593,-0.116021
47.234,71.7593,-0.116021
47.266,71.7593,-0.116021
47.298,71.7593,-0.116021
47.328,71.7593,-0.116021
47.360,71.7593,-0.111682
47.391,71.7593,-0.111682
47.421,71.7593,-0.111682
47.452,71.7593,-0.111682
47.483,71.7593,-0.111682
47.515,71.7593,-0.111682
47.545,71.7593,-0.111682
47.577,71.7593,-0.111682
47.608,71.7593,-0.108125
47.639,71.7593,-0.108125
47.670,71.7593,-0.108125
47.701,71.7593,-0.108125
47.732,71.7593,-0.108125
47.762,71.7593,-0.108125
47.793,71.7593,-0.108125
47.827,71.7593,-0.108125
47.857,71.7593,-0.105236
47.889,71.7593,-0.105236
47.920,71.7593,-0.105236
47.951,71.7593,-0.105236
47.982,71.7593,-0.105236
48.012,71.7593,-0.105236
48.043,71.7593,-0.105236
48.075,71.7593,-0.105236
48.106,71.7593,-0.102771
48.138,71.7593,-0.102771
48.168,71.7593,-0.102771
48.199,71.7593,-0.102771
48.230,71.7593,-0.102771
48.261,71.7593,-0.102771
48.293,71.7593,-0.102771
48.324,71.7593,-0.100710
48.356,71.7593,-0.100710
48.386,71.7593,-0.100710
48.417,71.7593,-0.100710
48.448,71.7593,-0.100710
48.479,71.7593,-0.100710
48.509,71.7593,-0.100710
48.540,71.7593,-0.100710
48.571,71.7593,-0.100710
48.602,71.7593,-0.098828
48.633,71.7593,-0.098828
48.664,71.7593,-0.098828
48.694,71.7593,-0.098828
48.725,71.7593,-0.098828
48.756,71.7593,-0.098828
48.786,71.7593,-0.098828
48.818,71.7593,-0.097181
48.850,71.7593,-0.097181
48.882,71.7593,-0.097181
48.912,71.7593,-0.097181
48.943,71.7593,-0.097181
48.974,71.7593,-0.097181
49.005,71.7593,-0.097181
49.035,71.7593,-0.097181
49.066,71.7593,-0.097181
49.097,71.7593,-0.097181
49.128,71.7593,-0.095760
49.159,71.7593,-0.095760
49.190,71.7593,-0.095760
49.221,71.7593,-0.095760
49.252,71.7593,-0.095760
49.283,71.7593,-0.095760
49.314,71.7593,-0.095760
49.346,71.7593,-0.094433
49.377,71.7593,-0.094433
49.409,71.7593,-0.094433
49.440,71.7593,-0.094433
49.471,71.7593,-0.094433
49.502,71.7593,-0.094433
49.534,71.7593,-0.094433
49.563,71.7593,-0.094433
49.597,71.7593,-0.094433
49.626,71.7593,-0.093248
49.657,71.7593,-0.093248
49.688,71.7593,-0.093248
49.719,71.7593,-0.093248
49.750,71.7593,-0.093248
49.782,71.7593,-0.093248
49.813,71.7593,-0.093248
49.843,71.7593,-0.092043
49.874,71.7593,-0.092043
49.905,71.7593,-0.092043
49.937,71.7593,-0.092043
49.968,71.7593,-0.092043
49.999,71.7593,-0.092043
50.030,71.7593,-0.092043
50.062,71.7593,-0.092043
50.092,71.7593,-0.092043
50.123,71.7593,-0.090754
50.154,71.7593,-0.090754
50.184,71.7593,-0.090754
50.216,71.7593,-0.090754
50.245,71.7593,-0.090754
50.277,71.7593,-0.090754
50.308,71.7593,-0.090754
50.339,71.7593,-0.089540
50.370,71.7593,-0.089540
50.401,71.7593,-0.089540
50.436,71.7588,-0.089540
50.463,71.7580,-0.089540
50.493,71.7561,-0.089540
50.525,71.7535,-0.089540
50.556,71.7503,-0.089540
50.586,71.7464,-0.080619
50.617,71.7416,-0.080619
50.648,71.7364,-0.080619
50.682,71.7295,-0.080619
50.709,71.7234,-0.080619
50.740,71.7158,-0.080619
50.771,71.7075,-0.080619
50.802,71.6986,-0.080619
50.834,71.6886,-0.080619
50.865,71.6779,-0.045066
50.896,71.6667,-0.045066
50.927,71.6548,-0.045066
50.959,71.6416,-0.045066
50.990,71.6282,-0.045066
51.020,71.6142,-0.045066
51.052,71.5990,-0.045066
51.082,71.5838,-0.018557
51.113,71.5674,-0.018557
51.144,71.5502,-0.018557
51.175,71.5324,-0.018557
51.206,71.5140,-0.018557
51.238,71.4942,-0.018557
51.269,71.4745,-0.018557
51.300,71.4535,-0.018557
51.330,71.4327,-0.018557
51.362,71.4101,-0.009043
51.392,71.3879,-0.009043
51.424,71.3637,-0.009043
51.453,71.3403,-0.009043
51.486,71.3141,-0.009043
51.516,71.2885,-0.009043
51.551,71.2589,-0.009043
51.577,71.2353,0.011716
51.608,71.2083,0.011716
51.639,71.1788,0.011716
51.670,71.1499,0.011716
51.702,71.1190,0.011716
51.732,71.0885,0.011716
51.764,71.0565,0.011716
51.794,71.0249,0.011716
51.824,70.9930,0.011716
51.856,70.9581,0.011716
51.888,70.9233,0.029822
51.918,70.8880,0.029822
51.949,70.8520,0.029822
51.980,70.8149,0.029822
52.012,70.7772,0.029822
52.044,70.7374,0.029822
52.075,70.6987,0.029822
52.106,70.6589,0.041217
52.135,70.6209,0.041217
52.166,70.5802,0.041217
52.197,70.5381,0.041217
52.229,70.4957,0.041217
52.260,70.4509,0.041217
52.291,70.4082,0.041217
52.322,70.3635,0.041217
52.353,70.3179,0.047419
52.383,70.2724,0.047419
52.414,70.2263,0.047419
52.446,70.1777,0.047419
52.476,70.1334,0.047419
52.507,70.0866,0.047419
52.538,70.0398,0.047419
52.569,69.9937,0.047419
52.600,69.9472,0.051851
52.631,69.9007,0.051851
52.662,69.8547,0.051851
52.693,69.8082,0.051851
52.723,69.7618,0.051851
52.760,69.7056,0.051851
52.786,69.6684,0.051851
52.817,69.6219,0.051851
52.848,69.5762,0.054853
52.878,69.5304,0.054853
52.909,69.4846,0.054853
52.939,69.4375,0.054853
52.971,69.3914,0.054853
53.002,69.3434,0.054853
53.033,69.2986,0.054853
53.064,69.2502,0.054853
53.095,69.2041,0.056368
53.126,69.1570,0.056368
53.157,69.1113,0.056368
53.190,69.0627,0.056368
53.219,69.0181,0.056368
53.251,68.9701,0.056368
53.282,68.9240,0.056368
53.312,68.8790,0.056368
53.343,68.8330,0.053216
53.374,68.7866,0.053216
53.405,68.7387,0.053216
53.437,68.6915,0.053216
53.468,68.6449,0.053216
53.499,68.5984,0.053216
53.530,68.5530,0.053216
53.561,68.5048,0.031704
53.592,68.4598,0.031704
53.623,68.4124,0.031704
53.654,68.3663,0.031704
53.685,68.3196,0.031704
53.716,68.2730,0.031704
53.748,68.2249,0.031704
53.778,68.1795,0.031704
53.810,68.1325,0.031704
53.841,68.0876,0.012083
53.872,68.0440,0.012083
53.902,68.0016,0.012083
53.933,67.9578,0.012083
53.966,67.9134,0.012083
53.993,67.8765,0.012083
54.025,67.8344,0.012083
54.056,67.7948,0.012083
54.088,67.7543,0.012083
54.118,67.7161,0.012083
54.149,67.6791,0.009853
54.180,67.6415,0.009853
54.213,67.6022,0.009853
54.242,67.5700,0.009853
54.273,67.5347,0.009853
54.303,67.5010,0.009853
54.336,67.4650,0.009241
54.365,67.4340,0.009241
54.397,67.4003,0.009241
54.427,67.3711,0.009241
54.457,67.3413,0.009241
54.488,67.3111,0.009241
54.521,67.2807,0.009241
54.550,67.2538,0.009241
54.582,67.2250,0.009241
54.613,67.1976,0.008959
54.644,67.1711,0.008959
54.675,67.1457,0.008959
54.707,67.1204,0.008959
54.738,67.0967,0.008959
54.770,67.0726,0.008959
54.799,67.0513,0.008959
54.830,67.0286,0.008959
54.862,67.0074,0.008733
54.893,66.9867,0.008733
54.924,66.9673,0.008733
54.955,66.9486,0.008733
54.986,66.9297,0.008733
55.017,66.9126,0.008733
55.047,66.8960,0.008733
55.078,66.8801,0.008733
55.109,66.8649,0.008733
55.141,66.8496,0.008601
55.171,66.8360,0.008601
55.203,66.8226,0.008601
55.234,66.8097,0.008601
55.265,66.7983,0.008601
55.295,66.7875,0.008601
55.326,66.7772,0.008601
55.358,66.7675,0.008516
55.389,66.7585,0.008516
55.420,66.7505,0.008516
55.451,66.7431,0.008516
55.482,66.7364,0.008516
55.514,66.7304,0.008516
55.545,66.7251,0.008516
55.575,66.7209,0.008516
55.606,66.7172,0.008366
55.637,66.7141,0.008366
55.668,66.7118,0.008366
55.699,66.7103,0.008366
55.729,66.7095,0.008366
55.760,66.7094,0.008366
55.792,66.7094,0.008366
55.822,66.7094,0.008366
55.853,66.7094,0.008281
55.884,66.7099,0.008281
55.916,66.7110,0.008281
55.946,66.7128,0.008281
55.978,66.7156,0.008281
56.008,66.7189,0.008281
56.039,66.7229,0.008281
56.069,66.7276,0.008281
56.100,66.7330,0.008121
56.131,66.7392,0.008121
56.163,66.7463,0.008121
56.194,66.7543,0.008121
56.225,66.7627,0.008121
56.256,66.7717,0.008121
56.287,66.7814,0.008121
56.318,66.7923,0.008121
56.348,66.8034,0.007980
56.378,66.8150,0.007980
56.409,66.8277,0.007980
56.441,66.8416,0.007980
56.470,66.8553,0.007980
56.501,66.8700,0.007980
56.532,66.8853,0.007980
56.563,66.9023,0.007980
56.594,66.9191,0.007867
56.626,66.9378,0.007867
56.656,66.9553,0.007867
56.687,66.9753,0.007867
56.719,66.9950,0.007867
56.751,67.0167,0.007867
56.781,67.0371,0.007867
56.812,67.0597,0.007867
56.842,67.0818,0.007688
56.873,67.1061,0.007688
56.904,67.1295,0.007688
56.935,67.1556,0.007688
56.965,67.1799,0.007688
56.996,67.2069,0.007688
57.026,67.2329,0.007688
57.056,67.2606,0.007688
57.087,67.2888,0.007462
57.119,67.3188,0.007462
57.149,67.3491,0.007462
57.179,67.3780,0.007462
57.210,67.4103,0.007462
57.243,67.4437,0.007462
57.273,67.4763,0.007462
57.304,67.5102,0.007462
57.335,67.5444,0.007462
57.366,67.5796,0.007114
57.397,67.6147,0.007114
57.428,67.6514,0.007114
57.459,67.6888,0.007114
57.490,67.7268,0.007114
57.521,67.7660,0.007114
57.553,67.8068,0.007114
57.583,67.8468,0.006672
57.615,67.8883,0.006672
57.645,67.9289,0.006672
57.678,67.9748,0.006672
57.708,68.0154,0.006672
57.740,68.0616,0.006672
57.771,68.1072,0.006672
57.802,68.1516,0.006672
57.831,68.1955,0.006154
57.862,68.2415,0.006154
57.889,68.2830,0.006154
57.924,68.3337,0.006154
57.956,68.3819,0.006154
57.985,68.4267,0.006154
58.016,68.4720,0.006154
58.046,68.5169,0.006154
58.078,68.5659,0.005552
58.112,68.6162,0.005552
58.139,68.6566,0.005552
58.170,68.7033,0.005552
58.200,68.7483,0.005552
58.231,68.7959,0.005552
58.262,68.8418,0.005552
58.294,68.8894,0.005552
58.324,68.9340,0.005552
58.355,68.9799,0.004799
58.386,69.0269,0.004799
58.417,69.0745,0.004799
58.448,69.1209,0.004799
58.480,69.1676,0.004799
58.511,69.2149,0.004799
58.543,69.2629,0.004799
58.572,69.3065,0.003821
58.603,69.3527,0.003821
58.634,69.4008,0.003821
58.666,69.4467,0.003821
58.698,69.4963,0.003821
58.728,69.5414,0.003821
58.759,69.5868,0.003821
58.790,69.6342,0.003821
58.824,69.6849,0.003821
58.852,69.7265,0.003821
58.884,69.7740,0.002409
58.915,69.8207,0.002409
58.946,69.8677,0.002409
58.977,69.9145,0.002409
59.008,69.9609,0.002409
59.040,70.0074,0.002409
59.070,70.0530,0.002409
59.101,70.0997,-0.000141
59.134,70.1491,-0.000141
59.163,70.1934,-0.000141
59.196,70.2418,-0.000141
59.225,70.2853,-0.000141
59.256,70.3312,-0.000141
59.287,70.3746,-0.000141
59.318,70.4186,-0.000141
59.349,70.4626,-0.005072
59.380,70.5032,-0.005072
59.411,70.5463,-0.005072
59.447,70.5935,-0.005072
59.472,70.6259,-0.005072
59.503,70.6645,-0.005072
59.535,70.7040,-0.005072
59.566,70.7416,-0.005072
59.595,70.7766,-0.014473
59.625,70.8125,-0.014473
59.656,70.8483,-0.014473
59.687,70.8835,-0.014473
59.718,70.9166,-0.014473
59.749,70.9511,-0.014473
59.780,70.9833,-0.014473
59.811,71.0159,-0.014473
59.842,71.0463,-0.030668
59.873,71.0775,-0.030668
59.903,71.1070,-0.030668
59.934,71.1365,-0.030668
59.966,71.1651,-0.030668
59.998,71.1943,-0.030668
60.028,71.2205,-0.030668
60.056,71.2440,-0.030668
60.089,71.2716,-0.054119
60.121,71.2969,-0.054119
60.153,71.3219,-0.054119
60.184,71.3451,-0.054119
60.214,71.3674,-0.054119
60.245,71.3894,-0.054119
60.277,71.4107,-0.054119
60.308,71.4320,-0.054119
60.339,71.4516,-0.082482
60.371,71.4712,-0.082482
60.402,71.4890,-0.082482
60.432,71.5066,-0.082482
60.463,71.5227,-0.082482
60.495,71.5396,-0.082482
60.526,71.5551,-0.082482
60.557,71.5697,-0.082482
60.587,71.5831,-0.116068
60.616,71.5955,-0.116068
60.647,71.6079,-0.116068
60.678,71.6196,-0.116068
60.709,71.6310,-0.116068
60.740,71.6410,-0.116068
60.771,71.6507,-0.116068
60.802,71.6596,-0.116068
60.833,71.6677,-0.116068
60.864,71.6751,-0.169039
60.895,71.6817,-0.169039
60.925,71.6877,-0.169039
60.956,71.6930,-0.169039
60.987,71.6975,-0.169039
61.019,71.7013,-0.169039
61.050,71.7043,-0.169039
61.081,71.7068,-0.169039
61.111,71.7082,-0.225840
61.142,71.7091,-0.225840
61.176,71.7094,-0.225840
61.209,71.7094,-0.225840
61.236,71.7094,-0.225840
61.267,71.7094,-0.225840
61.298,71.7094,-0.225840
61.329,71.7094,-0.207367
61.363,71.7094,-0.207367
61.391,71.7094,-0.207367
61.423,71.7094,-0.207367
61.454,71.7094,-0.207367
61.485,71.7094,-0.207367
61.516,71.7094,-0.207367
61.546,71.7094,-0.207367
61.577,71.7094,-0.151056
61.612,71.7094,-0.151056
61.637,71.7094,-0.151056
61.670,71.7094,-0.151056
61.702,71.7094,-0.151056
61.733,71.7094,-0.151056
61.769,71.7094,-0.151056
61.794,71.7094,-0.151056
61.825,71.7094,-0.151056
61.856,71.7094,-0.130353
61.890,71.7094,-0.130353
61.917,71.7094,-0.130353
61.952,71.7094,-0.130353
61.978,71.7094,-0.130353
62.011,71.7094,-0.130353
62.040,71.7094,-0.130353
62.073,71.7094,-0.130353
62.101,71.7094,-0.121686
62.134,71.7094,-0.121686
62.163,71.7094,-0.121686
62.197,71.7094,-0.121686
62.225,71.7094,-0.121686
62.257,71.7094,-0.121686
62.287,71.7094,-0.121686
62.318,71.7094,-0.121686
62.349,71.7094,-0.116124
62.379,71.7094,-0.116124
62.410,71.7094,-0.116124
62.441,71.7094,-0.116124
62.472,71.7094,-0.116124
62.503,71.7094,-0.116124
62.535,71.7094,-0.116124
62.565,71.7094,-0.116124
62.596,71.7094,-0.111532
62.627,71.7094,-0.111532
62.659,71.7094,-0.111532
62.691,71.7094,-0.111532
62.722,71.7094,-0.111532
62.752,71.7094,-0.111532
62.783,71.7094,-0.111532
62.814,71.7094,-0.111532
62.844,71.7094,-0.107824
62.875,71.7094,-0.107824
62.906,71.7094,-0.107824
62.937,71.7094,-0.107824
62.967,71.7094,-0.107824
62.999,71.7094,-0.107824
63.031,71.7094,-0.107824
63.062,71.7094,-0.107824
63.094,71.7094,-0.104992
63.124,71.7094,-0.104992
63.156,71.7094,-0.104992
63.187,71.7094,-0.104992
63.218,71.7094,-0.104992
63.248,71.7094,-0.104992
63.280,71.7094,-0.104992
63.312,71.7094,-0.104992
63.341,71.7094,-0.104992
63.372,71.7094,-0.102592
63.403,71.7094,-0.102592
63.434,71.7094,-0.102592
63.465,71.7094,-0.102592
63.496,71.7094,-0.102592
63.528,71.7094,-0.102592
63.560,71.7094,-0.102592
63.592,71.7094,-0.102592
63.622,71.7094,-0.100484
63.653,71.7094,-0.100484
63.683,71.7094,-0.100484
63.713,71.7094,-0.100484
63.745,71.7094,-0.100484
63.775,71.7094,-0.100484
63.806,71.7094,-0.100484
63.837,71.7094,-0.098499
63.868,71.7094,-0.098499
63.899,71.7094,-0.098499
63.929,71.7094,-0.098499
63.961,71.7094,-0.098499
63.992,71.7094,-0.098499
64.023,71.7094,-0.098499
64.054,71.7094,-0.098499
64.084,71.7094,-0.098499
64.115,71.7094,-0.097021
64.146,71.7094,-0.097021
64.177,71.7094,-0.097021
64.209,71.7094,-0.097021
64.240,71.7094,-0.097021
64.271,71.7094,-0.097021
64.301,71.7094,-0.097021
64.334,71.7094,-0.095337
64.365,71.7094,-0.095337
64.395,71.7094,-0.095337
64.427,71.7094,-0.095337
64.458,71.7094,-0.095337
64.489,71.7094,-0.095337
64.519,71.7094,-0.095337
64.551,71.7094,-0.095337
64.582,71.7094,-0.095337
64.613,71.7094,-0.093746
64.644,71.7094,-0.093746
64.675,71.7094,-0.093746
64.706,71.7094,-0.093746
64.736,71.7094,-0.093746
64.768,71.7094,-0.093746
64.799,71.7094,-0.093746
64.828,71.7094,-0.093746
64.861,71.7094,-0.093313
64.892,71.7094,-0.093313
64.924,71.7094,-0.093313
64.955,71.7094,-0.093313
64.986,71.7094,-0.093313
65.018,71.7094,-0.093313
65.049,71.7094,-0.093313
65.080,71.7094,-0.092325
65.112,71.7094,-0.092325
65.143,71.7094,-0.092325
65.174,71.7094,-0.092325
65.206,71.7094,-0.092325
65.237,71.7094,-0.092325
65.267,71.7094,-0.092325
65.297,71.7094,-0.092325
65.332,71.7094,-0.092325
65.360,71.7094,-0.092325
65.390,71.7094,-0.090443
65.421,71.7094,-0.090443
65.451,71.7094,-0.090443
65.482,71.7094,-0.090443
65.513,71.7094,-0.090443
65.544,71.7094,-0.090443
65.575,71.7094,-0.090443
65.607,71.7094,-0.089088
65.637,71.7094,-0.089088
65.668,71.7094,-0.089088
65.699,71.7091,-0.089088
65.731,71.7082,-0.089088
65.763,71.7065,-0.089088
65.792,71.7043,-0.089088
65.823,71.7012,-0.089088
65.854,71.6975,-0.084703
65.885,71.6929,-0.084703
65.916,71.6875,-0.084703
65.945,71.6822,-0.084703
65.978,71.6749,-0.084703
66.012,71.6666,-0.084703
66.042,71.6585,-0.084703
66.072,71.6502,-0.084703
66.102,71.6408,-0.045367
66.136,71.6292,-0.045367
66.164,71.6194,-0.045367
66.195,71.6073,-0.045367
66.226,71.5953,-0.045367
66.259,71.5805,-0.045367
66.287,71.5681,-0.045367
66.318,71.5533,-0.045367
66.350,71.5377,-0.045367
66.380,71.5217,-0.015217
66.412,71.5050,-0.015217
66.443,71.4864,-0.015217
66.479,71.4653,-0.015217
66.520,71.4396,-0.015217
66.551,71.4198,-0.015217
66.582,71.3983,-0.010737
66.612,71.3780,-0.010737
66.643,71.3556,-0.010737
66.674,71.3328,-0.010737
66.705,71.3093,-0.010737
66.741,71.2801,-0.010737
66.781,71.2472,-0.010737
66.812,71.2203,0.009862
66.843,71.1933,0.009862
66.875,71.1653,0.009862
66.908,71.1345,0.009862
66.937,71.1081,0.009862
66.967,71.0785,0.009862
66.998,71.0481,0.009862
67.028,71.0181,0.009862
67.058,70.9867,0.009862
67.090,70.9534,0.009862
67.121,70.9193,0.028438
67.157,70.8795,0.028438
67.197,70.8334,0.028438
67.228,70.7980,0.028438
67.259,70.7618,0.028438
67.289,70.7251,0.028438
67.320,70.6874,0.028438
67.351,70.6470,0.040465
67.383,70.6079,0.040465
67.413,70.5681,0.040465
67.444,70.5270,0.040465
67.476,70.4845,0.040465
67.507,70.4412,0.040465
67.538,70.3981,0.040465
67.569,70.3542,0.040465
67.600,70.3089,0.047052
67.631,70.2636,0.047052
67.662,70.2169,0.047052
67.693,70.1711,0.047052
67.724,70.1235,0.047052
67.756,70.0754,0.047052
67.786,70.0306,0.047052
67.817,69.9852,0.047052
67.848,69.9373,0.047052
67.879,69.8920,0.051625
67.910,69.8443,0.051625
67.941,69.7993,0.051625
67.972,69.7521,0.051625
68.002,69.7069,0.051625
68.033,69.6596,0.051625
68.064,69.6145,0.051625
68.096,69.5665,0.054834
68.127,69.5206,0.054834
68.158,69.4720,0.054834
68.190,69.4256,0.054834
68.220,69.3791,0.054834
68.251,69.3331,0.054834
68.282,69.2878,0.054834
68.313,69.2413,0.054834
68.344,69.1940,0.056660
68.375,69.1467,0.056660
68.405,69.1029,0.056660
68.436,69.0567,0.056660
68.467,69.0099,0.056660
68.497,68.9637,0.056660
68.529,68.9176,0.056660
68.559,68.8716,0.056660
68.590,68.8256,0.056660
68.620,68.7804,0.054599
68.652,68.7314,0.054599
68.686,68.6808,0.054599
68.714,68.6398,0.054599
68.745,68.5924,0.054599
68.775,68.5474,0.054599
68.807,68.4994,0.054599
68.838,68.4528,0.033793
68.869,68.4071,0.033793
68.900,68.3596,0.033793
68.931,68.3146,0.033793
68.961,68.2687,0.033793
68.992,68.2226,0.033793
69.022,68.1759,0.033793
69.053,68.1304,0.033793
69.084,68.0842,0.013175
69.115,68.0394,0.013175
69.147,67.9936,0.013175
69.174,67.9555,0.013175
69.208,67.9084,0.013175
69.240,67.8639,0.013175
69.271,67.8238,0.013175
69.301,67.7840,0.013175
69.332,67.7428,0.013175
69.363,67.7045,0.010003
69.394,67.6655,0.010003
69.424,67.6287,0.010003
69.456,67.5903,0.010003
69.487,67.5546,0.010003
69.517,67.5185,0.010003
69.549,67.4840,0.010003
69.580,67.4489,0.009250
69.611,67.4159,0.009250
69.642,67.3826,0.009250
69.673,67.3513,0.009250
69.703,67.3207,0.009250
69.733,67.2910,0.009250
69.764,67.2605,0.009250
69.796,67.2306,0.009250
69.828,67.2016,0.008987
69.859,67.1739,0.008987
69.890,67.1463,0.008987
69.922,67.1193,0.008987
69.953,67.0938,0.008987
69.985,67.0685,0.008987
70.016,67.0447,0.008987
70.046,67.0223,0.008987
70.077,66.9993,0.008780
70.108,66.9775,0.008780
70.139,66.9557,0.008780
70.170,66.9358,0.008780
70.202,66.9155,0.008780
70.232,66.8969,0.008780
70.263,66.8783,0.008780
70.294,66.8610,0.008780
70.325,66.8442,0.008780
70.356,66.8288,0.008611
70.387,66.8129,0.008611
70.419,66.7984,0.008611
70.450,66.7843,0.008611
70.480,66.7712,0.008611
70.511,66.7591,0.008611
70.542,66.7478,0.008611
70.573,66.7365,0.008611
70.604,66.7263,0.008516
70.635,66.7168,0.008516
70.666,66.7080,0.008516
70.697,66.7001,0.008516
70.728,66.6925,0.008516
70.759,66.6862,0.008516
70.790,66.6801,0.008516
70.822,66.6750,0.008516
70.852,66.6705,0.008451
70.884,66.6669,0.008451
70.914,66.6641,0.008451
70.945,66.6617,0.008451
70.976,66.6602,0.008451
71.007,66.6595,0.008451
71.039,66.6594,0.008451
71.071,66.6594,0.008451
71.100,66.6594,0.008356
71.131,66.6594,0.008356
71.162,66.6594,0.008356
71.193,66.6599,0.008356
71.224,66.6610,0.008356
71.258,66.6631,0.008356
71.286,66.6656,0.008356
71.318,66.6690,0.008356
71.348,66.6730,0.008272
71.379,66.6780,0.008272
71.411,66.6834,0.008272
71.443,66.6900,0.008272
71.472,66.6967,0.008272
71.503,66.7045,0.008272
71.534,66.7130,0.008272
71.568,66.7230,0.008272
71.596,66.7319,0.008121
71.627,66.7426,0.008121
71.658,66.7539,0.008121
71.689,66.7660,0.008121
71.719,66.7787,0.008121
71.750,66.7918,0.008121
71.781,66.8066,0.008121
71.811,66.8207,0.008121
71.842,66.8366,0.007942
71.872,66.8527,0.007942
71.903,66.8693,0.007942
71.934,66.8873,0.007942
71.966,66.9061,0.007942
72.000,66.9278,0.007942
72.027,66.9449,0.007942
72.058,66.9655,0.007942
72.090,66.9882,0.007811
72.119,67.0091,0.007811
72.151,67.0327,0.007811
72.182,67.0564,0.007811
72.212,67.0799,0.007811
72.244,67.1056,0.007811
72.277,67.1338,0.007811
72.307,67.1587,0.007811
72.338,67.1861,0.007566
72.368,67.2129,0.007566
72.399,67.2428,0.007566
72.430,67.2713,0.007566
72.462,67.3028,0.007566
72.492,67.3324,0.007566
72.525,67.3667,0.007566
72.554,67.3964,0.007566
72.586,67.4306,0.007566
72.616,67.4638,0.007208
72.647,67.4999,0.007208
72.679,67.5339,0.007208
72.711,67.5716,0.007208
72.740,67.6070,0.007208
72.771,67.6436,0.007208
72.801,67.6808,0.007208
72.833,67.7205,0.007208
72.864,67.7609,0.006841
72.894,67.8001,0.006841
72.926,67.8417,0.006841
72.958,67.8851,0.006841
72.989,67.9274,0.006841
73.020,67.9719,0.006841
73.052,68.0163,0.006841
73.083,68.0621,0.006841
73.113,68.1056,0.006305
73.144,68.1522,0.006305
73.174,68.1970,0.006305
73.205,68.2451,0.006305
73.236,68.2897,0.006305
73.267,68.3380,0.006305
73.298,68.3827,0.006305
73.328,68.4281,0.006305
73.360,68.4753,0.005750
73.390,68.5211,0.005750
73.421,68.5681,0.005750
73.452,68.6142,0.005750
73.482,68.6589,0.005750
73.513,68.7061,0.005750
73.544,68.7514,0.005750
73.577,68.8006,0.005750
73.606,68.8455,0.005119
73.638,68.8927,0.005119
73.669,68.9393,0.005119
73.703,68.9908,0.005119
73.731,69.0314,0.005119
73.763,69.0803,0.005119
73.793,69.1251,0.005119
73.824,69.1727,0.005119
73.855,69.2182,0.004178
73.886,69.2641,0.004178
73.917,69.3102,0.004178
73.947,69.3573,0.004178
73.978,69.4043,0.004178
74.010,69.4504,0.004178
74.040,69.4978,0.004178
74.071,69.5432,0.004178
74.103,69.5908,0.002823
74.134,69.6373,0.002823
74.166,69.6854,0.002823
74.196,69.7296,0.002823
74.227,69.7768,0.002823
74.258,69.8228,0.002823
74.289,69.8707,0.002823
74.320,69.9157,0.000593
74.350,69.9610,0.000593
74.382,70.0084,0.000593
74.412,70.0539,0.000593
74.444,70.1015,0.000593
74.475,70.1484,0.000593
74.506,70.1958,0.000593
74.537,70.2398,0.000593
74.568,70.2852,0.000593
74.598,70.3287,-0.003642
74.629,70.3726,-0.003642
74.661,70.4169,-0.003642
74.691,70.4581,-0.003642
74.722,70.4988,-0.003642
74.752,70.5373,-0.003642
74.782,70.5774,-0.003642
74.813,70.6162,-0.003642
74.844,70.6555,-0.011819
74.876,70.6935,-0.011819
74.907,70.7303,-0.011819
74.938,70.7681,-0.011819
74.970,70.8039,-0.011819
75.001,70.8398,-0.011819
75.033,70.8742,-0.011819
75.064,70.9085,-0.011819
75.095,70.9413,-0.026208
75.126,70.9727,-0.026208
75.158,71.0044,-0.026208
75.189,71.0349,-0.026208
75.219,71.0642,-0.026208
75.250,71.0930,-0.026208
75.280,71.1209,-0.026208
75.311,71.1490,-0.026208
75.344,71.1763,-0.026208
75.374,71.2015,-0.048040
75.406,71.2279,-0.048040
75.436,71.2523,-0.048040
75.467,71.2770,-0.048040
75.498,71.2997,-0.048040
75.529,71.3218,-0.048040
75.560,71.3435,-0.048040
75.591,71.3648,-0.048040
75.622,71.3848,-0.048040
75.653,71.4050,-0.075537
75.683,71.4232,-0.075537
75.714,71.4417,-0.075537
75.745,71.4587,-0.075537
75.777,71.4758,-0.075537
75.808,71.4916,-0.075537
75.841,71.5079,-0.075537
75.870,71.5218,-0.107053
75.901,71.5356,-0.107053
75.931,71.5484,-0.107053
75.962,71.5607,-0.107053
75.993,71.5719,-0.107053
76.026,71.5838,-0.107053
76.056,71.5933,-0.107053
76.087,71.6028,-0.107053
76.117,71.6111,-0.155413
76.148,71.6193,-0.155413
76.179,71.6265,-0.155413
76.210,71.6331,-0.155413
76.240,71.6388,-0.155413
76.273,71.6442,-0.155413
76.303,71.6485,-0.155413
76.334,71.6521,-0.155413
76.364,71.6549,-0.215968
76.396,71.6571,-0.215968
76.426,71.6585,-0.215968
76.459,71.6593,-0.215968
76.489,71.6594,-0.215968
76.521,71.6594,-0.215968
76.550,71.6594,-0.215968
76.581,71.6594,-0.215968
76.613,71.6594,-0.218246
76.643,71.6594,-0.218246
76.674,71.6594,-0.218246
76.705,71.6594,-0.218246
76.736,71.6594,-0.218246
76.767,71.6594,-0.218246
76.799,71.6594,-0.218246
76.830,71.6594,-0.218246
76.861,71.6594,-0.164117
76.892,71.6594,-0.164117
76.923,71.6594,-0.164117
76.955,71.6594,-0.164117
76.984,71.6594,-0.164117
77.017,71.6594,-0.164117
77.047,71.6594,-0.164117
77.077,71.6594,-0.164117
77.108,71.6594,-0.131915
77.139,71.6594,-0.131915
77.170,71.6594,-0.131915
77.200,71.6594,-0.131915
77.232,71.6594,-0.131915
77.264,71.6594,-0.131915
77.294,71.6594,-0.131915
77.326,71.6594,-0.123342
77.357,71.6594,-0.123342
77.387,71.6594,-0.123342
77.418,71.6594,-0.123342
77.451,71.6594,-0.123342
77.481,71.6594,-0.123342
77.511,71.6594,-0.123342
77.542,71.6594,-0.123342
77.573,71.6594,-0.116802
77.603,71.6594,-0.116802
77.634,71.6594,-0.116802
77.665,71.6594,-0.116802
77.696,71.6594,-0.116802
77.727,71.6594,-0.116802
77.758,71.6594,-0.116802
77.790,71.6594,-0.116802
77.820,71.6594,-0.116802
77.851,71.6594,-0.112294
77.882,71.6594,-0.112294
77.914,71.6594,-0.112294
77.944,71.6594,-0.112294
77.975,71.6594,-0.112294
78.007,71.6594,-0.112294
78.037,71.6594,-0.112294
78.068,71.6594,-0.112294
78.102,71.6594,-0.108568
78.130,71.6594,-0.108568
78.163,71.6594,-0.108568
78.193,71.6594,-0.108568
78.224,71.6594,-0.108568
78.255,71.6594,-0.108568
78.287,71.6594,-0.108568
78.318,71.6594,-0.108568
78.349,71.6594,-0.108568
78.379,71.6594,-0.108568
78.410,71.6594,-0.105472
78.441,71.6594,-0.105472
78.472,71.6594,-0.105472
78.503,71.6594,-0.105472
78.533,71.6594,-0.105472
78.564,71.6594,-0.105472
78.595,71.6594,-0.103025
78.627,71.6594,-0.103025
78.658,71.6594,-0.103025
78.689,71.6594,-0.103025
78.720,71.6594,-0.103025
78.751,71.6594,-0.103025
78.782,71.6594,-0.103025
78.813,71.6594,-0.103025
78.846,71.6594,-0.100738
78.875,71.6594,-0.100738
78.906,71.6594,-0.100738
78.937,71.6594,-0.100738
78.968,71.6594,-0.100738
78.999,71.6594,-0.100738
79.030,71.6594,-0.100738
79.062,71.6594,-0.100738
79.092,71.6594,-0.098866
79.123,71.6594,-0.098866
79.154,71.6594,-0.098866
79.185,71.6594,-0.098866
79.216,71.6594,-0.098866
79.246,71.6594,-0.098866
79.276,71.6594,-0.098866
79.307,71.6594,-0.098866
79.340,71.6594,-0.097219
79.368,71.6594,-0.097219
79.403,71.6594,-0.097219
79.430,71.6594,-0.097219
79.461,71.6594,-0.097219
79.492,71.6594,-0.097219
79.523,71.6594,-0.097219
79.553,71.6594,-0.097219
79.584,71.6594,-0.095685
79.615,71.6594,-0.095685
79.646,71.6594,-0.095685
79.678,71.6594,-0.095685
79.709,71.6594,-0.095685
79.740,71.6594,-0.095685
79.772,71.6594,-0.095685
79.803,71.6594,-0.095685
79.834,71.6594,-0.094443
79.864,71.6594,-0.094443
79.896,71.6594,-0.094443
79.925,71.6594,-0.094443
79.957,71.6594,-0.094443
79.987,71.6594,-0.094443
80.017,71.6594,-0.094443
80.049,71.6594,-0.094443
80.081,71.6594,-0.094443
80.113,71.6594,-0.094443
80.143,71.6594,-0.093200
80.175,71.6594,-0.093200
80.208,71.6594,-0.093200
80.236,71.6594,-0.093200
80.267,71.6594,-0.093200
80.298,71.6594,-0.093200
80.329,71.6594,-0.093200
80.360,71.6594,-0.091883
80.391,71.6594,-0.091883
80.422,71.6594,-0.091883
80.454,71.6594,-0.091883
80.484,71.6594,-0.091883
80.518,71.6594,-0.091883
80.545,71.6594,-0.091883
80.576,71.6594,-0.091883
80.607,71.6594,-0.090791
80.641,71.6594,-0.090791
80.669,71.6594,-0.090791
80.701,71.6594,-0.090791
80.731,71.6594,-0.090791
80.764,71.6594,-0.090791
80.793,71.6594,-0.090791
80.823,71.6594,-0.090791
80.854,71.6594,-0.089888
80.885,71.6594,-0.089888
80.915,71.6594,-0.089888
80.946,71.6594,-0.089888
80.977,71.6590,-0.089888
81.008,71.6578,-0.089888
81.040,71.6559,-0.089888
81.071,71.6532,-0.089888
81.103,71.6497,-0.089888
81.134,71.6457,-0.086707
81.165,71.6409,-0.086707
81.195,71.6353,-0.086707
81.227,71.6291,-0.086707
81.258,71.6220,-0.086707
81.290,71.6141,-0.086707
81.321,71.6057,-0.086707
81.352,71.5962,-0.044041
81.383,71.5866,-0.044041
81.414,71.5755,-0.044041
81.445,71.5641,-0.044041
81.476,71.5520,-0.044041
81.506,71.5396,-0.044041
81.539,71.5254,-0.044041
81.569,71.5114,-0.044041
81.600,71.4963,-0.012968
81.631,71.4809,-0.012968
81.663,71.4635,-0.012968
81.690,71.4487,-0.012968
81.724,71.4289,-0.012968
81.755,71.4098,-0.012968
81.786,71.3910,-0.012968
81.817,71.3710,-0.012968
81.848,71.3504,-0.012017
81.878,71.3291,-0.012017
81.908,71.3068,-0.012017
81.939,71.2843,-0.012017
81.970,71.2603,-0.012017
82.001,71.2360,-0.012017
82.033,71.2100,-0.012017
82.064,71.1845,-0.012017
82.096,71.1568,0.008300
82.126,71.1303,0.008300
82.156,71.1025,0.008300
82.187,71.0749,0.008300
82.218,71.0443,0.008300
82.248,71.0157,0.008300
82.279,70.9846,0.008300
82.310,70.9521,0.008300
82.342,70.9197,0.026942
82.373,70.8863,0.026942
82.403,70.8522,0.026942
82.435,70.8184,0.026942
82.464,70.7843,0.026942
82.496,70.7479,0.026942
82.526,70.7107,0.026942
82.557,70.6740,0.026942
82.588,70.6347,0.039241
82.620,70.5956,0.039241
82.652,70.5552,0.039241
82.684,70.5134,0.039241
82.714,70.4731,0.039241
82.745,70.4309,0.039241
82.771,70.3945,0.039241
82.808,70.3445,0.039241
82.838,70.3001,0.045942
82.869,70.2563,0.045942
82.901,70.2094,0.045942
82.931,70.1640,0.045942
82.962,70.1186,0.045942
82.993,70.0715,0.045942
83.024,70.0247,0.045942
83.056,69.9770,0.045942
83.087,69.9310,0.050628
83.118,69.8850,0.050628
83.149,69.8382,0.050628
83.179,69.7916,0.050628
83.210,69.7463,0.050628
83.241,69.7004,0.050628
83.272,69.6537,0.050628
83.303,69.6054,0.050628
83.334,69.5600,0.054110
83.365,69.5127,0.054110
83.397,69.4661,0.054110
83.429,69.4178,0.054110
83.460,69.3705,0.054110
83.491,69.3245,0.054110
83.522,69.2775,0.054110
83.553,69.2316,0.054110
83.585,69.1842,0.056001
83.617,69.1349,0.056001
83.648,69.0901,0.056001
83.679,69.0436,0.056001
83.710,68.9963,0.056001
83.741,68.9492,0.056001
83.772,68.9030,0.056001
83.803,68.8555,0.056001
83.834,68.8106,0.056001
83.864,68.7637,0.054270
83.896,68.7179,0.054270
83.927,68.6699,0.054270
83.958,68.6249,0.054270
83.989,68.5775,0.054270
84.020,68.5316,0.054270
84.051,68.4846,0.054270
84.082,68.4386,0.033971
84.112,68.3921,0.033971
84.143,68.3451,0.033971
84.180,68.2903,0.033971
84.222,68.2283,0.033971
84.252,68.1840,0.033971
84.282,68.1379,0.033971
84.313,68.0926,0.033971
84.344,68.0457,0.013203
84.374,68.0014,0.013203
84.406,67.9563,0.013203
84.437,67.9119,0.013203
84.467,67.8691,0.013203
84.498,67.8282,0.013203
84.529,67.7856,0.013203
84.559,67.7450,0.013203
84.593,67.7019,0.013203
84.621,67.6652,0.013203
84.652,67.6268,0.010003
84.683,67.5891,0.010003
84.717,67.5482,0.010003
84.746,67.5133,0.010003
84.777,67.4776,0.010003
84.808,67.4434,0.010003
84.838,67.4091,0.010003
84.870,67.3746,0.009373
84.901,67.3416,0.009373
84.931,67.3109,0.009373
84.962,67.2796,0.009373
84.992,67.2486,0.009373
85.026,67.2156,0.009373
85.053,67.1894,0.009373
85.084,67.1618,0.009373
85.115,67.1339,0.009006
85.146,67.1070,0.009006
85.176,67.0804,0.009006
85.207,67.0545,0.009006
85.239,67.0295,0.009006
85.271,67.0038,0.009006
85.302,66.9802,0.009006
85.333,66.9576,0.009006
85.363,66.9363,0.008808
85.394,66.9145,0.008808
85.425,66.8939,0.008808
85.455,66.8742,0.008808
85.493,66.8511,0.008808
85.534,66.8271,0.008808
85.564,66.8099,0.008808
85.596,66.7923,0.008808
85.628,66.7766,0.008658
85.658,66.7616,0.008658
85.689,66.7468,0.008658
85.720,66.7330,0.008658
85.752,66.7199,0.008658
85.782,66.7079,0.008658
85.813,66.6965,0.008658
85.844,66.6854,0.008658
85.875,66.6754,0.008573
85.905,66.6658,0.008573
85.936,66.6571,0.008573
85.968,66.6491,0.008573
85.998,66.6419,0.008573
86.025,66.6363,0.008573
86.061,66.6295,0.008573
86.091,66.6246,0.008460
86.123,66.6203,0.008460
86.155,66.6166,0.008460
86.185,66.6137,0.008460
86.215,66.6116,0.008460
86.246,66.6101,0.008460
86.277,66.6095,0.008460
86.309,66.6094,0.008460
86.340,66.6094,0.008460
86.371,66.6094,0.008460
86.402,66.6094,0.008356
86.432,66.6094,0.008356
86.464,66.6094,0.008356
86.494,66.6094,0.008356
86.526,66.6094,0.008356
86.556,66.6094,0.008356
86.587,66.6094,0.008356
86.618,66.6094,0.008291
86.649,66.6094,0.008291
86.680,66.6094,0.008291
86.712,66.6094,0.008291
86.743,66.6094,0.008291
86.775,66.6094,0.008291
86.805,66.6094,0.008291
86.838,66.6094,0.008291
86.867,66.6094,0.008338
86.898,66.6095,0.008338
86.929,66.6104,0.008338
86.959,66.6119,0.008338
86.991,66.6144,0.008338
87.021,66.6172,0.008338
87.053,66.6210,0.008338
87.084,66.6256,0.008338
87.115,66.6306,0.008338
87.145,66.6367,0.008272
87.176,66.6432,0.008272
87.207,66.6504,0.008272
87.238,66.6584,0.008272
87.269,66.6677,0.008272
87.301,66.6772,0.008272
87.332,66.6875,0.008272
87.363,66.6986,0.008140
87.394,66.7105,0.008140
87.425,66.7230,0.008140
87.456,66.7363,0.008140
87.487,66.7498,0.008140
87.518,66.7648,0.008140
87.548,66.7798,0.008140
87.580,66.7965,0.008140
87.611,66.8134,0.007886
87.642,66.8306,0.007886
87.673,66.8494,0.007886
87.704,66.8680,0.007886
87.735,66.8881,0.007886
87.766,66.9080,0.007886
87.801,66.9325,0.007886
87.827,66.9512,0.007886
87.859,66.9745,0.007660
87.890,66.9973,0.007660
87.924,67.0249,0.007660
87.952,67.0468,0.007660
87.984,67.0727,0.007660
88.015,67.0988,0.007660
88.045,67.1252,0.007660
88.076,67.1536,0.007481
88.107,67.1823,0.007481
88.138,67.2115,0.007481
88.170,67.2417,0.007481
88.201,67.2727,0.007481
88.233,67.3049,0.007481
88.263,67.3355,0.007481
88.294,67.3687,0.007481
88.324,67.4017,0.007481
88.355,67.4356,0.007105
88.387,67.4716,0.007105
88.418,67.5077,0.007105
88.449,67.5444,0.007105
88.481,67.5819,0.007105
88.512,67.6211,0.007105
88.543,67.6596,0.007105
88.575,67.7002,0.007105
88.607,67.7414,0.006719
88.636,67.7803,0.006719
88.668,67.8225,0.006719
88.699,67.8661,0.006719
88.729,67.9063,0.006719
88.761,67.9536,0.006719
88.792,67.9973,0.006719
88.824,68.0440,0.006248
88.855,68.0896,0.006248
88.885,68.1345,0.006248
88.916,68.1823,0.006248
88.947,68.2281,0.006248
88.978,68.2752,0.006248
89.010,68.3219,0.006248
89.041,68.3698,0.006248
89.072,68.4158,0.006248
89.103,68.4635,0.005674
89.134,68.5083,0.005674
89.165,68.5561,0.005674
89.196,68.6011,0.005674
89.227,68.6466,0.005674
89.257,68.6934,0.005674
89.286,68.7364,0.005674
89.319,68.7866,0.004950
89.350,68.8313,0.004950
89.381,68.8789,0.004950
89.412,68.9248,0.004950
89.443,68.9719,0.004950
89.474,69.0187,0.004950
89.506,69.0657,0.004950
89.538,69.1148,0.004950
89.569,69.1610,0.004009
89.601,69.2090,0.004009
89.632,69.2551,0.004009
89.663,69.3023,0.004009
89.694,69.3483,0.004009
89.726,69.3966,0.004009
89.757,69.4426,0.004009
89.788,69.4900,0.004009
89.814,69.5288,0.004009
89.851,69.5851,0.002597
89.881,69.6295,0.002597
89.913,69.6766,0.002597
89.944,69.7246,0.002597
89.976,69.7711,0.002597
90.006,69.8169,0.002597
90.036,69.8618,0.002597
90.067,69.9080,0.002597
90.098,69.9537,0.000273
90.128,69.9996,0.000273
90.159,70.0461,0.000273
90.190,70.0931,0.000273
90.223,70.1424,0.000273
90.253,70.1870,0.000273
90.285,70.2327,0.000273
90.317,70.2781,0.000273
90.348,70.3224,-0.004263
90.379,70.3647,-0.004263
90.410,70.4072,-0.004263
90.441,70.4480,-0.004263
90.472,70.4903,-0.004263
90.504,70.5298,-0.004263
90.535,70.5698,-0.004263
90.566,70.6079,-0.004263
90.598,70.6480,-0.013137
90.629,70.6837,-0.013137
90.660,70.7213,-0.013137
90.691,70.7565,-0.013137
90.723,70.7922,-0.013137
90.754,70.8267,-0.013137
90.783,70.8579,-0.013137
90.815,70.8907,-0.013137
90.846,70.9232,-0.013137
90.877,70.9541,-0.013137
90.907,70.9842,-0.028419
90.937,71.0126,-0.028419
90.968,71.0424,-0.028419
91.000,71.0709,-0.028419
91.030,71.0984,-0.028419
91.062,71.1255,-0.028419
91.093,71.1524,-0.028419
91.125,71.1784,-0.051305
91.156,71.2033,-0.051305
91.187,71.2265,-0.051305
91.217,71.2500,-0.051305
91.249,71.2724,-0.051305
91.280,71.2946,-0.051305
91.312,71.3157,-0.051305
91.344,71.3368,-0.051305
91.374,71.3561,-0.079198
91.405,71.3751,-0.079198
91.436,71.3927,-0.079198
91.465,71.4093,-0.079198
91.496,71.4258,-0.079198
91.528,71.4423,-0.079198
91.558,71.4571,-0.079198
91.589,71.4715,-0.079198
91.620,71.4852,-0.111918
91.651,71.4984,-0.111918
91.682,71.5109,-0.111918
91.714,71.5226,-0.111918
91.744,71.5335,-0.111918
91.777,71.5440,-0.111918
91.807,71.5530,-0.111918
91.838,71.5619,-0.111918
91.869,71.5697,-0.163684
91.899,71.5770,-0.163684
91.930,71.5835,-0.163684
91.961,71.5891,-0.163684
91.992,71.5941,-0.163684
92.023,71.5986,-0.163684
92.054,71.6021,-0.163684
92.085,71.6051,-0.224551
92.115,71.6072,-0.224551
92.146,71.6085,-0.224551
92.177,71.6093,-0.224551
92.211,71.6094,-0.224551
92.239,71.6094,-0.224551
92.270,71.6094,-0.224551
92.300,71.6094,-0.224551
92.333,71.6094,-0.224551
92.363,71.6094,-0.224551
92.394,71.6094,-0.215517
92.425,71.6094,-0.215517
92.456,71.6094,-0.215517
92.487,71.6094,-0.215517
92.518,71.6094,-0.215517
92.549,71.6094,-0.215517
92.579,71.6094,-0.215517
92.610,71.6094,-0.215517
