Elapsed Time (s),Position (mm),Force (N)
-0.026,75.4094,-0.080148
0.000,75.4094,-0.080148
0.036,75.4094,-0.080148
0.066,75.4094,-0.080148
0.096,75.4094,-0.077203
0.129,75.4094,-0.077203
0.159,75.4094,-0.077203
0.190,75.4094,-0.077203
0.221,75.4094,-0.077203
0.253,75.4094,-0.077203
0.285,75.4094,-0.077203
0.316,75.4094,-0.071801
0.347,75.4094,-0.071801
0.380,75.4094,-0.071801
0.411,75.4094,-0.071801
0.440,75.4094,-0.071801
0.471,75.4094,-0.071801
0.501,75.4094,-0.071801
0.533,75.4094,-0.071801
0.563,75.4094,-0.068131
0.594,75.4094,-0.068131
0.625,75.4094,-0.068131
0.656,75.4094,-0.068131
0.687,75.4094,-0.068131
0.717,75.4094,-0.068131
0.749,75.4094,-0.068131
0.780,75.4094,-0.068131
0.811,75.4094,-0.065421
0.842,75.4094,-0.065421
0.874,75.4094,-0.065421
0.905,75.4094,-0.065421
0.936,75.4094,-0.065421
0.967,75.4094,-0.065421
0.998,75.4094,-0.065421
1.029,75.4094,-0.065421
1.060,75.4094,-0.065421
1.091,75.4094,-0.063332
1.121,75.4094,-0.063332
1.153,75.4094,-0.063332
1.184,75.4094,-0.063332
1.215,75.4094,-0.063332
1.246,75.4094,-0.063332
1.278,75.4094,-0.063332
1.309,75.4094,-0.061619
1.340,75.4094,-0.061619
1.372,75.4094,-0.061619
1.402,75.4094,-0.061619
1.432,75.4094,-0.061619
1.464,75.4094,-0.061619
1.494,75.4094,-0.061619
1.525,75.4094,-0.061619
1.557,75.4094,-0.060170
1.588,75.4094,-0.060170
1.620,75.4094,-0.060170
1.651,75.4094,-0.060170
1.682,75.4094,-0.060170
1.713,75.4094,-0.060170
1.744,75.4094,-0.060170
1.774,75.4094,-0.060170
1.806,75.4094,-0.058843
1.836,75.4094,-0.058843
1.867,75.4094,-0.058843
1.898,75.4094,-0.058843
1.929,75.4094,-0.058843
1.960,75.4094,-0.058843
1.991,75.4094,-0.058843
2.021,75.4094,-0.058843
2.053,75.4094,-0.057657
2.084,75.4094,-0.057657
2.115,75.4094,-0.057657
2.147,75.4094,-0.057657
2.177,75.4094,-0.057657
2.209,75.4094,-0.057657
2.243,75.4094,-0.057657
2.270,75.4094,-0.057657
2.301,75.4094,-0.056716
2.332,75.4094,-0.056716
2.366,75.4094,-0.056716
2.393,75.4094,-0.056716
2.425,75.4094,-0.056716
2.456,75.4094,-0.056716
2.487,75.4094,-0.056716
2.517,75.4094,-0.056716
2.547,75.4094,-0.055898
2.578,75.4094,-0.055898
2.609,75.4094,-0.055898
2.640,75.4094,-0.055898
2.670,75.4094,-0.055898
2.701,75.4094,-0.055898
2.732,75.4094,-0.055898
2.764,75.4094,-0.055898
2.795,75.4094,-0.055145
2.826,75.4094,-0.055145
2.857,75.4094,-0.055145
2.888,75.4094,-0.055145
2.919,75.4094,-0.055145
2.949,75.4094,-0.055145
2.980,75.4094,-0.055145
3.011,75.4094,-0.055145
3.043,75.4094,-0.054411
3.073,75.4094,-0.054411
3.105,75.4094,-0.054411
3.136,75.4094,-0.054411
3.168,75.4094,-0.054411
3.199,75.4094,-0.054411
3.231,75.4094,-0.054411
3.261,75.4094,-0.054411
3.291,75.4094,-0.053752
3.322,75.4094,-0.053752
3.354,75.4094,-0.053752
3.384,75.4094,-0.053752
3.416,75.4094,-0.053752
3.447,75.4094,-0.053752
3.478,75.4094,-0.053752
3.508,75.4094,-0.053752
3.540,75.4094,-0.053159
3.571,75.4094,-0.053159
3.602,75.4094,-0.053159
3.633,75.4094,-0.053159
3.664,75.4094,-0.053159
3.695,75.4094,-0.053159
3.726,75.4094,-0.053159
3.758,75.4094,-0.053159
3.790,75.4094,-0.053159
3.821,75.4094,-0.052538
3.852,75.4094,-0.052538
3.883,75.4094,-0.052538
3.914,75.4094,-0.052538
3.944,75.4094,-0.052538
3.977,75.4094,-0.052538
4.007,75.4094,-0.052538
4.038,75.4094,-0.052538
4.068,75.4094,-0.051936
4.099,75.4089,-0.051936
4.129,75.4077,-0.051936
4.161,75.4058,-0.051936
4.192,75.4031,-0.051936
4.223,75.3998,-0.051936
4.254,75.3957,-0.051936
4.284,75.3909,-0.051936
4.315,75.3854,-0.051936
4.346,75.3790,-0.051145
4.378,75.3720,-0.051145
4.409,75.3641,-0.051145
4.440,75.3558,-0.051145
4.471,75.3466,-0.051145
4.502,75.3367,-0.051145
4.533,75.3260,-0.051145
4.563,75.3147,-0.043354
4.594,75.3028,-0.043354
4.625,75.2902,-0.043354
4.656,75.2766,-0.043354
4.687,75.2625,-0.043354
4.718,75.2471,-0.043354
4.749,75.2315,-0.043354
4.779,75.2156,-0.043354
4.810,75.1986,-0.026453
4.841,75.1809,-0.026453
4.872,75.1618,-0.026453
4.904,75.1421,-0.026453
4.935,75.1222,-0.026453
4.965,75.1015,-0.026453
4.996,75.0802,-0.026453
5.027,75.0575,-0.026453
5.058,75.0349,-0.007425
5.089,75.0111,-0.007425
5.120,74.9868,-0.007425
5.152,74.9610,-0.007425
5.182,74.9358,-0.007425
5.213,74.9090,-0.007425
5.245,74.8814,-0.007425
5.275,74.8531,-0.007425
5.307,74.8250,0.009759
5.338,74.7948,0.009759
5.368,74.7652,0.009759
5.399,74.7342,0.009759
5.430,74.7030,0.009759
5.461,74.6708,0.009759
5.495,74.6336,0.009759
5.520,74.6064,0.009759
5.554,74.5685,0.021776
5.585,74.5336,0.021776
5.618,74.4949,0.021776
5.647,74.4601,0.021776
5.678,74.4220,0.021776
5.710,74.3827,0.021776
5.741,74.3446,0.021776
5.771,74.3050,0.021776
5.803,74.2634,0.028664
5.834,74.2224,0.028664
5.866,74.1802,0.028664
5.897,74.1376,0.028664
5.928,74.0943,0.028664
5.959,74.0496,0.028664
5.989,74.0050,0.028664
6.020,73.9599,0.028664
6.051,73.9147,0.028664
6.082,73.8672,0.034188
6.114,73.8202,0.034188
6.143,73.7761,0.034188
6.174,73.7291,0.034188
6.206,73.6817,0.034188
6.236,73.6364,0.034188
6.267,73.5901,0.034188
6.297,73.5445,0.034188
6.328,73.4985,0.039392
6.359,73.4513,0.039392
6.390,73.4065,0.039392
6.420,73.3600,0.039392
6.452,73.3136,0.039392
6.483,73.2659,0.039392
6.513,73.2213,0.039392
6.545,73.1742,0.039392
6.575,73.1287,0.042140
6.608,73.0796,0.042140
6.638,73.0345,0.042140
6.670,72.9862,0.042140
6.700,72.9408,0.042140
6.733,72.8924,0.042140
6.763,72.8470,0.042140
6.795,72.7990,0.042140
6.826,72.7525,0.032118
6.857,72.7049,0.032118
6.888,72.6593,0.032118
6.919,72.6129,0.032118
6.950,72.5651,0.032118
6.980,72.5208,0.032118
7.011,72.4750,0.032118
7.041,72.4291,0.032118
7.073,72.3821,0.032118
7.103,72.3363,0.014596
7.134,72.2909,0.014596
7.164,72.2439,0.014596
7.195,72.1983,0.014596
7.227,72.1508,0.014596
7.257,72.1051,0.014596
7.288,72.0591,0.014596
7.319,72.0125,0.007142
7.352,71.9624,0.007142
7.382,71.9188,0.007142
7.413,71.8721,0.007142
7.444,71.8258,0.007142
7.476,71.7768,0.007142
7.506,71.7333,0.007142
7.537,71.6894,0.007142
7.568,71.6466,0.006616
7.599,71.6038,0.006616
7.630,71.5616,0.006616
7.661,71.5191,0.006616
7.692,71.4792,0.006616
7.723,71.4390,0.006616
7.754,71.3999,0.006616
7.785,71.3609,0.006616
7.815,71.3249,0.006371
7.847,71.2854,0.006371
7.877,71.2511,0.006371
7.908,71.2144,0.006371
7.939,71.1798,0.006371
7.970,71.1462,0.006371
8.001,71.1123,0.006371
8.033,71.0789,0.006371
8.063,71.0473,0.006201
8.094,71.0164,0.006201
8.125,70.9864,0.006201
8.160,70.9521,0.006201
8.187,70.9275,0.006201
8.218,70.8985,0.006201
8.250,70.8705,0.006201
8.279,70.8445,0.006201
8.309,70.8196,0.006089
8.340,70.7938,0.006089
8.372,70.7689,0.006089
8.403,70.7438,0.006089
8.435,70.7206,0.006089
8.466,70.6977,0.006089
8.496,70.6766,0.006089
8.530,70.6539,0.006089
8.560,70.6342,0.005985
8.590,70.6149,0.005985
8.625,70.5936,0.005985
8.653,70.5771,0.005985
8.687,70.5578,0.005985
8.715,70.5430,0.005985
8.746,70.5265,0.005985
8.778,70.5114,0.005985
8.810,70.4963,0.005938
8.840,70.4830,0.005938
8.872,70.4694,0.005938
8.904,70.4570,0.005938
8.934,70.4456,0.005938
8.965,70.4349,0.005938
8.996,70.4248,0.005938
9.028,70.4153,0.005910
9.058,70.4069,0.005910
9.089,70.3987,0.005910
9.121,70.3914,0.005910
9.151,70.3850,0.005910
9.182,70.3792,0.005910
9.213,70.3744,0.005910
9.244,70.3700,0.005910
9.275,70.3664,0.005910
9.307,70.3635,0.005816
9.339,70.3613,0.005816
9.370,70.3600,0.005816
9.402,70.3594,0.005816
9.432,70.3594,0.005816
9.463,70.3594,0.005816
9.495,70.3594,0.005816
9.525,70.3594,0.005816
9.556,70.3595,0.005769
9.588,70.3604,0.005769
9.619,70.3618,0.005769
9.650,70.3641,0.005769
9.682,70.3672,0.005769
9.711,70.3708,0.005769
9.742,70.3752,0.005769
9.773,70.3803,0.005769
9.803,70.3860,0.005769
9.835,70.3927,0.005684
9.866,70.4000,0.005684
9.895,70.4079,0.005684
9.926,70.4164,0.005684
9.957,70.4258,0.005684
9.988,70.4359,0.005684
10.019,70.4470,0.005684
10.050,70.4587,0.005590
10.079,70.4702,0.005590
10.110,70.4830,0.005590
10.141,70.4970,0.005590
10.172,70.5115,0.005590
10.203,70.5272,0.005590
10.235,70.5432,0.005590
10.268,70.5613,0.005590
10.296,70.5767,0.005543
10.327,70.5953,0.005543
10.358,70.6135,0.005543
10.390,70.6338,0.005543
10.420,70.6539,0.005543
10.451,70.6753,0.005543
10.481,70.6963,0.005543
10.516,70.7214,0.005543
10.543,70.7422,0.005543
10.576,70.7674,0.005392
10.605,70.7903,0.005392
10.636,70.8159,0.005392
10.666,70.8412,0.005392
10.697,70.8680,0.005392
10.729,70.8959,0.005392
10.760,70.9245,0.005392
10.791,70.9531,0.005223
10.822,70.9831,0.005223
10.853,71.0143,0.005223
10.884,71.0450,0.005223
10.915,71.0771,0.005223
10.946,71.1102,0.005223
10.977,71.1428,0.005223
11.009,71.1784,0.005223
11.041,71.2144,0.005016
11.072,71.2501,0.005016
11.104,71.2872,0.005016
11.133,71.3225,0.005016
11.165,71.3609,0.005016
11.195,71.3987,0.005016
11.226,71.4373,0.005016
11.256,71.4767,0.005016
11.288,71.5187,0.004818
11.318,71.5590,0.004818
11.348,71.6001,0.004818
11.379,71.6435,0.004818
11.410,71.6863,0.004818
11.441,71.7299,0.004818
11.472,71.7746,0.004818
11.502,71.8197,0.004818
11.532,71.8648,0.004818
11.564,71.9129,0.004498
11.594,71.9575,0.004498
11.626,72.0052,0.004498
11.657,72.0513,0.004498
11.688,72.0987,0.004498
11.719,72.1448,0.004498
11.749,72.1898,0.004498
11.780,72.2360,0.004498
11.811,72.2843,0.004178
11.840,72.3261,0.004178
11.871,72.3724,0.004178
11.902,72.4201,0.004178
11.933,72.4653,0.004178
11.966,72.5166,0.004178
11.994,72.5573,0.004178
12.025,72.6041,0.004178
12.057,72.6514,0.003821
12.088,72.6976,0.003821
12.120,72.7462,0.003821
12.149,72.7906,0.003821
12.180,72.8376,0.003821
12.210,72.8814,0.003821
12.242,72.9285,0.003821
12.273,72.9765,0.003821
12.304,73.0228,0.003312
12.335,73.0688,0.003312
12.366,73.1162,0.003312
12.398,73.1633,0.003312
12.429,73.2092,0.003312
12.460,73.2569,0.003312
12.491,73.3033,0.003312
12.522,73.3496,0.002663
12.552,73.3945,0.002663
12.583,73.4405,0.002663
12.614,73.4874,0.002663
12.645,73.5346,0.002663
12.675,73.5791,0.002663
12.707,73.6279,0.002663
12.738,73.6729,0.002663
12.768,73.7187,0.002663
12.799,73.7650,0.001590
12.831,73.8123,0.001590
12.862,73.8598,0.001590
12.893,73.9066,0.001590
12.924,73.9510,0.001590
12.955,73.9967,0.001590
12.986,74.0405,0.001590
13.017,74.0852,0.001590
13.048,74.1263,-0.000273
13.079,74.1689,-0.000273
13.109,74.2086,-0.000273
13.140,74.2497,-0.000273
13.171,74.2882,-0.000273
13.203,74.3296,-0.000273
13.234,74.3671,-0.000273
13.265,74.4060,-0.000273
13.296,74.4422,-0.003896
13.327,74.4779,-0.003896
13.358,74.5134,-0.003896
13.389,74.5479,-0.003896
13.420,74.5821,-0.003896
13.451,74.6156,-0.003896
13.482,74.6488,-0.003896
13.519,74.6859,-0.003896
13.545,74.7116,-0.010841
13.576,74.7419,-0.010841
13.607,74.7715,-0.010841
13.638,74.8010,-0.010841
13.668,74.8281,-0.010841
13.699,74.8560,-0.010841
13.730,74.8819,-0.010841
13.762,74.9087,-0.010841
13.792,74.9330,-0.023102
13.824,74.9585,-0.023102
13.854,74.9818,-0.023102
13.885,75.0055,-0.023102
13.916,75.0272,-0.023102
13.947,75.0487,-0.023102
13.977,75.0692,-0.023102
14.008,75.0895,-0.023102
14.040,75.1095,-0.040098
14.071,75.1279,-0.040098
14.103,75.1463,-0.040098
14.134,75.1637,-0.040098
14.165,75.1803,-0.040098
14.196,75.1964,-0.040098
14.227,75.2109,-0.040098
14.257,75.2254,-0.040098
14.289,75.2389,-0.040098
14.320,75.2520,-0.057902
14.351,75.2640,-0.057902
14.382,75.2755,-0.057902
14.413,75.2859,-0.057902
14.444,75.2960,-0.057902
14.474,75.3050,-0.057902
14.505,75.3135,-0.057902
14.536,75.3214,-0.072093
14.567,75.3284,-0.072093
14.599,75.3349,-0.072093
14.630,75.3405,-0.072093
14.661,75.3455,-0.072093
14.692,75.3497,-0.072093
14.723,75.3530,-0.072093
14.754,75.3556,-0.072093
14.784,75.3576,-0.079527
14.816,75.3589,-0.079527
14.846,75.3594,-0.079527
14.877,75.3594,-0.079527
14.908,75.3594,-0.079527
14.940,75.3594,-0.079527
14.971,75.3594,-0.079527
15.001,75.3594,-0.079527
15.032,75.3594,-0.079527
15.064,75.3594,-0.078464
15.094,75.3594,-0.078464
15.126,75.3594,-0.078464
15.156,75.3594,-0.078464
15.191,75.3594,-0.078464
15.217,75.3594,-0.078464
15.249,75.3594,-0.078464
15.280,75.3594,-0.078464
15.311,75.3594,-0.073062
15.342,75.3594,-0.073062
15.372,75.3594,-0.073062
15.404,75.3594,-0.073062
15.435,75.3594,-0.073062
15.467,75.3594,-0.073062
15.497,75.3594,-0.073062
15.528,75.3594,-0.073062
15.559,75.3594,-0.068893
15.590,75.3594,-0.068893
15.620,75.3594,-0.068893
15.651,75.3594,-0.068893
15.682,75.3594,-0.068893
15.713,75.3594,-0.068893
15.744,75.3594,-0.068893
15.776,75.3594,-0.066023
15.807,75.3594,-0.066023
15.837,75.3594,-0.066023
15.869,75.3594,-0.066023
15.900,75.3594,-0.066023
15.931,75.3594,-0.066023
15.962,75.3594,-0.066023
15.993,75.3594,-0.066023
16.024,75.3594,-0.066023
16.055,75.3594,-0.066023
16.086,75.3594,-0.063784
16.119,75.3594,-0.063784
16.148,75.3594,-0.063784
16.179,75.3594,-0.063784
16.209,75.3594,-0.063784
16.245,75.3594,-0.063784
16.286,75.3594,-0.063784
16.317,75.3594,-0.063784
16.351,75.3594,-0.061958
16.379,75.3594,-0.061958
16.411,75.3594,-0.061958
16.442,75.3594,-0.061958
16.473,75.3594,-0.061958
16.505,75.3594,-0.061958
16.536,75.3594,-0.060415
16.568,75.3594,-0.060415
16.599,75.3594,-0.060415
16.631,75.3594,-0.060415
16.662,75.3594,-0.060415
16.694,75.3594,-0.060415
16.724,75.3594,-0.060415
16.755,75.3594,-0.060415
16.787,75.3594,-0.060415
16.818,75.3594,-0.059088
16.848,75.3594,-0.059088
16.878,75.3594,-0.059088
16.909,75.3594,-0.059088
16.940,75.3594,-0.059088
16.971,75.3594,-0.059088
17.002,75.3594,-0.059088
17.033,75.3594,-0.059088
17.064,75.3594,-0.057968
17.094,75.3594,-0.057968
17.126,75.3594,-0.057968
17.156,75.3594,-0.057968
17.188,75.3594,-0.057968
17.218,75.3594,-0.057968
17.248,75.3594,-0.057968
17.280,75.3594,-0.056980
17.311,75.3594,-0.056980
17.341,75.3594,-0.056980
17.373,75.3594,-0.056980
17.404,75.3594,-0.056980
17.435,75.3594,-0.056980
17.466,75.3594,-0.056980
17.496,75.3594,-0.056980
17.527,75.3594,-0.056980
17.558,75.3594,-0.056058
17.589,75.3594,-0.056058
17.620,75.3594,-0.056058
17.651,75.3594,-0.056058
17.682,75.3594,-0.056058
17.713,75.3594,-0.056058
17.745,75.3594,-0.056058
17.777,75.3594,-0.055248
17.807,75.3594,-0.055248
17.838,75.3594,-0.055248
17.870,75.3594,-0.055248
17.901,75.3594,-0.055248
17.932,75.3594,-0.055248
17.963,75.3594,-0.055248
17.994,75.3594,-0.055248
18.025,75.3594,-0.055248
18.056,75.3594,-0.054420
18.087,75.3594,-0.054420
18.118,75.3594,-0.054420
18.148,75.3594,-0.054420
18.181,75.3594,-0.054420
18.211,75.3594,-0.054420
18.242,75.3594,-0.054420
18.273,75.3594,-0.054420
18.304,75.3594,-0.054420
18.334,75.3594,-0.053884
18.365,75.3594,-0.053884
18.396,75.3594,-0.053884
18.428,75.3594,-0.053884
18.458,75.3594,-0.053884
18.489,75.3594,-0.053884
18.521,75.3594,-0.053884
18.557,75.3594,-0.053884
18.582,75.3594,-0.053884
18.614,75.3594,-0.053376
18.647,75.3594,-0.053376
18.679,75.3594,-0.053376
18.708,75.3594,-0.053376
18.739,75.3594,-0.053376
18.770,75.3594,-0.053376
18.801,75.3594,-0.053376
18.832,75.3594,-0.052651
18.863,75.3594,-0.052651
18.894,75.3594,-0.052651
18.925,75.3594,-0.052651
18.956,75.3594,-0.052651
18.987,75.3594,-0.052651
19.017,75.3594,-0.052651
19.048,75.3590,-0.052651
19.079,75.3580,-0.052049
19.110,75.3561,-0.052049
19.140,75.3537,-0.052049
19.172,75.3503,-0.052049
19.202,75.3466,-0.052049
19.232,75.3420,-0.052049
19.264,75.3364,-0.052049
19.295,75.3303,-0.052049
19.326,75.3234,-0.050581
19.356,75.3160,-0.050581
19.387,75.3079,-0.050581
19.422,75.2974,-0.050581
19.449,75.2889,-0.050581
19.481,75.2781,-0.050581
19.512,75.2670,-0.050581
19.542,75.2552,-0.041086
19.574,75.2420,-0.041086
19.605,75.2289,-0.041086
19.636,75.2146,-0.041086
19.667,75.1996,-0.041086
19.698,75.1839,-0.041086
19.729,75.1678,-0.041086
19.760,75.1505,-0.041086
19.791,75.1330,-0.023065
19.822,75.1144,-0.023065
19.853,75.0956,-0.023065
19.883,75.0756,-0.023065
19.915,75.0546,-0.023065
19.947,75.0326,-0.023065
19.977,75.0107,-0.023065
20.007,74.9885,-0.023065
20.039,74.9646,-0.004159
20.070,74.9400,-0.004159
20.101,74.9154,-0.004159
20.132,74.8891,-0.004159
20.163,74.8634,-0.004159
20.194,74.8355,-0.004159
20.224,74.8086,-0.004159
20.255,74.7796,-0.004159
20.286,74.7512,0.012337
20.316,74.7209,0.012337
20.347,74.6903,0.012337
20.377,74.6595,0.012337
20.408,74.6279,0.012337
20.440,74.5936,0.012337
20.470,74.5614,0.012337
20.504,74.5218,0.012337
20.532,74.4912,0.012337
20.563,74.4547,0.023470
20.595,74.4179,0.023470
20.625,74.3809,0.023470
20.656,74.3429,0.023470
20.687,74.3043,0.023470
20.718,74.2636,0.023470
20.749,74.2241,0.023470
20.780,74.1809,0.023470
20.811,74.1422,0.030047
20.842,74.1004,0.030047
20.873,74.0569,0.030047
20.904,74.0130,0.030047
20.934,73.9691,0.030047
20.966,73.9229,0.030047
20.997,73.8765,0.030047
21.028,73.8308,0.035872
21.059,73.7832,0.035872
21.090,73.7371,0.035872
21.121,73.6906,0.035872
21.153,73.6431,0.035872
21.183,73.5971,0.035872
21.214,73.5502,0.035872
21.245,73.5046,0.035872
21.276,73.4570,0.040907
21.307,73.4118,0.040907
21.337,73.3659,0.040907
21.368,73.3189,0.040907
21.400,73.2729,0.040907
21.431,73.2258,0.040907
21.461,73.1808,0.040907
21.492,73.1333,0.040907
21.524,73.0864,0.040907
21.555,73.0396,0.040907
21.586,72.9935,0.042958
21.617,72.9466,0.042958
21.647,72.9011,0.042958
21.679,72.8541,0.042958
21.710,72.8077,0.042958
21.740,72.7608,0.042958
21.772,72.7147,0.042958
21.803,72.6678,0.042958
21.835,72.6201,0.028984
21.866,72.5726,0.028984
21.897,72.5268,0.028984
21.929,72.4790,0.028984
21.960,72.4318,0.028984
21.991,72.3852,0.028984
22.022,72.3385,0.028984
22.054,72.2904,0.028984
22.084,72.2468,0.028984
22.115,72.1994,0.011151
22.145,72.1546,0.011151
22.177,72.1062,0.011151
22.208,72.0595,0.011151
22.241,72.0105,0.011151
22.271,71.9655,0.011151
22.303,71.9172,0.011151
22.332,71.8744,0.007020
22.363,71.8284,0.007020
22.394,71.7818,0.007020
22.424,71.7359,0.007020
22.456,71.6905,0.007020
22.486,71.6466,0.007020
22.517,71.6021,0.007020
22.545,71.5646,0.007020
22.580,71.5165,0.006606
22.610,71.4768,0.006606
22.641,71.4346,0.006606
22.672,71.3955,0.006606
22.704,71.3543,0.006606
22.738,71.3117,0.006606
22.766,71.2781,0.006606
22.796,71.2415,0.006606
22.827,71.2062,0.006399
22.863,71.1637,0.006399
22.889,71.1348,0.006399
22.920,71.0995,0.006399
22.951,71.0669,0.006399
22.983,71.0328,0.006399
23.017,70.9983,0.006399
23.044,70.9709,0.006399
23.075,70.9405,0.006220
23.106,70.9103,0.006220
23.137,70.8816,0.006220
23.168,70.8522,0.006220
23.199,70.8245,0.006220
23.230,70.7969,0.006220
23.263,70.7700,0.006220
23.293,70.7451,0.006117
23.323,70.7206,0.006117
23.354,70.6965,0.006117
23.385,70.6738,0.006117
23.416,70.6504,0.006117
23.447,70.6290,0.006117
23.478,70.6078,0.006117
23.510,70.5868,0.006117
23.541,70.5669,0.006041
23.572,70.5476,0.006041
23.604,70.5289,0.006041
23.634,70.5122,0.006041
23.665,70.4948,0.006041
23.700,70.4771,0.006041
23.727,70.4637,0.006041
23.758,70.4489,0.006041
23.788,70.4354,0.006041
23.819,70.4227,0.006013
23.850,70.4105,0.006013
23.880,70.3986,0.006013
23.911,70.3875,0.006013
23.943,70.3770,0.006013
23.974,70.3674,0.006013
24.007,70.3579,0.006013
24.033,70.3513,0.006013
24.067,70.3432,0.005844
24.099,70.3364,0.005844
24.128,70.3307,0.005844
24.160,70.3254,0.005844
24.189,70.3212,0.005844
24.220,70.3174,0.005844
24.253,70.3142,0.005844
24.282,70.3120,0.005844
24.313,70.3104,0.005816
24.345,70.3095,0.005816
24.376,70.3094,0.005816
24.406,70.3094,0.005816
24.437,70.3094,0.005816
24.468,70.3094,0.005816
24.500,70.3098,0.005816
24.531,70.3109,0.005816
24.561,70.3126,0.005910
24.591,70.3151,0.005910
24.623,70.3184,0.005910
24.654,70.3225,0.005910
24.686,70.3272,0.005910
24.718,70.3329,0.005910
24.749,70.3391,0.005910
24.779,70.3462,0.005816
24.810,70.3535,0.005816
24.841,70.3622,0.005816
24.872,70.3709,0.005816
24.903,70.3811,0.005816
24.935,70.3919,0.005816
24.966,70.4033,0.005816
24.998,70.4153,0.005816
25.029,70.4283,0.005816
25.060,70.4417,0.005637
25.091,70.4561,0.005637
25.121,70.4706,0.005637
25.153,70.4865,0.005637
25.183,70.5032,0.005637
25.214,70.5201,0.005637
25.245,70.5380,0.005637
25.276,70.5564,0.005524
25.307,70.5759,0.005524
25.338,70.5959,0.005524
25.369,70.6162,0.005524
25.401,70.6384,0.005524
25.432,70.6605,0.005524
25.463,70.6842,0.005524
25.494,70.7072,0.005524
25.526,70.7330,0.005524
25.557,70.7577,0.005496
25.588,70.7841,0.005496
25.618,70.8092,0.005496
25.650,70.8378,0.005496
25.684,70.8685,0.005496
25.711,70.8938,0.005496
25.742,70.9232,0.005496
25.773,70.9532,0.005289
25.804,70.9849,0.005289
25.835,71.0159,0.005289
25.866,71.0484,0.005289
25.897,71.0824,0.005289
25.928,71.1155,0.005289
25.960,71.1510,0.005289
25.990,71.1856,0.005289
26.021,71.2228,0.005289
26.053,71.2590,0.005016
26.083,71.2967,0.005016
26.114,71.3346,0.005016
26.141,71.3680,0.005016
26.176,71.4134,0.005016
26.207,71.4533,0.005016
26.238,71.4946,0.005016
26.270,71.5381,0.005016
26.304,71.5843,0.004762
26.331,71.6228,0.004762
26.365,71.6712,0.004762
26.393,71.7115,0.004762
26.423,71.7567,0.004762
26.455,71.8024,0.004762
26.486,71.8509,0.004762
26.517,71.8973,0.004762
26.548,71.9439,0.004442
26.580,71.9903,0.004442
26.611,72.0376,0.004442
26.642,72.0843,0.004442
26.673,72.1309,0.004442
26.705,72.1780,0.004442
26.738,72.2283,0.004442
26.768,72.2728,0.004442
26.799,72.3198,0.004442
26.830,72.3659,0.004122
26.861,72.4123,0.004122
26.892,72.4580,0.004122
26.925,72.5081,0.004122
26.954,72.5520,0.004122
26.984,72.5976,0.004122
27.015,72.6426,0.004122
27.046,72.6891,0.004122
27.077,72.7357,0.003727
27.107,72.7812,0.003727
27.138,72.8278,0.003727
27.172,72.8791,0.003727
27.200,72.9201,0.003727
27.230,72.9646,0.003727
27.261,73.0119,0.003727
27.298,73.0701,0.003171
27.339,73.1291,0.003171
27.370,73.1769,0.003171
27.401,73.2223,0.003171
27.432,73.2691,0.003171
27.463,73.3146,0.003171
27.495,73.3637,0.003171
27.526,73.4085,0.003171
27.557,73.4575,0.002475
27.588,73.5020,0.002475
27.619,73.5489,0.002475
27.650,73.5945,0.002475
27.681,73.6425,0.002475
27.712,73.6877,0.002475
27.742,73.7344,0.002475
27.773,73.7812,0.002475
27.805,73.8285,0.001233
27.835,73.8731,0.001233
27.867,73.9200,0.001233
27.898,73.9646,0.001233
27.929,74.0089,0.001233
27.960,74.0507,0.001233
27.992,74.0942,0.001233
28.022,74.1344,0.001233
28.057,74.1828,0.001233
28.084,74.2166,0.001233
28.115,74.2564,-0.001045
28.146,74.2946,-0.001045
28.177,74.3331,-0.001045
28.208,74.3705,-0.001045
28.241,74.4095,-0.001045
28.271,74.4443,-0.001045
28.302,74.4788,-0.005289
28.332,74.5133,-0.005289
28.363,74.5455,-0.005289
28.393,74.5781,-0.005289
28.425,74.6110,-0.005289
28.456,74.6430,-0.005289
28.487,74.6739,-0.005289
28.518,74.7030,-0.005289
28.549,74.7334,-0.013796
28.581,74.7619,-0.013796
28.611,74.7899,-0.013796
28.642,74.8168,-0.013796
28.674,74.8443,-0.013796
28.706,74.8701,-0.013796
28.737,74.8958,-0.013796
28.768,74.9190,-0.013796
28.800,74.9436,-0.027798
28.831,74.9657,-0.027798
28.862,74.9877,-0.027798
28.892,75.0093,-0.027798
28.923,75.0296,-0.027798
28.954,75.0492,-0.027798
28.986,75.0692,-0.027798
29.018,75.0875,-0.027798
29.049,75.1052,-0.045424
29.080,75.1222,-0.045424
29.111,75.1391,-0.045424
29.142,75.1536,-0.045424
29.173,75.1685,-0.045424
29.205,75.1825,-0.045424
29.236,75.1960,-0.045424
29.267,75.2087,-0.045424
29.297,75.2200,-0.045424
29.328,75.2306,-0.062683
29.359,75.2411,-0.062683
29.390,75.2508,-0.062683
29.420,75.2597,-0.062683
29.451,75.2675,-0.062683
29.482,75.2750,-0.062683
29.514,75.2819,-0.062683
29.545,75.2881,-0.062683
29.576,75.2931,-0.075358
29.607,75.2976,-0.075358
29.638,75.3015,-0.075358
29.669,75.3046,-0.075358
29.700,75.3068,-0.075358
29.732,75.3084,-0.075358
29.763,75.3093,-0.075358
29.794,75.3094,-0.075358
29.824,75.3094,-0.080384
29.855,75.3094,-0.080384
29.886,75.3094,-0.080384
29.917,75.3094,-0.080384
29.947,75.3094,-0.080384
29.979,75.3094,-0.080384
30.009,75.3094,-0.080384
30.039,75.3094,-0.080384
30.070,75.3094,-0.077438
30.101,75.3094,-0.077438
30.132,75.3094,-0.077438
30.163,75.3094,-0.077438
30.195,75.3094,-0.077438
30.226,75.3094,-0.077438
30.256,75.3094,-0.077438
30.288,75.3094,-0.077438
30.318,75.3094,-0.072037
30.350,75.3094,-0.072037
30.381,75.3094,-0.072037
30.411,75.3094,-0.072037
30.442,75.3094,-0.072037
30.474,75.3094,-0.072037
30.505,75.3094,-0.072037
30.536,75.3094,-0.072037
30.567,75.3094,-0.068319
30.598,75.3094,-0.068319
30.629,75.3094,-0.068319
30.660,75.3094,-0.068319
30.691,75.3094,-0.068319
30.724,75.3094,-0.068319
30.754,75.3094,-0.068319
30.785,75.3094,-0.068319
30.816,75.3094,-0.065647
30.848,75.3094,-0.065647
30.878,75.3094,-0.065647
30.908,75.3094,-0.065647
30.943,75.3094,-0.065647
30.971,75.3094,-0.065647
31.003,75.3094,-0.065647
31.034,75.3094,-0.065647
31.065,75.3094,-0.063567
31.095,75.3094,-0.063567
31.126,75.3094,-0.063567
31.159,75.3094,-0.063567
31.188,75.3094,-0.063567
31.218,75.3094,-0.063567
31.249,75.3094,-0.063567
31.279,75.3094,-0.063567
31.309,75.3094,-0.061826
31.340,75.3094,-0.061826
31.375,75.3094,-0.061826
31.404,75.3094,-0.061826
31.435,75.3094,-0.061826
31.466,75.3094,-0.061826
31.497,75.3094,-0.061826
31.527,75.3094,-0.061826
31.558,75.3094,-0.060349
31.589,75.3094,-0.060349
31.620,75.3094,-0.060349
31.651,75.3094,-0.060349
31.683,75.3094,-0.060349
31.714,75.3094,-0.060349
31.745,75.3094,-0.060349
31.776,75.3094,-0.060349
31.806,75.3094,-0.059078
31.838,75.3094,-0.059078
31.872,75.3094,-0.059078
31.899,75.3094,-0.059078
31.931,75.3094,-0.059078
31.961,75.3094,-0.059078
31.992,75.3094,-0.059078
32.023,75.3094,-0.059078
32.053,75.3094,-0.059078
32.083,75.3094,-0.057959
32.114,75.3094,-0.057959
32.145,75.3094,-0.057959
32.176,75.3094,-0.057959
32.206,75.3094,-0.057959
32.238,75.3094,-0.057959
32.268,75.3094,-0.057959
32.299,75.3094,-0.057959
32.331,75.3094,-0.057008
32.360,75.3094,-0.057008
32.392,75.3094,-0.057008
32.422,75.3094,-0.057008
32.454,75.3094,-0.057008
32.484,75.3094,-0.057008
32.515,75.3094,-0.057008
32.545,75.3094,-0.057008
32.576,75.3094,-0.056171
32.613,75.3094,-0.056171
32.654,75.3094,-0.056171
32.686,75.3094,-0.056171
32.716,75.3094,-0.056171
32.748,75.3094,-0.056171
32.778,75.3094,-0.056171
32.810,75.3094,-0.055399
32.840,75.3094,-0.055399
32.871,75.3094,-0.055399
32.903,75.3094,-0.055399
32.934,75.3094,-0.055399
32.965,75.3094,-0.055399
32.997,75.3094,-0.055399
33.028,75.3094,-0.055399
33.060,75.3094,-0.054740
33.091,75.3094,-0.054740
33.122,75.3094,-0.054740
33.153,75.3094,-0.054740
33.184,75.3094,-0.054740
33.216,75.3094,-0.054740
33.246,75.3094,-0.054740
33.278,75.3094,-0.054740
33.308,75.3094,-0.054025
33.340,75.3094,-0.054025
33.371,75.3094,-0.054025
33.401,75.3094,-0.054025
33.433,75.3094,-0.054025
33.463,75.3094,-0.054025
33.494,75.3094,-0.054025
33.525,75.3094,-0.054025
33.556,75.3094,-0.053376
33.588,75.3094,-0.053376
33.618,75.3094,-0.053376
33.649,75.3094,-0.053376
33.680,75.3094,-0.053376
33.712,75.3094,-0.053376
33.742,75.3094,-0.053376
33.773,75.3094,-0.053376
33.804,75.3094,-0.053376
33.835,75.3094,-0.052755
33.866,75.3094,-0.052755
33.898,75.3094,-0.052755
33.930,75.3094,-0.052755
33.959,75.3094,-0.052755
33.990,75.3094,-0.052755
34.021,75.3091,-0.052755
34.052,75.3081,-0.052162
34.084,75.3064,-0.052162
34.114,75.3041,-0.052162
34.145,75.3010,-0.052162
34.174,75.2974,-0.052162
34.208,75.2924,-0.052162
34.237,75.2873,-0.052162
34.269,75.2811,-0.052162
34.301,75.2740,-0.050204
34.331,75.2668,-0.050204
34.362,75.2583,-0.050204
34.393,75.2497,-0.050204
34.426,75.2391,-0.050204
34.455,75.2296,-0.050204
34.488,75.2174,-0.050204
34.517,75.2068,-0.050204
34.548,75.1939,-0.039825
34.578,75.1809,-0.039825
34.612,75.1653,-0.039825
34.640,75.1524,-0.039825
34.671,75.1370,-0.039825
34.702,75.1206,-0.039825
34.733,75.1036,-0.039825
34.763,75.0864,-0.039825
34.794,75.0683,-0.021465
34.824,75.0494,-0.021465
34.855,75.0301,-0.021465
34.886,75.0094,-0.021465
34.917,74.9880,-0.021465
34.948,74.9658,-0.021465
34.979,74.9440,-0.021465
35.010,74.9200,-0.021465
35.041,74.8961,-0.021465
35.072,74.8708,-0.002616
35.103,74.8457,-0.002616
35.134,74.8191,-0.002616
35.166,74.7905,-0.002616
35.198,74.7623,-0.002616
35.229,74.7344,-0.002616
35.260,74.7046,-0.002616
35.290,74.6756,0.013466
35.321,74.6450,0.013466
35.352,74.6127,0.013466
35.383,74.5814,0.013466
35.414,74.5483,0.013466
35.445,74.5141,0.013466
35.476,74.4804,0.013466
35.507,74.4453,0.013466
35.538,74.4090,0.013466
35.570,74.3713,0.023987
35.600,74.3346,0.023987
35.631,74.2972,0.023987
35.662,74.2585,0.023987
35.693,74.2190,0.023987
35.728,74.1737,0.023987
35.755,74.1385,0.023987
35.788,74.0936,0.023987
35.817,74.0539,0.030066
35.848,74.0096,0.030066
35.880,73.9662,0.030066
35.911,73.9203,0.030066
35.942,73.8756,0.030066
35.974,73.8282,0.030066
36.004,73.7844,0.030066
36.035,73.7360,0.030066
36.067,73.6888,0.035505
36.098,73.6419,0.035505
36.130,73.5945,0.035505
36.161,73.5466,0.035505
36.191,73.5022,0.035505
36.222,73.4564,0.035505
36.253,73.4100,0.035505
36.284,73.3642,0.035505
36.314,73.3173,0.040276
36.345,73.2717,0.040276
36.377,73.2239,0.040276
36.408,73.1779,0.040276
36.441,73.1278,0.040276
36.470,73.0849,0.040276
36.502,73.0370,0.040276
36.531,72.9931,0.040276
36.562,72.9461,0.040276
36.595,72.8960,0.042159
36.626,72.8505,0.042159
36.657,72.8042,0.042159
36.688,72.7575,0.042159
36.719,72.7104,0.042159
36.749,72.6650,0.042159
36.781,72.6182,0.026942
36.812,72.5718,0.026942
36.843,72.5247,0.026942
36.874,72.4782,0.026942
36.908,72.4276,0.026942
36.935,72.3865,0.026942
36.969,72.3343,0.026942
36.998,72.2928,0.026942
37.029,72.2461,0.026942
37.060,72.1984,0.026942
37.091,72.1516,0.026942
37.122,72.1055,0.009467
37.154,72.0589,0.009467
37.184,72.0133,0.009467
37.215,71.9661,0.009467
37.246,71.9211,0.009467
37.278,71.8725,0.009467
37.309,71.8261,0.007067
37.341,71.7778,0.007067
37.372,71.7314,0.007067
37.402,71.6864,0.007067
37.432,71.6414,0.007067
37.463,71.5976,0.007067
37.494,71.5536,0.007067
37.525,71.5117,0.007067
37.556,71.4694,0.007067
37.588,71.4266,0.006719
37.618,71.3869,0.006719
37.649,71.3465,0.006719
37.680,71.3070,0.006719
37.711,71.2687,0.006719
37.742,71.2310,0.006719
37.774,71.1929,0.006719
37.805,71.1562,0.006427
37.836,71.1205,0.006427
37.867,71.0850,0.006427
37.899,71.0494,0.006427
37.930,71.0168,0.006427
37.961,70.9825,0.006427
37.991,70.9522,0.006427
38.024,70.9191,0.006427
38.052,70.8909,0.006248
38.084,70.8608,0.006248
38.115,70.8311,0.006248
38.146,70.8030,0.006248
38.178,70.7739,0.006248
38.209,70.7476,0.006248
38.240,70.7204,0.006248
38.270,70.6956,0.006248
38.301,70.6707,0.006164
38.332,70.6464,0.006164
38.363,70.6229,0.006164
38.394,70.6007,0.006164
38.426,70.5781,0.006164
38.456,70.5574,0.006164
38.487,70.5376,0.006164
38.517,70.5185,0.006164
38.548,70.4988,0.006117
38.579,70.4807,0.006117
38.610,70.4630,0.006117
38.641,70.4461,0.006117
38.672,70.4306,0.006117
38.703,70.4151,0.006117
38.736,70.3993,0.006117
38.764,70.3866,0.006117
38.795,70.3735,0.006117
38.826,70.3610,0.006060
38.857,70.3493,0.006060
38.888,70.3383,0.006060
38.920,70.3274,0.006060
38.951,70.3178,0.006060
38.982,70.3088,0.006060
39.013,70.3009,0.006060
39.044,70.2934,0.006060
39.076,70.2864,0.006013
39.108,70.2805,0.006013
39.137,70.2756,0.006013
39.168,70.2711,0.006013
39.199,70.2673,0.006013
39.230,70.2644,0.006013
39.261,70.2620,0.006013
39.291,70.2604,0.005947
39.322,70.2595,0.005947
39.353,70.2594,0.005947
39.385,70.2594,0.005947
39.416,70.2594,0.005947
39.446,70.2596,0.005947
39.477,70.2606,0.005947
39.507,70.2624,0.005947
39.538,70.2647,0.005947
39.571,70.2681,0.005891
39.600,70.2718,0.005891
39.631,70.2764,0.005891
39.662,70.2818,0.005891
39.694,70.2879,0.005891
39.724,70.2946,0.005891
39.755,70.3021,0.005891
39.786,70.3101,0.005797
39.816,70.3192,0.005797
39.847,70.3287,0.005797
39.879,70.3393,0.005797
39.909,70.3503,0.005797
39.940,70.3622,0.005797
39.971,70.3749,0.005797
40.002,70.3883,0.005797
40.033,70.4022,0.005674
40.069,70.4193,0.005674
40.109,70.4394,0.005674
40.140,70.4560,0.005674
40.171,70.4731,0.005674
40.202,70.4916,0.005674
40.237,70.5125,0.005674
40.265,70.5303,0.005674
40.298,70.5517,0.005571
40.328,70.5721,0.005571
40.359,70.5936,0.005571
40.391,70.6165,0.005571
40.422,70.6404,0.005571
40.453,70.6641,0.005571
40.485,70.6895,0.005571
40.516,70.7152,0.005571
40.547,70.7405,0.005571
40.578,70.7673,0.005420
40.609,70.7949,0.005420
40.640,70.8235,0.005420
40.672,70.8533,0.005420
40.703,70.8835,0.005420
40.734,70.9140,0.005420
40.765,70.9449,0.005420
40.796,70.9774,0.005420
40.827,71.0099,0.005420
40.858,71.0435,0.005251
40.889,71.0767,0.005251
40.920,71.1121,0.005251
40.951,71.1470,0.005251
40.981,71.1833,0.005251
41.012,71.2195,0.005251
41.043,71.2579,0.005251
41.074,71.2954,0.005035
41.104,71.3346,0.005035
41.136,71.3744,0.005035
41.167,71.4154,0.005035
41.199,71.4578,0.005035
41.230,71.4998,0.005035
41.261,71.5428,0.005035
41.295,71.5923,0.005035
41.322,71.6305,0.005035
41.354,71.6769,0.004780
41.385,71.7220,0.004780
41.416,71.7688,0.004780
41.447,71.8149,0.004780
41.477,71.8609,0.004780
41.507,71.9056,0.004780
41.540,71.9542,0.004780
41.569,71.9982,0.004508
41.602,72.0476,0.004508
41.632,72.0923,0.004508
41.663,72.1387,0.004508
41.695,72.1868,0.004508
41.724,72.2299,0.004508
41.755,72.2780,0.004508
41.785,72.3228,0.004150
41.816,72.3693,0.004150
41.847,72.4162,0.004150
41.878,72.4613,0.004150
41.909,72.5071,0.004150
41.940,72.5541,0.004150
41.971,72.6001,0.004150
42.002,72.6473,0.004150
42.033,72.6942,0.003679
42.064,72.7402,0.003679
42.095,72.7879,0.003679
42.125,72.8325,0.003679
42.157,72.8804,0.003679
42.188,72.9264,0.003679
42.219,72.9737,0.003679
42.251,73.0213,0.003679
42.282,73.0669,0.003134
42.312,73.1142,0.003134
42.343,73.1597,0.003134
42.374,73.2061,0.003134
42.405,73.2525,0.003134
42.437,73.3006,0.003134
42.468,73.3471,0.003134
42.499,73.3943,0.003134
42.530,73.4395,0.003134
42.561,73.4862,0.002353
42.591,73.5316,0.002353
42.623,73.5789,0.002353
42.654,73.6249,0.002353
42.684,73.6719,0.002353
42.716,73.7183,0.002353
42.748,73.7668,0.002353
42.779,73.8124,0.000866
42.810,73.8577,0.000866
42.841,73.9031,0.000866
42.872,73.9471,0.000866
42.904,73.9923,0.000866
42.935,74.0338,0.000866
42.966,74.0760,0.000866
42.996,74.1160,0.000866
43.027,74.1563,0.000866
43.057,74.1954,-0.001760
43.090,74.2372,-0.001760
43.120,74.2729,-0.001760
43.151,74.3108,-0.001760
43.181,74.3470,-0.001760
43.213,74.3840,-0.001760
43.246,74.4213,-0.001760
43.277,74.4555,-0.001760
43.307,74.4891,-0.006568
43.338,74.5226,-0.006568
43.370,74.5550,-0.006568
43.401,74.5872,-0.006568
43.432,74.6186,-0.006568
43.463,74.6483,-0.006568
43.494,74.6771,-0.006568
43.524,74.7054,-0.006568
43.555,74.7329,-0.006568
43.585,74.7600,-0.016073
43.616,74.7861,-0.016073
43.646,74.8113,-0.016073
43.678,74.8379,-0.016073
43.708,74.8612,-0.016073
43.739,74.8841,-0.016073
43.771,74.9079,-0.016073
43.802,74.9304,-0.031139
43.833,74.9521,-0.031139
43.864,74.9730,-0.031139
43.895,74.9930,-0.031139
43.926,75.0121,-0.031139
43.958,75.0316,-0.031139
43.989,75.0494,-0.031139
44.021,75.0668,-0.031139
44.051,75.0825,-0.049160
44.081,75.0983,-0.049160
44.112,75.1129,-0.049160
44.143,75.1271,-0.049160
44.173,75.1402,-0.049160
44.205,75.1534,-0.049160
44.235,75.1651,-0.049160
44.266,75.1764,-0.049160
44.297,75.1870,-0.065863
44.328,75.1968,-0.065863
44.359,75.2062,-0.065863
44.391,75.2148,-0.065863
44.423,75.2226,-0.065863
44.453,75.2293,-0.065863
44.484,75.2356,-0.065863
44.516,75.2413,-0.065863
44.548,75.2461,-0.077193
44.579,75.2502,-0.077193
44.610,75.2536,-0.077193
44.642,75.2561,-0.077193
44.676,75.2580,-0.077193
44.703,75.2589,-0.077193
44.735,75.2593,-0.077193
44.766,75.2593,-0.077193
44.797,75.2593,-0.077193
44.827,75.2593,-0.080412
44.859,75.2593,-0.080412
44.890,75.2593,-0.080412
44.921,75.2593,-0.080412
44.952,75.2593,-0.080412
44.984,75.2593,-0.080412
45.016,75.2593,-0.080412
45.048,75.2593,-0.080412
45.080,75.2593,-0.076582
45.110,75.2593,-0.076582
45.140,75.2593,-0.076582
45.172,75.2593,-0.076582
45.203,75.2593,-0.076582
45.234,75.2593,-0.076582
45.265,75.2593,-0.076582
45.296,75.2593,-0.076582
45.326,75.2593,-0.071321
45.358,75.2593,-0.071321
45.389,75.2593,-0.071321
45.420,75.2593,-0.071321
45.452,75.2593,-0.071321
45.484,75.2593,-0.071321
45.514,75.2593,-0.071321
45.545,75.2593,-0.071321
45.576,75.2593,-0.067849
45.607,75.2593,-0.067849
45.638,75.2593,-0.067849
45.671,75.2593,-0.067849
45.702,75.2593,-0.067849
45.732,75.2593,-0.067849
45.763,75.2593,-0.067849
45.794,75.2593,-0.067849
45.825,75.2593,-0.065374
45.857,75.2593,-0.065374
45.888,75.2593,-0.065374
45.920,75.2593,-0.065374
45.950,75.2593,-0.065374
45.982,75.2593,-0.065374
46.012,75.2593,-0.065374
46.043,75.2593,-0.065374
46.074,75.2593,-0.063379
46.105,75.2593,-0.063379
46.135,75.2593,-0.063379
46.168,75.2593,-0.063379
46.197,75.2593,-0.063379
46.228,75.2593,-0.063379
46.259,75.2593,-0.063379
46.289,75.2593,-0.063379
46.321,75.2593,-0.061694
46.352,75.2593,-0.061694
46.384,75.2593,-0.061694
46.415,75.2593,-0.061694
46.445,75.2593,-0.061694
46.476,75.2593,-0.061694
46.506,75.2593,-0.061694
46.538,75.2593,-0.060208
46.569,75.2593,-0.060208
46.600,75.2593,-0.060208
46.632,75.2593,-0.060208
46.663,75.2593,-0.060208
46.694,75.2593,-0.060208
46.724,75.2593,-0.060208
46.756,75.2593,-0.060208
46.786,75.2593,-0.058984
46.816,75.2593,-0.058984
46.847,75.2593,-0.058984
46.878,75.2593,-0.058984
46.908,75.2593,-0.058984
46.941,75.2593,-0.058984
46.970,75.2593,-0.058984
47.000,75.2593,-0.058984
47.033,75.2593,-0.058984
47.061,75.2593,-0.058984
47.095,75.2593,-0.057930
47.122,75.2593,-0.057930
47.157,75.2593,-0.057930
47.185,75.2593,-0.057930
47.218,75.2593,-0.057930
47.247,75.2593,-0.057930
47.278,75.2593,-0.057930
47.309,75.2593,-0.057930
47.340,75.2593,-0.057018
47.370,75.2593,-0.057018
47.402,75.2593,-0.057018
47.432,75.2593,-0.057018
47.463,75.2593,-0.057018
47.495,75.2593,-0.057018
47.525,75.2593,-0.057018
47.556,75.2593,-0.056161
47.587,75.2593,-0.056161
47.618,75.2593,-0.056161
47.648,75.2593,-0.056161
47.679,75.2593,-0.056161
47.711,75.2593,-0.056161
47.742,75.2593,-0.056161
47.774,75.2593,-0.056161
47.805,75.2593,-0.055352
47.836,75.2593,-0.055352
47.867,75.2593,-0.055352
47.898,75.2593,-0.055352
47.929,75.2593,-0.055352
47.961,75.2593,-0.055352
47.991,75.2593,-0.055352
48.023,75.2593,-0.055352
48.054,75.2593,-0.054608
48.084,75.2593,-0.054608
48.116,75.2593,-0.054608
48.147,75.2593,-0.054608
48.178,75.2593,-0.054608
48.209,75.2593,-0.054608
48.239,75.2593,-0.054608
48.270,75.2593,-0.054608
48.302,75.2593,-0.053931
48.333,75.2593,-0.053931
48.364,75.2593,-0.053931
48.395,75.2593,-0.053931
48.426,75.2593,-0.053931
48.458,75.2593,-0.053931
48.488,75.2593,-0.053931
48.520,75.2593,-0.053931
48.550,75.2593,-0.053338
48.580,75.2593,-0.053338
48.611,75.2593,-0.053338
48.644,75.2593,-0.053338
48.673,75.2593,-0.053338
48.705,75.2593,-0.053338
48.736,75.2593,-0.053338
48.768,75.2593,-0.053338
48.798,75.2593,-0.052717
48.829,75.2593,-0.052717
48.860,75.2593,-0.052717
48.893,75.2593,-0.052717
48.923,75.2593,-0.052717
48.953,75.2593,-0.052717
48.984,75.2593,-0.052717
49.015,75.2589,-0.052717
49.046,75.2578,-0.052717
49.078,75.2559,-0.052190
49.109,75.2535,-0.052190
49.141,75.2500,-0.052190
49.171,75.2460,-0.052190
49.203,75.2412,-0.052190
49.234,75.2357,-0.052190
49.265,75.2293,-0.052190
49.296,75.2226,-0.050007
49.326,75.2148,-0.050007
49.357,75.2067,-0.050007
49.387,75.1978,-0.050007
49.419,75.1878,-0.050007
49.449,75.1772,-0.050007
49.480,75.1658,-0.050007
49.511,75.1541,-0.050007
49.542,75.1417,-0.039091
49.573,75.1277,-0.039091
49.604,75.1139,-0.039091
49.635,75.0987,-0.039091
49.666,75.0834,-0.039091
49.699,75.0662,-0.039091
49.728,75.0498,-0.039091
49.760,75.0316,-0.039091
49.791,75.0131,-0.020449
49.822,74.9935,-0.020449
49.853,74.9735,-0.020449
49.884,74.9529,-0.020449
49.915,74.9316,-0.020449
49.946,74.9092,-0.020449
49.976,74.8868,-0.020449
50.007,74.8634,-0.020449
50.039,74.8381,-0.001421
50.070,74.8127,-0.001421
50.102,74.7858,-0.001421
50.133,74.7600,-0.001421
50.164,74.7327,-0.001421
50.196,74.7038,-0.001421
50.226,74.6759,-0.001421
50.257,74.6464,-0.001421
50.287,74.6163,0.014737
50.319,74.5845,0.014737
50.350,74.5528,0.014737
50.381,74.5212,0.014737
50.412,74.4874,0.014737
50.443,74.4537,0.014737
50.474,74.4194,0.014737
50.505,74.3826,0.014737
50.536,74.3480,0.014737
50.567,74.3106,0.014737
50.598,74.2732,0.025229
50.630,74.2342,0.025229
50.662,74.1928,0.025229
50.691,74.1563,0.025229
50.722,74.1164,0.025229
50.752,74.0756,0.025229
50.783,74.0336,0.025229
50.814,73.9920,0.031967
50.845,73.9492,0.031967
50.874,73.9059,0.031967
50.906,73.8617,0.031967
50.937,73.8154,0.031967
50.969,73.7688,0.031967
51.000,73.7205,0.031967
51.031,73.6748,0.031967
51.063,73.6275,0.038357
51.094,73.5803,0.038357
51.125,73.5340,0.038357
51.156,73.4867,0.038357
51.187,73.4409,0.038357
51.218,73.3950,0.038357
51.249,73.3481,0.038357
51.280,73.3019,0.038357
51.310,73.2552,0.043090
51.341,73.2083,0.043090
51.372,73.1638,0.043090
51.402,73.1176,0.043090
51.433,73.0715,0.043090
51.465,73.0248,0.043090
51.496,72.9766,0.043090
51.528,72.9304,0.043090
51.558,72.8836,0.044426
51.590,72.8361,0.044426
51.621,72.7897,0.044426
51.652,72.7447,0.044426
51.682,72.6980,0.044426
51.713,72.6528,0.044426
51.744,72.6059,0.044426
51.775,72.5585,0.029257
51.806,72.5127,0.029257
51.836,72.4655,0.029257
51.867,72.4217,0.029257
51.899,72.3724,0.029257
51.929,72.3272,0.029257
51.960,72.2807,0.029257
51.993,72.2317,0.029257
52.022,72.1888,0.029257
52.055,72.1397,0.029257
52.084,72.0953,0.010860
52.115,72.0481,0.010860
52.148,71.9992,0.010860
52.177,71.9553,0.010860
52.209,71.9089,0.010860
52.239,71.8625,0.010860
52.271,71.8156,0.010860
52.301,71.7704,0.007152
52.332,71.7228,0.007152
52.363,71.6769,0.007152
52.394,71.6304,0.007152
52.425,71.5868,0.007152
52.456,71.5416,0.007152
52.486,71.4999,0.007152
52.517,71.4561,0.007152
52.548,71.4149,0.006606
52.579,71.3721,0.006606
52.610,71.3320,0.006606
52.641,71.2915,0.006606
52.671,71.2538,0.006606
52.702,71.2156,0.006606
52.734,71.1767,0.006606
52.765,71.1387,0.006606
52.796,71.1024,0.006418
52.829,71.0641,0.006418
52.858,71.0313,0.006418
52.889,70.9980,0.006418
52.919,70.9644,0.006418
52.950,70.9327,0.006418
52.980,70.9012,0.006418
53.011,70.8697,0.006418
53.042,70.8401,0.006361
53.072,70.8098,0.006361
53.104,70.7807,0.006361
53.138,70.7485,0.006361
53.166,70.7241,0.006361
53.197,70.6973,0.006361
53.228,70.6705,0.006361
53.259,70.6450,0.006361
53.293,70.6177,0.006361
53.320,70.5969,0.006258
53.351,70.5739,0.006258
53.382,70.5511,0.006258
53.414,70.5283,0.006258
53.444,70.5083,0.006258
53.475,70.4872,0.006258
53.506,70.4678,0.006258
53.537,70.4483,0.006258
53.568,70.4302,0.006220
53.599,70.4123,0.006220
53.630,70.3958,0.006220
53.662,70.3793,0.006220
53.693,70.3642,0.006220
53.723,70.3499,0.006220
53.754,70.3360,0.006220
53.790,70.3202,0.006220
53.816,70.3100,0.006145
53.848,70.2982,0.006145
53.878,70.2872,0.006145
53.909,70.2770,0.006145
53.940,70.2677,0.006145
53.971,70.2588,0.006145
54.002,70.2507,0.006145
54.033,70.2432,0.006145
54.064,70.2367,0.005976
54.094,70.2309,0.005976
54.125,70.2257,0.005976
54.156,70.2210,0.005976
54.186,70.2174,0.005976
54.217,70.2143,0.005976
54.249,70.2119,0.005976
54.280,70.2103,0.005976
54.311,70.2094,0.005900
54.342,70.2093,0.005900
54.373,70.2093,0.005900
54.403,70.2093,0.005900
54.435,70.2093,0.005900
54.466,70.2093,0.005900
54.497,70.2093,0.005900
54.528,70.2093,0.005900
54.559,70.2093,0.005976
54.591,70.2098,0.005976
54.623,70.2112,0.005976
54.652,70.2130,0.005976
54.683,70.2157,0.005976
54.714,70.2191,0.005976
54.749,70.2238,0.005976
54.776,70.2280,0.005976
54.808,70.2339,0.005891
54.839,70.2403,0.005891
54.873,70.2482,0.005891
54.901,70.2551,0.005891
54.932,70.2637,0.005891
54.964,70.2730,0.005891
54.995,70.2832,0.005891
55.025,70.2936,0.005891
55.056,70.3050,0.005731
55.086,70.3169,0.005731
55.117,70.3297,0.005731
55.148,70.3434,0.005731
55.180,70.3579,0.005731
55.209,70.3724,0.005731
55.241,70.3883,0.005731
55.271,70.4046,0.005731
55.303,70.4222,0.005637
55.333,70.4397,0.005637
55.364,70.4580,0.005637
55.395,70.4773,0.005637
55.426,70.4973,0.005637
55.457,70.5185,0.005637
55.491,70.5422,0.005637
55.518,70.5616,0.005637
55.550,70.5852,0.005505
55.580,70.6083,0.005505
55.612,70.6336,0.005505
55.643,70.6584,0.005505
55.675,70.6864,0.005505
55.704,70.7107,0.005505
55.738,70.7402,0.005505
55.768,70.7676,0.005505
55.798,70.7962,0.005505
55.829,70.8253,0.005364
55.859,70.8550,0.005364
55.891,70.8861,0.005364
55.921,70.9177,0.005364
55.953,70.9510,0.005364
55.983,70.9836,0.005364
56.014,71.0167,0.005364
56.045,71.0515,0.005364
56.077,71.0880,0.005110
56.108,71.1235,0.005110
56.138,71.1599,0.005110
56.171,71.1993,0.005110
56.200,71.2361,0.005110
56.231,71.2747,0.005110
56.262,71.3143,0.005110
56.293,71.3545,0.005110
56.324,71.3958,0.004903
56.354,71.4370,0.004903
56.386,71.4805,0.004903
56.416,71.5237,0.004903
56.447,71.5672,0.004903
56.478,71.6125,0.004903
56.510,71.6586,0.004903
56.540,71.7042,0.004903
56.572,71.7507,0.004611
56.607,71.8042,0.004611
56.634,71.8450,0.004611
56.664,71.8898,0.004611
56.695,71.9374,0.004611
56.727,71.9843,0.004611
56.757,72.0290,0.004611
56.788,72.0758,0.004611
56.819,72.1215,0.004263
56.852,72.1709,0.004263
56.881,72.2149,0.004263
56.912,72.2621,0.004263
56.943,72.3078,0.004263
56.976,72.3585,0.004263
57.006,72.4023,0.004263
57.037,72.4488,0.004263
57.069,72.4962,0.003934
57.099,72.5421,0.003934
57.130,72.5891,0.003934
57.161,72.6352,0.003934
57.193,72.6831,0.003934
57.225,72.7308,0.003934
57.256,72.7767,0.003934
57.286,72.8232,0.003934
57.318,72.8694,0.003435
57.349,72.9164,0.003435
57.380,72.9622,0.003435
57.410,73.0083,0.003435
57.441,73.0541,0.003435
57.473,73.1026,0.003435
57.503,73.1479,0.003435
57.536,73.1976,0.003435
57.567,73.2429,0.002720
57.596,73.2876,0.002720
57.627,73.3347,0.002720
57.659,73.3822,0.002720
57.690,73.4289,0.002720
57.721,73.4756,0.002720
57.752,73.5213,0.002720
57.783,73.5674,0.002720
57.813,73.6131,0.001713
57.845,73.6612,0.001713
57.875,73.7066,0.001713
57.905,73.7512,0.001713
57.937,73.7984,0.001713
57.967,73.8413,0.001713
57.998,73.8870,0.001713
58.028,73.9281,0.001713
58.059,73.9720,-0.000188
58.089,74.0111,-0.000188
58.121,74.0534,-0.000188
58.153,74.0950,-0.000188
58.183,74.1338,-0.000188
58.212,74.1722,-0.000188
58.243,74.2092,-0.000188
58.273,74.2476,-0.000188
58.304,74.2838,-0.003792
58.336,74.3215,-0.003792
58.367,74.3571,-0.003792
58.398,74.3919,-0.003792
58.429,74.4252,-0.003792
58.460,74.4597,-0.003792
58.491,74.4918,-0.003792
58.522,74.5236,-0.003792
58.553,74.5543,-0.003792
58.583,74.5843,-0.010662
58.614,74.6144,-0.010662
58.644,74.6421,-0.010662
58.676,74.6713,-0.010662
58.707,74.6989,-0.010662
58.739,74.7268,-0.010662
58.770,74.7525,-0.010662
58.801,74.7779,-0.010662
58.831,74.8020,-0.022980
58.860,74.8248,-0.022980
58.892,74.8493,-0.022980
58.922,74.8705,-0.022980
58.952,74.8922,-0.022980
58.983,74.9131,-0.022980
59.016,74.9345,-0.022980
59.046,74.9533,-0.040164
59.078,74.9729,-0.040164
59.109,74.9911,-0.040164
59.140,75.0090,-0.040164
59.171,75.0252,-0.040164
59.201,75.0412,-0.040164
59.232,75.0566,-0.040164
59.264,75.0711,-0.040164
59.295,75.0853,-0.058156
59.330,75.0997,-0.058156
59.358,75.1108,-0.058156
59.389,75.1225,-0.058156
59.420,75.1335,-0.058156
59.450,75.1432,-0.058156
59.481,75.1526,-0.058156
59.511,75.1612,-0.058156
59.543,75.1692,-0.072771
59.574,75.1767,-0.072771
59.605,75.1831,-0.072771
59.636,75.1888,-0.072771
59.668,75.1940,-0.072771
59.698,75.1984,-0.072771
59.729,75.2020,-0.072771
59.761,75.2050,-0.072771
59.791,75.2071,-0.080581
59.821,75.2084,-0.080581
59.853,75.2092,-0.080581
59.883,75.2093,-0.080581
59.914,75.2093,-0.080581
59.946,75.2093,-0.080581
59.977,75.2093,-0.080581
60.008,75.2093,-0.080581
60.040,75.2093,-0.080581
60.070,75.2093,-0.079772
60.100,75.2093,-0.079772
60.130,75.2093,-0.079772
60.161,75.2093,-0.079772
60.193,75.2093,-0.079772
60.223,75.2093,-0.079772
60.255,75.2093,-0.079772
60.285,75.2093,-0.079772
60.317,75.2093,-0.074558
60.348,75.2093,-0.074558
60.382,75.2093,-0.074558
60.410,75.2093,-0.074558
60.441,75.2093,-0.074558
60.468,75.2093,-0.074558
60.504,75.2093,-0.074558
60.535,75.2093,-0.074558
60.566,75.2093,-0.070201
60.596,75.2093,-0.070201
60.630,75.2093,-0.070201
60.657,75.2093,-0.070201
60.688,75.2093,-0.070201
60.718,75.2093,-0.070201
60.749,75.2093,-0.070201
60.780,75.2093,-0.070201
60.811,75.2093,-0.067153
60.842,75.2093,-0.067153
60.876,75.2093,-0.067153
60.903,75.2093,-0.067153
60.936,75.2093,-0.067153
60.966,75.2093,-0.067153
60.997,75.2093,-0.067153
61.028,75.2093,-0.064838
61.059,75.2093,-0.064838
61.090,75.2093,-0.064838
61.121,75.2093,-0.064838
61.153,75.2093,-0.064838
61.184,75.2093,-0.064838
61.215,75.2093,-0.064838
61.246,75.2093,-0.064838
61.277,75.2093,-0.064838
61.308,75.2093,-0.062955
61.339,75.2093,-0.062955
61.371,75.2093,-0.062955
61.402,75.2093,-0.062955
61.433,75.2093,-0.062955
61.464,75.2093,-0.062955
61.495,75.2093,-0.062955
61.526,75.2093,-0.062955
61.557,75.2093,-0.061412
61.588,75.2093,-0.061412
61.620,75.2093,-0.061412
61.650,75.2093,-0.061412
61.681,75.2093,-0.061412
61.712,75.2093,-0.061412
61.744,75.2093,-0.061412
61.775,75.2093,-0.061412
61.805,75.2093,-0.061412
61.837,75.2093,-0.060085
61.866,75.2093,-0.060085
61.897,75.2093,-0.060085
61.928,75.2093,-0.060085
61.959,75.2093,-0.060085
61.996,75.2093,-0.060085
62.036,75.2093,-0.060085
62.068,75.2093,-0.060085
62.098,75.2093,-0.058956
62.130,75.2093,-0.058956
62.164,75.2093,-0.058956
62.192,75.2093,-0.058956
62.223,75.2093,-0.058956
62.254,75.2093,-0.058956
62.287,75.2093,-0.058956
62.315,75.2093,-0.057949
62.346,75.2093,-0.057949
62.377,75.2093,-0.057949
62.407,75.2093,-0.057949
62.438,75.2093,-0.057949
62.469,75.2093,-0.057949
62.500,75.2093,-0.057949
62.531,75.2093,-0.057949
62.562,75.2093,-0.056989
62.593,75.2093,-0.056989
62.624,75.2093,-0.056989
62.655,75.2093,-0.056989
62.687,75.2093,-0.056989
62.718,75.2093,-0.056989
62.749,75.2093,-0.056989
62.780,75.2093,-0.056989
62.814,75.2093,-0.056208
62.841,75.2093,-0.056208
62.872,75.2093,-0.056208
62.904,75.2093,-0.056208
62.934,75.2093,-0.056208
62.966,75.2093,-0.056208
62.996,75.2093,-0.056208
63.030,75.2093,-0.056208
63.057,75.2093,-0.056208
63.088,75.2093,-0.055455
63.119,75.2093,-0.055455
63.150,75.2093,-0.055455
63.181,75.2093,-0.055455
63.212,75.2093,-0.055455
63.244,75.2093,-0.055455
63.275,75.2093,-0.055455
63.305,75.2093,-0.055455
63.336,75.2093,-0.054750
63.367,75.2093,-0.054750
63.399,75.2093,-0.054750
63.430,75.2093,-0.054750
63.461,75.2093,-0.054750
63.492,75.2093,-0.054750
63.523,75.2093,-0.054750
63.554,75.2093,-0.054750
63.585,75.2093,-0.054138
63.616,75.2093,-0.054138
63.647,75.2093,-0.054138
63.678,75.2093,-0.054138
63.711,75.2093,-0.054138
63.740,75.2093,-0.054138
63.772,75.2093,-0.054138
63.803,75.2093,-0.053460
63.834,75.2093,-0.053460
63.865,75.2093,-0.053460
63.897,75.2093,-0.053460
63.928,75.2093,-0.053460
63.960,75.2093,-0.053460
63.991,75.2093,-0.053460
64.023,75.2093,-0.053460
64.053,75.2093,-0.052839
64.085,75.2093,-0.052839
64.115,75.2093,-0.052839
64.146,75.2093,-0.052839
64.177,75.2093,-0.052839
64.208,75.2093,-0.052839
64.240,75.2093,-0.052839
64.270,75.2093,-0.052839
64.301,75.2091,-0.052839
64.331,75.2082,-0.052378
64.364,75.2064,-0.052378
64.395,75.2040,-0.052378
64.427,75.2006,-0.052378
64.457,75.1970,-0.052378
64.487,75.1926,-0.052378
64.519,75.1871,-0.052378
64.550,75.1810,-0.052378
64.582,75.1740,-0.051080
64.611,75.1669,-0.051080
64.642,75.1587,-0.051080
64.674,75.1495,-0.051080
64.705,75.1398,-0.051080
64.736,75.1294,-0.051080
64.767,75.1184,-0.051080
64.799,75.1062,-0.051080
64.829,75.0940,-0.041679
64.861,75.0803,-0.041679
64.892,75.0662,-0.041679
64.924,75.0507,-0.041679
64.955,75.0354,-0.041679
64.986,75.0187,-0.041679
65.017,75.0022,-0.041679
65.048,74.9838,-0.041679
65.079,74.9653,-0.023695
65.110,74.9469,-0.023695
65.141,74.9264,-0.023695
65.171,74.9062,-0.023695
65.202,74.8852,-0.023695
65.233,74.8632,-0.023695
65.263,74.8410,-0.023695
65.295,74.8166,-0.023695
65.325,74.7928,-0.004658
65.356,74.7686,-0.004658
65.387,74.7425,-0.004658
65.417,74.7169,-0.004658
65.448,74.6895,-0.004658
65.479,74.6624,-0.004658
65.511,74.6322,-0.004658
65.541,74.6047,0.012026
65.571,74.5745,0.012026
65.602,74.5443,0.012026
65.633,74.5134,0.012026
65.667,74.4768,0.012026
65.697,74.4462,0.012026
65.728,74.4127,0.012026
65.759,74.3777,0.012026
65.789,74.3432,0.012026
65.820,74.3069,0.012026
65.852,74.2706,0.023310
65.883,74.2327,0.023310
65.914,74.1945,0.023310
65.945,74.1562,0.023310
65.976,74.1155,0.023310
66.006,74.0770,0.023310
66.038,74.0350,0.023310
66.068,73.9946,0.029614
66.102,73.9470,0.029614
66.131,73.9080,0.029614
66.161,73.8653,0.029614
66.192,73.8215,0.029614
66.227,73.7690,0.029614
66.255,73.7283,0.029614
66.286,73.6806,0.035091
66.320,73.6297,0.035091
66.349,73.5861,0.035091
66.380,73.5404,0.035091
66.411,73.4923,0.035091
66.442,73.4468,0.035091
66.473,73.4005,0.035091
66.503,73.3558,0.035091
66.535,73.3073,0.035091
66.565,73.2629,0.035091
66.597,73.2157,0.040295
66.627,73.1701,0.040295
66.658,73.1217,0.040295
66.689,73.0766,0.040295
66.721,73.0297,0.040295
66.752,72.9818,0.040295
66.784,72.9348,0.040295
66.814,72.8896,0.042667
66.846,72.8422,0.042667
66.876,72.7954,0.042667
66.907,72.7499,0.042667
66.939,72.7030,0.042667
66.969,72.6568,0.042667
67.000,72.6111,0.042667
67.030,72.5649,0.042667
67.062,72.5172,0.029398
67.093,72.4715,0.029398
67.125,72.4234,0.029398
67.157,72.3740,0.029398
67.188,72.3282,0.029398
67.219,72.2825,0.029398
67.249,72.2356,0.029398
67.280,72.1890,0.029398
67.312,72.1418,0.011725
67.344,72.0946,0.011725
67.375,72.0482,0.011725
67.406,72.0017,0.011725
67.437,71.9548,0.011725
67.467,71.9097,0.011725
67.497,71.8643,0.011725
67.528,71.8166,0.011725
67.560,71.7695,0.007227
67.592,71.7213,0.007227
67.622,71.6762,0.007227
67.654,71.6299,0.007227
67.685,71.5837,0.007227
67.715,71.5402,0.007227
67.746,71.4949,0.007227
67.777,71.4520,0.007227
67.808,71.4091,0.006738
67.840,71.3654,0.006738
67.871,71.3233,0.006738
67.903,71.2820,0.006738
67.934,71.2404,0.006738
67.965,71.2022,0.006738
67.996,71.1629,0.006738
68.024,71.1297,0.006738
68.058,71.0885,0.006531
68.089,71.0513,0.006531
68.121,71.0157,0.006531
68.151,70.9806,0.006531
68.182,70.9472,0.006531
68.213,70.9130,0.006531
68.244,70.8809,0.006531
68.275,70.8491,0.006531
68.306,70.8175,0.006296
68.337,70.7872,0.006296
68.368,70.7567,0.006296
68.399,70.7278,0.006296
68.431,70.6992,0.006296
68.461,70.6724,0.006296
68.492,70.6445,0.006296
68.524,70.6180,0.006296
68.556,70.5917,0.006230
68.587,70.5672,0.006230
68.617,70.5430,0.006230
68.649,70.5202,0.006230
68.681,70.4969,0.006230
68.710,70.4756,0.006230
68.742,70.4549,0.006230
68.772,70.4348,0.006230
68.802,70.4157,0.006230
68.832,70.3971,0.006192
68.863,70.3787,0.006192
68.895,70.3607,0.006192
68.925,70.3445,0.006192
68.956,70.3282,0.006192
68.987,70.3131,0.006192
69.018,70.2985,0.006192
69.048,70.2851,0.006192
69.079,70.2719,0.006145
69.110,70.2599,0.006145
69.140,70.2482,0.006145
69.171,70.2372,0.006145
69.203,70.2268,0.006145
69.233,70.2171,0.006145
69.264,70.2084,0.006145
69.295,70.2005,0.006070
69.327,70.1929,0.006070
69.358,70.1862,0.006070
69.389,70.1804,0.006070
69.420,70.1752,0.006070
69.451,70.1707,0.006070
69.482,70.1670,0.006070
69.513,70.1640,0.006070
69.543,70.1618,0.006070
69.575,70.1603,0.005966
69.606,70.1594,0.005966
69.636,70.1593,0.005966
69.668,70.1593,0.005966
69.698,70.1593,0.005966
69.729,70.1593,0.005966
69.761,70.1594,0.005966
69.792,70.1603,0.005966
69.823,70.1618,0.005957
69.853,70.1640,0.005957
69.885,70.1671,0.005957
69.916,70.1708,0.005957
69.947,70.1753,0.005957
69.977,70.1804,0.005957
70.008,70.1864,0.005957
70.039,70.1927,0.005957
70.070,70.2001,0.005722
70.101,70.2083,0.005722
70.133,70.2172,0.005722
70.164,70.2267,0.005722
70.194,70.2370,0.005722
70.226,70.2481,0.005722
70.257,70.2599,0.005722
70.287,70.2721,0.005665
70.318,70.2848,0.005665
70.349,70.2993,0.005665
70.382,70.3145,0.005665
70.411,70.3290,0.005665
70.442,70.3451,0.005665
70.472,70.3616,0.005665
70.505,70.3800,0.005665
70.535,70.3979,0.005684
70.566,70.4163,0.005684
70.598,70.4370,0.005684
70.630,70.4577,0.005684
70.661,70.4798,0.005684
70.693,70.5016,0.005684
70.723,70.5238,0.005684
70.753,70.5465,0.005684
70.785,70.5718,0.005514
70.816,70.5959,0.005514
70.847,70.6223,0.005514
70.878,70.6478,0.005514
70.909,70.6756,0.005514
70.941,70.7037,0.005514
70.970,70.7304,0.005514
71.004,70.7631,0.005514
71.032,70.7894,0.005514
71.063,70.8200,0.005411
71.093,70.8506,0.005411
71.124,70.8826,0.005411
71.155,70.9159,0.005411
71.186,70.9496,0.005411
71.217,70.9838,0.005411
71.249,71.0188,0.005411
71.280,71.0546,0.005119
71.310,71.0905,0.005119
71.341,71.1278,0.005119
71.371,71.1643,0.005119
71.402,71.2026,0.005119
71.435,71.2448,0.005119
71.465,71.2836,0.005119
71.497,71.3263,0.005119
71.528,71.3663,0.005119
71.559,71.4095,0.004837
71.590,71.4525,0.004837
71.621,71.4974,0.004837
71.652,71.5409,0.004837
71.684,71.5883,0.004837
71.715,71.6323,0.004837
71.746,71.6807,0.004837
71.776,71.7250,0.004837
71.808,71.7729,0.004592
71.839,71.8184,0.004592
71.870,71.8664,0.004592
71.901,71.9120,0.004592
71.933,71.9604,0.004592
71.964,72.0063,0.004592
71.995,72.0539,0.004592
72.026,72.0995,0.004592
72.058,72.1480,0.004272
72.089,72.1940,0.004272
72.119,72.2392,0.004272
72.150,72.2852,0.004272
72.181,72.3325,0.004272
72.213,72.3806,0.004272
72.245,72.4275,0.004272
72.274,72.4721,0.004272
72.305,72.5180,0.004272
72.336,72.5643,0.003990
72.366,72.6103,0.003990
72.398,72.6569,0.003990
72.428,72.7030,0.003990
72.461,72.7533,0.003990
72.490,72.7949,0.003990
72.520,72.8409,0.003990
72.551,72.8868,0.003425
72.582,72.9348,0.003425
72.613,72.9799,0.003425
72.644,73.0260,0.003425
72.676,73.0747,0.003425
72.705,73.1195,0.003425
72.736,73.1651,0.003425
72.768,73.2118,0.003425
72.798,73.2582,0.003425
72.831,73.3074,0.002578
72.860,73.3501,0.002578
72.890,73.3966,0.002578
72.922,73.4438,0.002578
72.955,73.4938,0.002578
72.986,73.5402,0.002578
73.016,73.5856,0.002578
73.045,73.6290,0.002578
73.077,73.6751,0.001477
73.108,73.7228,0.001477
73.139,73.7675,0.001477
73.170,73.8130,0.001477
73.201,73.8571,0.001477
73.232,73.9001,0.001477
73.262,73.9404,0.001477
73.293,73.9823,0.001477
73.324,74.0233,-0.000772
73.356,74.0654,-0.000772
73.387,74.1049,-0.000772
73.417,74.1421,-0.000772
73.448,74.1802,-0.000772
73.480,74.2187,-0.000772
73.510,74.2543,-0.000772
73.542,74.2913,-0.004875
73.572,74.3263,-0.004875
73.604,74.3606,-0.004875
73.635,74.3941,-0.004875
73.666,74.4277,-0.004875
73.698,74.4606,-0.004875
73.728,74.4918,-0.004875
73.759,74.5218,-0.004875
73.790,74.5522,-0.012873
73.821,74.5810,-0.012873
73.852,74.6099,-0.012873
73.883,74.6383,-0.012873
73.913,74.6646,-0.012873
73.944,74.6913,-0.012873
73.975,74.7162,-0.012873
74.006,74.7415,-0.012873
74.037,74.7658,-0.026763
74.068,74.7899,-0.026763
74.100,74.8128,-0.026763
74.136,74.8383,-0.026763
74.162,74.8563,-0.026763
74.194,74.8775,-0.026763
74.227,74.8989,-0.026763
74.257,74.9173,-0.026763
74.289,74.9364,-0.026763
74.319,74.9533,-0.044605
74.350,74.9702,-0.044605
74.381,74.9863,-0.044605
74.412,75.0022,-0.044605
74.444,75.0171,-0.044605
74.475,75.0311,-0.044605
74.505,75.0441,-0.044605
74.536,75.0566,-0.044605
74.567,75.0687,-0.062174
74.598,75.0798,-0.062174
74.630,75.0904,-0.062174
74.661,75.1002,-0.062174
74.691,75.1088,-0.062174
74.722,75.1172,-0.062174
74.753,75.1243,-0.062174
74.784,75.1310,-0.062174
74.815,75.1371,-0.075405
74.846,75.1426,-0.075405
74.877,75.1470,-0.075405
74.907,75.1509,-0.075405
74.938,75.1540,-0.075405
74.969,75.1565,-0.075405
75.000,75.1581,-0.075405
75.031,75.1591,-0.075405
75.062,75.1593,-0.081193
75.093,75.1593,-0.081193
75.124,75.1593,-0.081193
75.155,75.1593,-0.081193
75.187,75.1593,-0.081193
75.217,75.1593,-0.081193
75.248,75.1593,-0.081193
75.280,75.1593,-0.081193
75.310,75.1593,-0.078699
75.342,75.1593,-0.078699
75.373,75.1593,-0.078699
75.404,75.1593,-0.078699
75.435,75.1593,-0.078699
75.466,75.1593,-0.078699
75.497,75.1593,-0.078699
75.523,75.1593,-0.078699
75.560,75.1593,-0.073147
75.590,75.1593,-0.073147
75.621,75.1593,-0.073147
75.652,75.1593,-0.073147
75.684,75.1593,-0.073147
75.715,75.1593,-0.073147
75.745,75.1593,-0.073147
75.776,75.1593,-0.073147
75.808,75.1593,-0.069213
75.839,75.1593,-0.069213
75.870,75.1593,-0.069213
75.902,75.1593,-0.069213
75.933,75.1593,-0.069213
75.964,75.1593,-0.069213
75.995,75.1593,-0.069213
76.026,75.1593,-0.069213
76.056,75.1593,-0.066362
76.088,75.1593,-0.066362
76.118,75.1593,-0.066362
76.149,75.1593,-0.066362
76.181,75.1593,-0.066362
76.212,75.1593,-0.066362
76.243,75.1593,-0.066362
76.274,75.1593,-0.066362
76.306,75.1593,-0.066362
76.337,75.1593,-0.064179
76.368,75.1593,-0.064179
76.398,75.1593,-0.064179
76.430,75.1593,-0.064179
76.461,75.1593,-0.064179
76.496,75.1593,-0.064179
76.523,75.1593,-0.064179
76.554,75.1593,-0.064179
76.585,75.1593,-0.064179
76.616,75.1593,-0.062513
76.646,75.1593,-0.062513
76.680,75.1593,-0.062513
76.708,75.1593,-0.062513
76.740,75.1593,-0.062513
76.771,75.1593,-0.062513
76.803,75.1593,-0.062513
76.832,75.1593,-0.061026
76.864,75.1593,-0.061026
76.893,75.1593,-0.061026
76.924,75.1593,-0.061026
76.956,75.1593,-0.061026
76.986,75.1593,-0.061026
77.017,75.1593,-0.061026
77.048,75.1593,-0.061026
77.080,75.1593,-0.059775
77.109,75.1593,-0.059775
77.140,75.1593,-0.059775
77.172,75.1593,-0.059775
77.203,75.1593,-0.059775
77.234,75.1593,-0.059775
77.265,75.1593,-0.059775
77.296,75.1593,-0.059775
77.327,75.1593,-0.058664
77.357,75.1593,-0.058664
77.389,75.1593,-0.058664
77.420,75.1593,-0.058664
77.451,75.1593,-0.058664
77.483,75.1593,-0.058664
77.514,75.1593,-0.058664
77.545,75.1593,-0.058664
77.576,75.1593,-0.057582
77.607,75.1593,-0.057582
77.638,75.1593,-0.057582
77.669,75.1593,-0.057582
77.700,75.1593,-0.057582
77.731,75.1593,-0.057582
77.762,75.1593,-0.057582
77.792,75.1593,-0.057582
77.824,75.1593,-0.056698
77.855,75.1593,-0.056698
77.886,75.1593,-0.056698
77.917,75.1593,-0.056698
77.949,75.1593,-0.056698
77.980,75.1593,-0.056698
78.011,75.1593,-0.056698
78.042,75.1593,-0.056698
78.074,75.1593,-0.055945
78.105,75.1593,-0.055945
78.137,75.1593,-0.055945
78.168,75.1593,-0.055945
78.198,75.1593,-0.055945
78.229,75.1593,-0.055945
78.261,75.1593,-0.055945
78.292,75.1593,-0.055945
78.322,75.1593,-0.055239
78.352,75.1593,-0.055239
78.384,75.1593,-0.055239
78.414,75.1593,-0.055239
78.444,75.1593,-0.055239
78.475,75.1593,-0.055239
78.507,75.1593,-0.055239
78.536,75.1593,-0.054561
78.568,75.1593,-0.054561
78.599,75.1593,-0.054561
78.631,75.1593,-0.054561
78.661,75.1593,-0.054561
78.692,75.1593,-0.054561
78.723,75.1593,-0.054561
78.757,75.1593,-0.054561
78.784,75.1593,-0.054561
78.816,75.1593,-0.053940
78.847,75.1593,-0.053940
78.878,75.1593,-0.053940
78.908,75.1593,-0.053940
78.946,75.1593,-0.053940
78.986,75.1593,-0.053940
79.018,75.1593,-0.053940
79.049,75.1593,-0.053319
79.080,75.1593,-0.053319
79.111,75.1593,-0.053319
79.143,75.1593,-0.053319
79.173,75.1593,-0.053319
79.205,75.1593,-0.053319
79.234,75.1593,-0.053319
79.265,75.1593,-0.053319
79.296,75.1593,-0.052642
79.328,75.1588,-0.052642
79.359,75.1576,-0.052642
79.389,75.1557,-0.052642
79.420,75.1530,-0.052642
79.452,75.1495,-0.052642
79.482,75.1456,-0.052642
79.514,75.1405,-0.052642
79.546,75.1348,-0.051616
79.578,75.1282,-0.051616
79.607,75.1216,-0.051616
79.638,75.1138,-0.051616
79.672,75.1044,-0.051616
79.701,75.0959,-0.051616
79.733,75.0854,-0.051616
79.765,75.0746,-0.051616
79.796,75.0631,-0.042789
79.827,75.0507,-0.042789
79.856,75.0386,-0.042789
79.887,75.0251,-0.042789
79.918,75.0109,-0.042789
79.949,74.9959,-0.042789
79.981,74.9796,-0.042789
80.012,74.9629,-0.042789
80.043,74.9455,-0.025098
80.074,74.9278,-0.025098
80.106,74.9084,-0.025098
80.137,74.8887,-0.025098
80.167,74.8695,-0.025098
80.198,74.8484,-0.025098
80.229,74.8264,-0.025098
80.260,74.8044,-0.025098
80.290,74.7817,-0.006145
80.321,74.7586,-0.006145
80.352,74.7334,-0.006145
80.384,74.7080,-0.006145
80.414,74.6824,-0.006145
80.444,74.6563,-0.006145
80.476,74.6278,-0.006145
80.508,74.5995,-0.006145
80.538,74.5706,0.010747
80.569,74.5411,0.010747
80.602,74.5089,0.010747
80.631,74.4804,0.010747
80.662,74.4488,0.010747
80.693,74.4157,0.010747
80.725,74.3816,0.010747
80.756,74.3477,0.010747
80.786,74.3141,0.010747
80.817,74.2781,0.022463
80.847,74.2435,0.022463
80.878,74.2063,0.022463
80.909,74.1687,0.022463
80.941,74.1296,0.022463
80.971,74.0911,0.022463
81.002,74.0517,0.022463
81.035,74.0079,0.022463
81.064,73.9698,0.029163
81.094,73.9290,0.029163
81.125,73.8870,0.029163
81.157,73.8423,0.029163
81.187,73.7990,0.029163
81.218,73.7544,0.029163
81.250,73.7086,0.029163
81.286,73.6537,0.029163
81.312,73.6146,0.034593
81.343,73.5686,0.034593
81.374,73.5215,0.034593
81.400,73.4819,0.034593
81.437,73.4277,0.034593
81.467,73.3814,0.034593
81.498,73.3358,0.034593
81.529,73.2894,0.034593
81.560,73.2440,0.039674
81.591,73.1974,0.039674
81.622,73.1496,0.039674
81.653,73.1029,0.039674
81.685,73.0559,0.039674
81.716,73.0086,0.039674
81.747,72.9632,0.039674
81.778,72.9161,0.039674
81.809,72.8691,0.042206
81.840,72.8228,0.042206
81.872,72.7743,0.042206
81.910,72.7178,0.042206
81.950,72.6576,0.042206
81.980,72.6126,0.042206
82.014,72.5618,0.042206
82.043,72.5189,0.042206
82.074,72.4709,0.030189
82.105,72.4255,0.030189
82.138,72.3755,0.030189
82.167,72.3323,0.030189
82.200,72.2819,0.030189
82.229,72.2393,0.030189
82.262,72.1907,0.030189
82.292,72.1458,0.012704
82.324,72.0969,0.012704
82.354,72.0524,0.012704
82.385,72.0059,0.012704
82.416,71.9593,0.012704
82.448,71.9106,0.012704
82.479,71.8640,0.012704
82.510,71.8179,0.012704
82.541,71.7719,0.012704
82.571,71.7252,0.007302
82.602,71.6796,0.007302
82.632,71.6344,0.007302
82.663,71.5892,0.007302
82.693,71.5427,0.007302
82.724,71.4991,0.007302
82.756,71.4524,0.007302
82.785,71.4113,0.006860
82.816,71.3676,0.006860
82.847,71.3260,0.006860
82.877,71.2845,0.006860
82.908,71.2444,0.006860
82.940,71.2032,0.006860
82.970,71.1648,0.006860
83.002,71.1245,0.006860
83.032,71.0875,0.006860
83.064,71.0491,0.006568
83.095,71.0125,0.006568
83.126,70.9764,0.006568
83.157,70.9413,0.006568
83.189,70.9057,0.006568
83.221,70.8711,0.006568
83.252,70.8374,0.006568
83.284,70.8055,0.006568
83.316,70.7721,0.006568
83.347,70.7420,0.006361
83.379,70.7113,0.006361
83.410,70.6817,0.006361
83.440,70.6535,0.006361
83.470,70.6270,0.006361
83.501,70.6001,0.006361
83.531,70.5744,0.006361
83.563,70.5481,0.006305
83.593,70.5242,0.006305
83.625,70.4994,0.006305
83.655,70.4767,0.006305
83.686,70.4537,0.006305
83.717,70.4318,0.006305
83.748,70.4105,0.006305
83.779,70.3900,0.006305
83.809,70.3703,0.006211
83.841,70.3511,0.006211
83.873,70.3322,0.006211
83.904,70.3138,0.006211
83.935,70.2974,0.006211
83.966,70.2810,0.006211
83.997,70.2656,0.006211
84.028,70.2512,0.006211
84.059,70.2366,0.006136
84.091,70.2234,0.006136
84.121,70.2110,0.006136
84.152,70.1990,0.006136
84.184,70.1878,0.006136
84.216,70.1774,0.006136
84.246,70.1677,0.006136
84.277,70.1592,0.006136
84.309,70.1506,0.006079
84.340,70.1433,0.006079
84.371,70.1365,0.006079
84.402,70.1307,0.006079
84.434,70.1255,0.006079
84.464,70.1210,0.006079
84.496,70.1173,0.006079
84.526,70.1142,0.006079
84.558,70.1119,0.005966
84.590,70.1103,0.005966
84.621,70.1095,0.005966
84.653,70.1093,0.005966
84.684,70.1093,0.005966
84.715,70.1093,0.005966
84.746,70.1093,0.005966
84.777,70.1093,0.005966
84.807,70.1093,0.005966
84.838,70.1098,0.005966
84.870,70.1109,0.005966
84.900,70.1128,0.005966
84.932,70.1154,0.005966
84.963,70.1189,0.005966
84.994,70.1229,0.005966
85.025,70.1277,0.005966
85.056,70.1333,0.005919
85.086,70.1395,0.005919
85.118,70.1464,0.005919
85.149,70.1542,0.005919
85.180,70.1629,0.005919
85.210,70.1717,0.005919
85.241,70.1814,0.005919
85.272,70.1919,0.005919
85.302,70.2032,0.005844
85.334,70.2154,0.005844
85.364,70.2278,0.005844
85.395,70.2414,0.005844
85.426,70.2556,0.005844
85.457,70.2708,0.005844
85.488,70.2861,0.005844
85.519,70.3029,0.005844
85.550,70.3196,0.005750
85.582,70.3382,0.005750
85.613,70.3565,0.005750
85.644,70.3766,0.005750
85.675,70.3961,0.005750
85.706,70.4169,0.005750
85.737,70.4382,0.005750
85.767,70.4602,0.005750
85.798,70.4831,0.005750
85.829,70.5071,0.005590
85.861,70.5314,0.005590
85.892,70.5566,0.005590
85.922,70.5820,0.005590
85.954,70.6095,0.005590
85.985,70.6367,0.005590
86.016,70.6651,0.005590
86.047,70.6939,0.005458
86.077,70.7232,0.005458
86.108,70.7529,0.005458
86.139,70.7835,0.005458
86.170,70.8156,0.005458
86.202,70.8494,0.005458
86.233,70.8813,0.005458
86.265,70.9166,0.005458
86.295,70.9502,0.005270
86.326,70.9863,0.005270
86.357,71.0215,0.005270
86.388,71.0586,0.005270
86.419,71.0958,0.005270
86.450,71.1336,0.005270
86.481,71.1728,0.005270
86.512,71.2126,0.005270
86.543,71.2534,0.005053
86.574,71.2952,0.005053
86.605,71.3364,0.005053
86.636,71.3798,0.005053
86.667,71.4227,0.005053
86.699,71.4681,0.005053
86.729,71.5115,0.005053
86.761,71.5585,0.005053
86.793,71.6058,0.004733
86.824,71.6531,0.004733
86.855,71.6987,0.004733
86.886,71.7457,0.004733
86.917,71.7912,0.004733
86.948,71.8400,0.004733
86.979,71.8856,0.004733
87.010,71.9324,0.004733
87.041,71.9785,0.004395
87.071,72.0238,0.004395
87.103,72.0716,0.004395
87.133,72.1155,0.004395
87.164,72.1634,0.004395
87.196,72.2112,0.004395
87.227,72.2579,0.004395
87.260,72.3072,0.004395
87.289,72.3509,0.004028
87.321,72.3983,0.004028
87.352,72.4440,0.004028
87.382,72.4900,0.004028
87.414,72.5367,0.004028
87.445,72.5846,0.004028
87.476,72.6302,0.004028
87.506,72.6761,0.004028
87.537,72.7226,0.003557
87.568,72.7680,0.003557
87.599,72.8142,0.003557
87.630,72.8612,0.003557
87.660,72.9066,0.003557
87.692,72.9549,0.003557
87.723,73.0006,0.003557
87.754,73.0471,0.003557
87.785,73.0938,0.003557
87.818,73.1437,0.002880
87.846,73.1861,0.002880
87.877,73.2321,0.002880
87.911,73.2843,0.002880
87.938,73.3240,0.002880
87.970,73.3718,0.002880
88.001,73.4194,0.002880
88.033,73.4654,0.002880
88.064,73.5130,0.001750
88.097,73.5628,0.001750
88.125,73.6042,0.001750
88.156,73.6512,0.001750
88.187,73.6971,0.001750
88.218,73.7425,0.001750
88.249,73.7851,0.001750
88.280,73.8294,0.001750
88.311,73.8722,0.001750
88.342,73.9154,-0.000122
88.373,73.9547,-0.000122
88.403,73.9940,-0.000122
88.434,74.0350,-0.000122
88.465,74.0730,-0.000122
88.496,74.1126,-0.000122
88.526,74.1488,-0.000122
88.557,74.1865,-0.003538
88.588,74.2220,-0.003538
88.619,74.2578,-0.003538
88.650,74.2928,-0.003538
88.681,74.3264,-0.003538
88.711,74.3597,-0.003538
88.744,74.3932,-0.003538
88.774,74.4245,-0.003538
88.804,74.4549,-0.003538
88.835,74.4856,-0.010295
88.867,74.5156,-0.010295
88.898,74.5458,-0.010295
88.930,74.5736,-0.010295
88.960,74.6008,-0.010295
88.990,74.6271,-0.010295
89.022,74.6538,-0.010295
89.054,74.6797,-0.010295
89.084,74.7034,-0.022651
89.115,74.7273,-0.022651
89.146,74.7508,-0.022651
89.177,74.7739,-0.022651
89.209,74.7959,-0.022651
89.239,74.8161,-0.022651
89.271,74.8371,-0.022651
89.301,74.8561,-0.022651
89.332,74.8752,-0.039881
89.363,74.8930,-0.039881
89.394,74.9105,-0.039881
89.425,74.9269,-0.039881
89.457,74.9434,-0.039881
89.486,74.9578,-0.039881
89.518,74.9732,-0.039881
89.549,74.9863,-0.057959
89.581,74.9996,-0.057959
89.612,75.0119,-0.057959
89.643,75.0238,-0.057959
89.674,75.0344,-0.057959
89.705,75.0443,-0.057959
89.736,75.0538,-0.057959
89.767,75.0623,-0.057959
89.798,75.0703,-0.057959
89.829,75.0775,-0.072620
89.861,75.0840,-0.072620
89.892,75.0897,-0.072620
89.923,75.0948,-0.072620
89.954,75.0989,-0.072620
89.986,75.1025,-0.072620
90.017,75.1054,-0.072620
90.047,75.1074,-0.072620
90.078,75.1087,-0.080496
90.108,75.1093,-0.080496
90.140,75.1093,-0.080496
90.170,75.1093,-0.080496
90.201,75.1093,-0.080496
90.232,75.1093,-0.080496
90.262,75.1093,-0.080496
90.293,75.1093,-0.079715
90.324,75.1093,-0.079715
90.355,75.1093,-0.079715
90.386,75.1093,-0.079715
90.417,75.1093,-0.079715
90.448,75.1093,-0.079715
90.480,75.1093,-0.079715
90.511,75.1093,-0.079715
90.541,75.1093,-0.079715
90.572,75.1093,-0.074370
90.604,75.1093,-0.074370
90.634,75.1093,-0.074370
90.665,75.1093,-0.074370
90.695,75.1093,-0.074370
