Elapsed Time (s),Position (mm),Force (N)
-0.015,80.8882,0.003651
0.016,80.8882,0.003651
0.048,80.8882,0.003651
0.078,80.8882,0.003651
0.108,80.8882,0.003651
0.140,80.8882,0.003651
0.172,80.8882,0.003651
0.203,80.8882,0.003651
0.235,80.8882,0.003651
0.266,80.8882,0.003651
0.297,80.8882,0.003651
0.328,80.8882,0.003670
0.359,80.8882,0.003670
0.390,80.8882,0.003670
0.421,80.8882,0.003670
0.453,80.8882,0.003670
0.483,80.8882,0.003670
0.514,80.8882,0.003670
0.546,80.8882,0.003670
0.577,80.8882,0.003651
0.609,80.8882,0.003651
0.640,80.8882,0.003651
0.671,80.8882,0.003651
0.703,80.8882,0.003651
0.733,80.8882,0.003651
0.764,80.8882,0.003651
0.794,80.8882,0.003651
0.825,80.8882,0.003642
0.856,80.8882,0.003642
0.887,80.8882,0.003642
0.919,80.8882,0.003642
0.950,80.8882,0.003642
0.979,80.8882,0.003642
1.010,80.8882,0.003642
1.042,80.8882,0.003642
1.072,80.8882,0.003623
1.104,80.8882,0.003623
1.135,80.8882,0.003623
1.166,80.8882,0.003623
1.198,80.8882,0.003623
1.229,80.8882,0.003623
1.260,80.8882,0.003623
1.292,80.8882,0.003623
1.323,80.8882,0.003585
1.353,80.8882,0.003585
1.385,80.8882,0.003585
1.415,80.8882,0.003585
1.447,80.8882,0.003585
1.477,80.8882,0.003585
1.508,80.8882,0.003585
1.540,80.8882,0.003585
1.570,80.8882,0.003632
1.601,80.8882,0.003632
1.632,80.8882,0.003632
1.663,80.8882,0.003632
1.695,80.8882,0.003632
1.726,80.8882,0.003632
1.758,80.8882,0.003632
1.789,80.8882,0.003632
1.820,80.8882,0.003632
1.850,80.8882,0.003698
1.881,80.8882,0.003698
1.913,80.8882,0.003698
1.944,80.8882,0.003698
1.975,80.8882,0.003698
2.006,80.8882,0.003698
2.037,80.8882,0.003698
2.067,80.8882,0.003698
2.098,80.8882,0.003698
2.130,80.8882,0.003679
2.161,80.8882,0.003679
2.191,80.8882,0.003679
2.222,80.8882,0.003679
2.253,80.8882,0.003679
2.285,80.8882,0.003679
2.317,80.8882,0.003679
2.348,80.8882,0.003689
2.380,80.8882,0.003689
2.411,80.8882,0.003689
2.443,80.8882,0.003689
2.474,80.8882,0.003689
2.505,80.8882,0.003689
2.536,80.8882,0.003689
2.567,80.8882,0.003689
2.597,80.8882,0.003698
2.629,80.8882,0.003698
2.660,80.8882,0.003698
2.691,80.8882,0.003698
2.723,80.8882,0.003698
2.754,80.8882,0.003698
2.785,80.8882,0.003698
2.816,80.8882,0.003698
2.847,80.8882,0.003651
2.878,80.8882,0.003651
2.908,80.8882,0.003651
2.940,80.8882,0.003651
2.971,80.8882,0.003651
3.003,80.8882,0.003651
3.036,80.8882,0.003651
3.067,80.8882,0.003651
3.098,80.8882,0.003613
3.128,80.8882,0.003613
3.161,80.8882,0.003613
3.190,80.8882,0.003613
3.221,80.8882,0.003613
3.252,80.8882,0.003613
3.282,80.8882,0.003613
3.313,80.8882,0.003613
3.344,80.8882,0.003642
3.375,80.8882,0.003642
3.406,80.8882,0.003642
3.436,80.8882,0.003642
3.468,80.8882,0.003642
3.498,80.8882,0.003642
3.529,80.8882,0.003642
3.561,80.8882,0.003642
3.592,80.8882,0.003632
3.623,80.8882,0.003632
3.655,80.8882,0.003632
3.686,80.8882,0.003632
3.717,80.8882,0.003632
3.747,80.8882,0.003632
3.777,80.8882,0.003632
3.807,80.8882,0.003632
3.839,80.8882,0.003632
3.870,80.8882,0.003585
3.901,80.8882,0.003585
3.931,80.8882,0.003585
3.963,80.8882,0.003585
3.993,80.8882,0.003585
4.024,80.8882,0.003585
4.056,80.8882,0.003623
4.087,80.8882,0.003623
4.118,80.8882,0.003623
4.149,80.8882,0.003623
4.180,80.8882,0.003623
4.211,80.8877,0.003623
4.241,80.8865,0.003623
4.273,80.8845,0.003623
4.303,80.8819,0.003623
4.336,80.8782,0.003632
4.365,80.8742,0.003632
4.396,80.8695,0.003632
4.426,80.8640,0.003632
4.457,80.8578,0.003632
4.488,80.8519,0.003632
4.518,80.8455,0.003632
4.550,80.8395,0.003651
4.581,80.8333,0.003651
4.612,80.8269,0.003651
4.643,80.8209,0.003651
4.673,80.8145,0.003651
4.704,80.8085,0.003651
4.736,80.8023,0.003651
4.766,80.7961,0.003651
4.797,80.7900,0.003651
4.828,80.7838,0.003651
4.858,80.7777,0.003604
4.890,80.7714,0.003604
4.921,80.7652,0.003604
4.952,80.7591,0.003604
4.983,80.7525,0.003604
5.014,80.7466,0.003604
5.046,80.7402,0.003604
5.076,80.7339,0.003548
5.107,80.7278,0.003548
5.138,80.7218,0.003548
5.168,80.7157,0.003548
5.199,80.7095,0.003548
5.230,80.7033,0.003548
5.262,80.6971,0.003548
5.294,80.6905,0.003548
5.324,80.6846,0.003623
5.355,80.6782,0.003623
5.386,80.6718,0.003623
5.418,80.6657,0.003623
5.449,80.6595,0.003623
5.480,80.6533,0.003623
5.510,80.6474,0.003623
5.541,80.6410,0.003623
5.572,80.6351,0.003585
5.603,80.6288,0.003585
5.635,80.6224,0.003585
5.665,80.6164,0.003585
5.697,80.6100,0.003585
5.728,80.6036,0.003585
5.760,80.5973,0.003585
5.791,80.5910,0.003585
5.822,80.5850,0.003576
5.852,80.5790,0.003576
5.883,80.5728,0.003576
5.914,80.5665,0.003576
5.945,80.5603,0.003576
5.977,80.5541,0.003576
6.007,80.5479,0.003576
6.038,80.5418,0.003576
6.069,80.5356,0.003613
6.099,80.5295,0.003613
6.131,80.5233,0.003613
6.162,80.5169,0.003613
6.194,80.5107,0.003613
6.224,80.5045,0.003613
6.255,80.4983,0.003613
6.286,80.4921,0.003613
6.318,80.4856,0.003613
6.349,80.4797,0.003613
6.380,80.4734,0.003613
6.411,80.4672,0.003613
6.442,80.4611,0.003613
6.472,80.4549,0.003613
6.504,80.4487,0.003613
6.535,80.4422,0.003613
6.565,80.4363,0.003613
6.597,80.4299,0.003613
6.628,80.4237,0.003613
6.659,80.4175,0.003613
6.691,80.4112,0.003613
6.722,80.4049,0.003613
6.753,80.3987,0.003613
6.785,80.3924,0.003613
6.817,80.3860,0.003642
6.848,80.3798,0.003642
6.879,80.3735,0.003642
6.911,80.3672,0.003642
6.942,80.3611,0.003642
6.973,80.3548,0.003642
7.005,80.3485,0.003642
7.035,80.3424,0.003642
7.066,80.3361,0.003698
7.097,80.3300,0.003698
7.128,80.3237,0.003698
7.159,80.3176,0.003698
7.190,80.3113,0.003698
7.222,80.3049,0.003698
7.252,80.2987,0.003698
7.284,80.2925,0.003698
7.315,80.2863,0.003623
7.348,80.2799,0.003623
7.379,80.2735,0.003623
7.410,80.2675,0.003623
7.442,80.2609,0.003623
7.472,80.2549,0.003623
7.504,80.2485,0.003623
7.534,80.2427,0.003623
7.564,80.2366,0.003548
7.595,80.2304,0.003548
7.626,80.2242,0.003548
7.658,80.2177,0.003548
7.688,80.2118,0.003548
7.719,80.2055,0.003548
7.750,80.1994,0.003548
7.782,80.1928,0.003548
7.814,80.1867,0.003585
7.845,80.1803,0.003585
7.876,80.1741,0.003585
7.907,80.1679,0.003585
7.938,80.1618,0.003585
7.969,80.1555,0.003585
7.999,80.1495,0.003585
8.032,80.1428,0.003585
8.062,80.1370,0.003595
8.093,80.1307,0.003595
8.124,80.1245,0.003595
8.156,80.1183,0.003595
8.187,80.1119,0.003595
8.217,80.1060,0.003595
8.248,80.0998,0.003595
8.279,80.0936,0.003595
8.311,80.0873,0.003632
8.342,80.0809,0.003632
8.373,80.0749,0.003632
8.404,80.0685,0.003632
8.436,80.0623,0.003632
8.466,80.0561,0.003632
8.497,80.0499,0.003632
8.529,80.0436,0.003632
8.560,80.0374,0.003632
8.591,80.0313,0.003632
8.621,80.0250,0.003632
8.652,80.0189,0.003632
8.683,80.0126,0.003632
8.715,80.0064,0.003632
8.746,80.0000,0.003632
8.779,79.9936,0.003632
8.808,79.9879,0.003632
8.839,79.9816,0.003604
8.869,79.9755,0.003604
8.901,79.9693,0.003604
8.932,79.9630,0.003604
8.963,79.9567,0.003604
8.995,79.9503,0.003604
9.027,79.9440,0.003604
9.059,79.9377,0.003566
9.090,79.9314,0.003566
9.120,79.9254,0.003566
9.152,79.9190,0.003566
9.182,79.9130,0.003566
9.214,79.9066,0.003566
9.244,79.9005,0.003566
9.275,79.8944,0.003566
9.306,79.8881,0.003566
9.338,79.8818,0.003566
9.369,79.8753,0.003566
9.400,79.8694,0.003566
9.431,79.8630,0.003566
9.463,79.8568,0.003566
9.494,79.8505,0.003566
9.526,79.8443,0.003566
9.557,79.8380,0.003566
9.588,79.8319,0.003576
9.619,79.8255,0.003576
9.651,79.8193,0.003576
9.681,79.8129,0.003576
9.712,79.8070,0.003576
9.743,79.8008,0.003576
9.775,79.7944,0.003576
9.806,79.7881,0.003576
9.837,79.7818,0.003576
9.868,79.7756,0.003576
9.899,79.7695,0.003576
9.930,79.7633,0.003576
9.962,79.7571,0.003576
9.993,79.7508,0.003576
10.024,79.7447,0.003576
10.054,79.7385,0.003576
10.086,79.7322,0.003613
10.117,79.7259,0.003613
10.149,79.7197,0.003613
10.179,79.7133,0.003613
10.210,79.7074,0.003613
10.242,79.7011,0.003613
10.272,79.6950,0.003613
10.304,79.6885,0.003613
10.335,79.6823,0.003613
10.367,79.6761,0.003613
10.397,79.6696,0.003613
10.428,79.6636,0.003613
10.460,79.6574,0.003613
10.492,79.6510,0.003613
10.522,79.6449,0.003613
10.553,79.6388,0.003613
10.584,79.6326,0.003632
10.616,79.6263,0.003632
10.648,79.6197,0.003632
10.678,79.6139,0.003632
10.708,79.6078,0.003632
10.739,79.6016,0.003632
10.769,79.5955,0.003632
10.802,79.5889,0.003632
10.832,79.5830,0.003670
10.863,79.5768,0.003670
10.893,79.5708,0.003670
10.924,79.5646,0.003670
10.955,79.5584,0.003670
10.987,79.5520,0.003670
11.017,79.5460,0.003670
11.048,79.5397,0.003670
11.079,79.5337,0.003642
11.109,79.5275,0.003642
11.140,79.5213,0.003642
11.171,79.5151,0.003642
11.202,79.5089,0.003642
11.234,79.5027,0.003642
11.264,79.4965,0.003642
11.295,79.4903,0.003642
11.326,79.4841,0.003613
11.357,79.4781,0.003613
11.387,79.4720,0.003613
11.418,79.4658,0.003613
11.449,79.4597,0.003613
11.480,79.4534,0.003613
11.511,79.4472,0.003613
11.543,79.4409,0.003613
11.573,79.4348,0.003613
11.604,79.4285,0.003660
11.635,79.4225,0.003660
11.665,79.4163,0.003660
11.697,79.4100,0.003660
11.730,79.4035,0.003660
11.760,79.3973,0.003660
11.791,79.3912,0.003660
11.822,79.3850,0.003670
11.854,79.3787,0.003670
11.885,79.3725,0.003670
11.915,79.3663,0.003670
11.946,79.3602,0.003670
11.977,79.3540,0.003670
12.007,79.3480,0.003670
12.039,79.3416,0.003670
12.069,79.3356,0.003670
12.103,79.3289,0.003632
12.132,79.3229,0.003632
12.163,79.3167,0.003632
12.194,79.3105,0.003632
12.225,79.3044,0.003632
12.257,79.2981,0.003632
12.288,79.2919,0.003632
12.319,79.2856,0.003623
12.350,79.2793,0.003623
12.382,79.2731,0.003623
12.413,79.2669,0.003623
12.444,79.2605,0.003623
12.476,79.2542,0.003623
12.508,79.2479,0.003623
12.540,79.2414,0.003623
12.571,79.2353,0.003623
12.602,79.2288,0.003623
12.633,79.2228,0.003623
12.665,79.2162,0.003623
12.697,79.2099,0.003623
12.727,79.2040,0.003623
12.758,79.1976,0.003623
12.790,79.1914,0.003623
12.821,79.1850,0.003651
12.853,79.1788,0.003651
12.883,79.1726,0.003651
12.914,79.1666,0.003651
12.945,79.1604,0.003651
12.975,79.1544,0.003651
13.006,79.1480,0.003651
13.036,79.1421,0.003651
13.067,79.1360,0.003660
13.098,79.1299,0.003660
13.129,79.1237,0.003660
13.160,79.1174,0.003660
13.191,79.1113,0.003660
13.222,79.1049,0.003660
13.254,79.0986,0.003660
13.284,79.0926,0.003660
13.315,79.0865,0.003576
13.346,79.0802,0.003576
13.377,79.0741,0.003576
13.408,79.0679,0.003576
13.438,79.0618,0.003576
13.469,79.0558,0.003576
13.499,79.0494,0.003576
13.530,79.0435,0.003576
13.561,79.0373,0.003566
13.592,79.0311,0.003566
13.623,79.0248,0.003566
13.654,79.0186,0.003566
13.685,79.0124,0.003566
13.717,79.0059,0.003566
13.747,79.0000,0.003566
13.779,78.9936,0.003566
13.809,78.9876,0.003566
13.841,78.9811,0.003604
13.871,78.9751,0.003604
13.902,78.9689,0.003604
13.933,78.9629,0.003604
13.965,78.9563,0.003604
13.995,78.9505,0.003604
14.025,78.9443,0.003604
14.056,78.9382,0.003604
14.088,78.9316,0.003576
14.120,78.9253,0.003576
14.151,78.9192,0.003576
14.182,78.9131,0.003576
14.213,78.9069,0.003576
14.243,78.9007,0.003576
14.275,78.8945,0.003576
14.306,78.8883,0.003576
14.337,78.8820,0.003576
14.368,78.8757,0.003538
14.398,78.8697,0.003538
14.429,78.8634,0.003538
14.460,78.8575,0.003538
14.491,78.8512,0.003538
14.521,78.8450,0.003538
14.552,78.8390,0.003538
14.583,78.8329,0.003566
14.613,78.8268,0.003566
14.645,78.8205,0.003566
14.676,78.8142,0.003566
14.707,78.8081,0.003566
14.738,78.8018,0.003566
14.769,78.7957,0.003566
14.800,78.7894,0.003566
14.831,78.7833,0.003566
14.862,78.7770,0.003632
14.893,78.7709,0.003632
14.924,78.7646,0.003632
14.954,78.7586,0.003632
14.986,78.7522,0.003632
15.018,78.7458,0.003632
15.050,78.7394,0.003632
15.080,78.7334,0.003595
15.110,78.7273,0.003595
15.141,78.7211,0.003595
15.172,78.7151,0.003595
15.204,78.7086,0.003595
15.234,78.7025,0.003595
15.265,78.6965,0.003595
15.297,78.6901,0.003595
15.328,78.6839,0.003613
15.358,78.6779,0.003613
15.389,78.6717,0.003613
15.421,78.6652,0.003613
15.452,78.6590,0.003613
15.482,78.6531,0.003613
15.514,78.6466,0.003613
15.545,78.6404,0.003613
15.577,78.6342,0.003698
15.608,78.6279,0.003698
15.639,78.6217,0.003698
15.670,78.6155,0.003698
15.701,78.6092,0.003698
15.732,78.6030,0.003698
15.763,78.5968,0.003698
15.795,78.5904,0.003698
15.826,78.5842,0.003660
15.857,78.5780,0.003660
15.888,78.5718,0.003660
15.920,78.5655,0.003660
15.951,78.5593,0.003660
15.981,78.5530,0.003660
16.014,78.5466,0.003660
16.045,78.5404,0.003660
16.076,78.5341,0.003613
16.108,78.5278,0.003613
16.138,78.5217,0.003613
16.169,78.5155,0.003613
16.201,78.5092,0.003613
16.232,78.5030,0.003613
16.262,78.4970,0.003613
16.293,78.4907,0.003613
16.324,78.4846,0.003670
16.355,78.4783,0.003670
16.386,78.4722,0.003670
16.417,78.4660,0.003670
16.448,78.4600,0.003670
16.479,78.4536,0.003670
16.509,78.4476,0.003670
16.540,78.4414,0.003670
16.571,78.4353,0.003670
16.602,78.4288,0.003613
16.633,78.4229,0.003613
16.664,78.4165,0.003613
16.696,78.4102,0.003613
16.727,78.4039,0.003613
16.759,78.3978,0.003613
16.791,78.3914,0.003613
16.821,78.3850,0.003604
16.852,78.3791,0.003604
16.882,78.3730,0.003604
16.913,78.3667,0.003604
16.944,78.3606,0.003604
16.974,78.3544,0.003604
17.005,78.3485,0.003604
17.037,78.3420,0.003604
17.067,78.3361,0.003604
17.099,78.3296,0.003613
17.130,78.3233,0.003613
17.161,78.3171,0.003613
17.192,78.3111,0.003613
17.224,78.3047,0.003613
17.255,78.2985,0.003613
17.286,78.2922,0.003613
17.317,78.2861,0.003585
17.349,78.2796,0.003585
17.379,78.2737,0.003585
17.411,78.2673,0.003585
17.443,78.2609,0.003585
17.475,78.2544,0.003585
17.507,78.2480,0.003585
17.538,78.2419,0.003585
17.568,78.2357,0.003642
17.600,78.2294,0.003642
17.632,78.2232,0.003642
17.664,78.2166,0.003642
17.695,78.2105,0.003642
17.726,78.2042,0.003642
17.757,78.1981,0.003642
17.787,78.1919,0.003642
17.818,78.1859,0.003632
17.848,78.1797,0.003632
17.879,78.1736,0.003632
17.910,78.1675,0.003632
17.941,78.1613,0.003632
17.972,78.1551,0.003632
18.003,78.1488,0.003632
18.033,78.1428,0.003632
18.064,78.1366,0.003632
18.095,78.1304,0.003632
18.126,78.1242,0.003632
18.157,78.1180,0.003632
18.188,78.1118,0.003632
18.222,78.1050,0.003632
18.250,78.0994,0.003632
18.282,78.0931,0.003632
18.313,78.0868,0.003632
18.344,78.0806,0.003595
18.376,78.0744,0.003595
18.407,78.0680,0.003595
18.438,78.0617,0.003595
18.468,78.0558,0.003595
18.499,78.0496,0.003595
18.531,78.0432,0.003595
18.562,78.0370,0.003595
18.593,78.0308,0.003613
18.624,78.0245,0.003613
18.656,78.0183,0.003613
18.687,78.0120,0.003613
18.718,78.0059,0.003613
18.749,77.9996,0.003613
18.780,77.9935,0.003613
18.811,77.9873,0.003613
18.842,77.9811,0.003660
18.873,77.9748,0.003660
18.904,77.9687,0.003660
18.936,77.9624,0.003660
18.966,77.9562,0.003660
18.997,77.9501,0.003660
19.028,77.9439,0.003660
19.059,77.9376,0.003660
19.090,77.9315,0.003566
19.121,77.9252,0.003566
19.152,77.9191,0.003566
19.183,77.9129,0.003566
19.213,77.9068,0.003566
19.245,77.9005,0.003566
19.275,77.8944,0.003566
19.306,77.8882,0.003566
19.337,77.8821,0.003566
19.368,77.8759,0.003576
19.398,77.8699,0.003576
19.430,77.8635,0.003576
19.460,77.8579,0.003576
19.491,77.8529,0.003576
19.522,77.8486,0.003576
19.553,77.8452,0.003576
19.585,77.8423,0.003585
19.615,77.8402,0.003585
19.646,77.8388,0.003585
19.677,77.8382,0.003585
19.708,77.8382,0.003585
19.739,77.8382,0.003585
19.770,77.8382,0.003585
19.801,77.8382,0.003585
19.832,77.8382,0.003585
19.863,77.8382,0.003538
19.893,77.8382,0.003538
19.924,77.8382,0.003538
19.955,77.8382,0.003538
19.986,77.8382,0.003538
20.017,77.8382,0.003538
20.049,77.8382,0.003538
20.080,77.8382,0.003585
20.112,77.8382,0.003585
20.144,77.8382,0.003585
20.175,77.8382,0.003585
20.206,77.8382,0.003585
20.237,77.8382,0.003585
20.267,77.8382,0.003585
20.299,77.8382,0.003585
20.329,77.8382,0.003642
20.360,77.8385,0.003642
20.391,77.8395,0.003642
20.423,77.8413,0.003642
20.453,77.8437,0.003642
20.483,77.8469,0.003642
20.515,77.8508,0.003642
20.546,77.8553,0.003642
20.576,77.8607,0.003538
20.607,77.8668,0.003538
20.638,77.8728,0.003538
20.670,77.8793,0.003538
20.701,77.8855,0.003538
20.732,77.8917,0.003538
20.762,77.8976,0.003538
20.794,77.9040,0.003538
20.824,77.9103,0.003538
20.855,77.9162,0.003538
20.886,77.9224,0.003538
20.917,77.9286,0.003538
20.948,77.9348,0.003538
20.978,77.9409,0.003538
21.010,77.9474,0.003538
21.042,77.9536,0.003538
21.072,77.9596,0.003632
21.103,77.9660,0.003632
21.134,77.9720,0.003632
21.165,77.9782,0.003632
21.196,77.9843,0.003632
21.227,77.9908,0.003632
21.258,77.9967,0.003632
21.289,78.0031,0.003632
21.321,78.0094,0.003623
21.352,78.0156,0.003623
21.383,78.0219,0.003623
21.414,78.0280,0.003623
21.444,78.0341,0.003623
21.476,78.0404,0.003623
21.507,78.0466,0.003623
21.538,78.0529,0.003623
21.570,78.0592,0.003623
21.601,78.0656,0.003623
21.632,78.0715,0.003623
21.663,78.0780,0.003623
21.694,78.0840,0.003623
21.724,78.0901,0.003623
21.756,78.0964,0.003623
21.787,78.1026,0.003623
21.818,78.1088,0.003632
21.849,78.1152,0.003632
21.881,78.1214,0.003632
21.912,78.1276,0.003632
21.942,78.1335,0.003632
21.972,78.1397,0.003632
22.003,78.1459,0.003632
22.034,78.1519,0.003632
22.064,78.1582,0.003632
22.096,78.1643,0.003632
22.127,78.1706,0.003632
22.158,78.1771,0.003632
22.189,78.1830,0.003632
22.220,78.1892,0.003632
22.251,78.1955,0.003632
22.282,78.2017,0.003632
22.314,78.2081,0.003632
22.346,78.2144,0.003632
22.377,78.2207,0.003632
22.409,78.2269,0.003632
22.440,78.2332,0.003632
22.471,78.2394,0.003632
22.502,78.2456,0.003632
22.532,78.2517,0.003632
22.563,78.2579,0.003642
22.594,78.2641,0.003642
22.626,78.2704,0.003642
22.656,78.2765,0.003642
22.688,78.2828,0.003642
22.719,78.2891,0.003642
22.749,78.2953,0.003642
22.781,78.3015,0.003642
22.813,78.3079,0.003651
22.844,78.3141,0.003651
22.876,78.3206,0.003651
22.908,78.3268,0.003651
22.939,78.3331,0.003651
22.970,78.3394,0.003651
23.001,78.3455,0.003651
23.031,78.3514,0.003651
23.062,78.3576,0.003632
23.093,78.3638,0.003632
23.124,78.3699,0.003632
23.155,78.3764,0.003632
23.186,78.3823,0.003632
23.218,78.3889,0.003632
23.248,78.3948,0.003632
23.278,78.4009,0.003632
23.309,78.4070,0.003604
23.340,78.4133,0.003604
23.371,78.4194,0.003604
23.402,78.4257,0.003604
23.434,78.4320,0.003604
23.466,78.4384,0.003604
23.497,78.4446,0.003604
23.528,78.4509,0.003604
23.559,78.4570,0.003604
23.590,78.4633,0.003604
23.621,78.4695,0.003604
23.652,78.4755,0.003604
23.683,78.4818,0.003604
23.714,78.4881,0.003604
23.745,78.4943,0.003604
23.777,78.5006,0.003604
23.808,78.5067,0.003604
23.839,78.5129,0.003651
23.869,78.5190,0.003651
23.900,78.5253,0.003651
23.931,78.5315,0.003651
23.962,78.5378,0.003651
23.993,78.5438,0.003651
24.025,78.5502,0.003651
24.057,78.5564,0.003623
24.088,78.5630,0.003623
24.119,78.5691,0.003623
24.150,78.5754,0.003623
24.182,78.5816,0.003623
24.214,78.5881,0.003623
24.245,78.5943,0.003623
24.275,78.6003,0.003623
24.306,78.6064,0.003623
24.337,78.6126,0.003595
24.369,78.6191,0.003595
24.399,78.6250,0.003595
24.431,78.6315,0.003595
24.462,78.6377,0.003595
24.493,78.6440,0.003595
24.524,78.6501,0.003595
24.556,78.6565,0.003613
24.586,78.6625,0.003613
24.617,78.6687,0.003613
24.647,78.6746,0.003613
24.679,78.6810,0.003613
24.710,78.6874,0.003613
24.741,78.6934,0.003613
24.772,78.6997,0.003613
24.804,78.7059,0.003613
24.835,78.7122,0.003613
24.866,78.7184,0.003613
24.897,78.7247,0.003632
24.929,78.7311,0.003632
24.960,78.7373,0.003632
24.992,78.7436,0.003632
25.021,78.7497,0.003632
25.053,78.7558,0.003632
25.083,78.7618,0.003632
25.115,78.7682,0.003623
25.145,78.7742,0.003623
25.176,78.7807,0.003623
25.208,78.7869,0.003623
25.238,78.7930,0.003623
25.269,78.7990,0.003623
25.301,78.8055,0.003623
25.332,78.8116,0.003585
25.363,78.8178,0.003585
25.394,78.8241,0.003585
25.425,78.8304,0.003585
25.457,78.8366,0.003585
25.488,78.8431,0.003585
25.520,78.8493,0.003585
25.551,78.8555,0.003585
25.582,78.8617,0.003595
25.613,78.8677,0.003595
25.645,78.8743,0.003595
25.677,78.8805,0.003595
25.708,78.8870,0.003595
25.739,78.8930,0.003595
25.771,78.8996,0.003595
25.803,78.9057,0.003595
25.833,78.9116,0.003613
25.863,78.9177,0.003613
25.894,78.9239,0.003613
25.924,78.9300,0.003613
25.955,78.9362,0.003613
25.987,78.9427,0.003613
26.017,78.9486,0.003613
26.048,78.9549,0.003613
26.079,78.9610,0.003613
26.112,78.9676,0.003613
26.143,78.9738,0.003613
26.173,78.9800,0.003613
26.204,78.9859,0.003613
26.236,78.9924,0.003613
26.267,78.9986,0.003613
26.298,79.0048,0.003613
26.328,79.0107,0.003623
26.359,79.0169,0.003623
26.390,79.0231,0.003623
26.421,79.0296,0.003623
26.453,79.0358,0.003623
26.483,79.0420,0.003623
26.514,79.0481,0.003623
26.545,79.0544,0.003623
26.576,79.0605,0.003604
26.607,79.0666,0.003604
26.637,79.0726,0.003604
26.668,79.0788,0.003604
26.700,79.0854,0.003604
26.731,79.0914,0.003604
26.762,79.0976,0.003604
26.793,79.1039,0.003604
26.827,79.1106,0.003595
26.856,79.1164,0.003595
26.887,79.1226,0.003595
26.918,79.1289,0.003595
26.949,79.1350,0.003595
26.980,79.1413,0.003595
27.012,79.1475,0.003595
27.042,79.1536,0.003595
27.073,79.1599,0.003613
27.105,79.1661,0.003613
27.136,79.1725,0.003613
27.166,79.1784,0.003613
27.197,79.1847,0.003613
27.228,79.1908,0.003613
27.260,79.1973,0.003613
27.291,79.2034,0.003613
27.323,79.2100,0.003613
27.354,79.2160,0.003651
27.386,79.2226,0.003651
27.417,79.2287,0.003651
27.449,79.2350,0.003651
27.480,79.2412,0.003651
27.511,79.2473,0.003651
27.542,79.2536,0.003651
27.573,79.2599,0.003642
27.604,79.2661,0.003642
27.635,79.2722,0.003642
27.667,79.2785,0.003642
27.698,79.2847,0.003642
27.729,79.2910,0.003642
27.760,79.2974,0.003642
27.791,79.3034,0.003642
27.823,79.3098,0.003642
27.854,79.3160,0.003557
27.885,79.3222,0.003557
27.917,79.3285,0.003557
27.948,79.3348,0.003557
27.979,79.3409,0.003557
28.010,79.3472,0.003557
28.041,79.3534,0.003557
28.073,79.3597,0.003557
28.103,79.3658,0.003538
28.134,79.3721,0.003538
28.165,79.3783,0.003538
28.195,79.3843,0.003538
28.228,79.3908,0.003538
28.258,79.3968,0.003538
28.289,79.4032,0.003538
28.321,79.4094,0.003538
28.352,79.4158,0.003585
28.384,79.4219,0.003585
28.415,79.4282,0.003585
28.446,79.4344,0.003585
28.476,79.4406,0.003585
28.509,79.4471,0.003585
28.540,79.4533,0.003585
28.571,79.4593,0.003585
28.603,79.4657,0.003613
28.633,79.4716,0.003613
28.664,79.4779,0.003613
28.695,79.4843,0.003613
28.726,79.4902,0.003613
28.757,79.4967,0.003613
28.789,79.5031,0.003613
28.819,79.5091,0.003613
28.851,79.5153,0.003576
28.882,79.5215,0.003576
28.912,79.5277,0.003576
28.944,79.5339,0.003576
28.975,79.5401,0.003576
29.005,79.5463,0.003576
29.036,79.5526,0.003576
29.068,79.5588,0.003576
29.099,79.5650,0.003604
29.131,79.5715,0.003604
29.163,79.5778,0.003604
29.195,79.5841,0.003604
29.225,79.5903,0.003604
29.257,79.5965,0.003604
29.288,79.6027,0.003604
29.319,79.6090,0.003595
29.349,79.6151,0.003595
29.380,79.6212,0.003595
29.411,79.6274,0.003595
29.442,79.6336,0.003595
29.473,79.6398,0.003595
29.505,79.6461,0.003595
29.536,79.6524,0.003595
29.567,79.6586,0.003595
29.598,79.6648,0.003576
29.630,79.6712,0.003576
29.662,79.6775,0.003576
29.693,79.6838,0.003576
29.723,79.6900,0.003576
29.755,79.6962,0.003576
29.786,79.7024,0.003576
29.817,79.7087,0.003576
29.848,79.7148,0.003604
29.879,79.7210,0.003604
29.911,79.7274,0.003604
29.942,79.7336,0.003604
29.972,79.7396,0.003604
30.003,79.7458,0.003604
30.035,79.7523,0.003604
30.066,79.7585,0.003604
30.098,79.7647,0.003613
30.129,79.7710,0.003613
30.160,79.7771,0.003613
30.190,79.7834,0.003613
30.222,79.7895,0.003613
30.254,79.7959,0.003613
30.285,79.8023,0.003613
30.317,79.8085,0.003613
30.347,79.8148,0.003623
30.378,79.8209,0.003623
30.409,79.8268,0.003623
30.439,79.8330,0.003623
30.471,79.8393,0.003623
30.502,79.8454,0.003623
30.533,79.8517,0.003623
30.564,79.8581,0.003623
30.596,79.8644,0.003595
30.627,79.8706,0.003595
30.658,79.8767,0.003595
30.688,79.8828,0.003595
30.720,79.8892,0.003595
30.751,79.8954,0.003595
30.782,79.9016,0.003595
30.813,79.9078,0.003595
30.843,79.9139,0.003585
30.874,79.9200,0.003585
30.906,79.9264,0.003585
30.937,79.9325,0.003585
30.968,79.9388,0.003585
30.999,79.9450,0.003585
31.030,79.9512,0.003585
31.062,79.9575,0.003585
31.092,79.9637,0.003595
31.123,79.9699,0.003595
31.154,79.9760,0.003595
31.185,79.9822,0.003595
31.216,79.9884,0.003595
31.247,79.9946,0.003595
31.278,80.0008,0.003595
31.310,80.0073,0.003595
31.341,80.0133,0.003585
31.372,80.0197,0.003585
31.404,80.0259,0.003585
31.435,80.0322,0.003585
31.467,80.0385,0.003585
31.498,80.0447,0.003585
31.529,80.0511,0.003585
31.561,80.0574,0.003585
31.591,80.0633,0.003660
31.622,80.0695,0.003660
31.653,80.0757,0.003660
31.683,80.0818,0.003660
31.716,80.0885,0.003660
31.746,80.0943,0.003660
31.777,80.1007,0.003660
31.809,80.1070,0.003660
31.840,80.1132,0.003679
31.871,80.1195,0.003679
31.902,80.1256,0.003679
31.934,80.1320,0.003679
31.965,80.1382,0.003679
31.996,80.1444,0.003679
32.027,80.1505,0.003679
32.058,80.1567,0.003679
32.089,80.1630,0.003632
32.120,80.1691,0.003632
32.151,80.1753,0.003632
32.182,80.1815,0.003632
32.213,80.1878,0.003632
32.245,80.1942,0.003632
32.277,80.2007,0.003632
32.307,80.2066,0.003632
32.338,80.2128,0.003623
32.369,80.2191,0.003623
32.400,80.2252,0.003623
32.431,80.2314,0.003623
32.462,80.2376,0.003623
32.494,80.2438,0.003623
32.525,80.2501,0.003623
32.556,80.2566,0.003623
32.587,80.2626,0.003585
32.618,80.2687,0.003585
32.649,80.2749,0.003585
32.680,80.2812,0.003585
32.711,80.2874,0.003585
32.741,80.2934,0.003585
32.773,80.2998,0.003585
32.804,80.3059,0.003585
32.835,80.3124,0.003604
32.866,80.3184,0.003604
32.897,80.3246,0.003604
32.929,80.3308,0.003604
32.960,80.3372,0.003604
32.991,80.3434,0.003604
33.023,80.3499,0.003604
33.055,80.3561,0.003604
33.086,80.3624,0.003604
33.117,80.3684,0.003604
33.148,80.3746,0.003604
33.179,80.3810,0.003604
33.209,80.3870,0.003604
33.241,80.3932,0.003604
33.271,80.3993,0.003604
33.302,80.4055,0.003585
33.332,80.4116,0.003585
33.364,80.4179,0.003585
33.394,80.4241,0.003585
33.425,80.4302,0.003585
33.456,80.4363,0.003585
33.487,80.4425,0.003585
33.518,80.4487,0.003585
33.548,80.4549,0.003585
33.579,80.4609,0.003595
33.609,80.4670,0.003595
33.641,80.4732,0.003595
33.672,80.4794,0.003595
33.703,80.4856,0.003595
33.734,80.4920,0.003595
33.765,80.4982,0.003595
33.798,80.5049,0.003595
33.828,80.5108,0.003585
33.858,80.5169,0.003585
33.889,80.5231,0.003585
33.920,80.5293,0.003585
33.952,80.5355,0.003585
33.983,80.5418,0.003585
34.015,80.5481,0.003585
34.046,80.5545,0.003585
34.078,80.5609,0.003585
34.109,80.5671,0.003585
34.140,80.5732,0.003585
34.173,80.5798,0.003585
34.203,80.5858,0.003585
34.235,80.5922,0.003585
34.265,80.5981,0.003585
34.296,80.6046,0.003585
34.326,80.6105,0.003557
34.357,80.6167,0.003557
34.389,80.6229,0.003557
34.419,80.6290,0.003557
34.450,80.6352,0.003557
34.481,80.6413,0.003557
34.511,80.6475,0.003557
34.542,80.6536,0.003557
34.574,80.6599,0.003557
34.606,80.6662,0.003557
34.636,80.6724,0.003557
34.667,80.6787,0.003557
34.699,80.6851,0.003557
34.730,80.6913,0.003557
34.760,80.6971,0.003557
34.791,80.7033,0.003557
34.822,80.7095,0.003557
34.853,80.7158,0.003557
34.884,80.7219,0.003595
34.915,80.7282,0.003595
34.946,80.7345,0.003595
34.978,80.7407,0.003595
35.009,80.7469,0.003595
35.041,80.7533,0.003595
35.071,80.7595,0.003595
35.102,80.7657,0.003613
35.133,80.7719,0.003613
35.164,80.7780,0.003613
35.195,80.7842,0.003613
35.225,80.7902,0.003613
35.256,80.7966,0.003613
35.287,80.8028,0.003613
35.319,80.8088,0.003613
35.349,80.8149,0.003566
35.379,80.8202,0.003566
35.410,80.8251,0.003566
35.442,80.8291,0.003566
35.472,80.8323,0.003566
35.504,80.8349,0.003566
35.535,80.8367,0.003566
35.565,80.8379,0.003623
35.597,80.8382,0.003623
35.628,80.8382,0.003623
35.659,80.8382,0.003623
35.690,80.8382,0.003623
35.721,80.8382,0.003623
35.752,80.8382,0.003623
35.783,80.8382,0.003623
35.815,80.8382,0.003623
35.846,80.8382,0.003623
35.877,80.8382,0.003623
35.908,80.8382,0.003623
35.939,80.8382,0.003623
35.969,80.8382,0.003623
36.001,80.8382,0.003623
36.033,80.8382,0.003623
36.064,80.8382,0.003548
36.096,80.8382,0.003548
36.126,80.8382,0.003548
36.157,80.8382,0.003548
36.187,80.8382,0.003548
36.220,80.8382,0.003548
36.250,80.8382,0.003548
36.282,80.8382,0.003548
36.312,80.8382,0.003604
36.343,80.8382,0.003604
36.376,80.8382,0.003604
36.406,80.8382,0.003604
36.437,80.8382,0.003604
36.468,80.8382,0.003604
36.499,80.8382,0.003604
36.530,80.8382,0.003604
36.560,80.8382,0.003604
36.591,80.8382,0.003585
36.622,80.8382,0.003585
36.653,80.8382,0.003585
36.684,80.8382,0.003585
36.716,80.8382,0.003585
36.747,80.8382,0.003585
36.779,80.8382,0.003585
36.810,80.8382,0.003585
36.841,80.8382,0.003585
36.872,80.8382,0.003585
36.903,80.8382,0.003585
36.935,80.8382,0.003585
36.967,80.8382,0.003585
36.998,80.8382,0.003585
37.028,80.8382,0.003585
37.059,80.8382,0.003585
37.090,80.8382,0.003604
37.121,80.8382,0.003604
37.153,80.8382,0.003604
37.184,80.8382,0.003604
37.215,80.8382,0.003604
37.246,80.8382,0.003604
37.277,80.8382,0.003604
37.309,80.8382,0.003604
37.340,80.8382,0.003595
37.371,80.8382,0.003595
37.402,80.8382,0.003595
37.435,80.8382,0.003595
37.466,80.8382,0.003595
37.497,80.8382,0.003595
37.529,80.8382,0.003595
37.559,80.8382,0.003595
37.590,80.8382,0.003557
37.622,80.8382,0.003557
37.652,80.8382,0.003557
37.683,80.8382,0.003557
37.714,80.8382,0.003557
37.745,80.8382,0.003557
37.777,80.8382,0.003557
37.807,80.8382,0.003557
37.839,80.8382,0.003566
37.869,80.8382,0.003566
37.899,80.8382,0.003566
37.931,80.8382,0.003566
37.963,80.8382,0.003566
37.993,80.8382,0.003566
38.024,80.8382,0.003566
38.055,80.8382,0.003566
38.086,80.8382,0.003604
38.118,80.8382,0.003604
38.147,80.8382,0.003604
38.180,80.8382,0.003604
38.212,80.8382,0.003604
38.242,80.8382,0.003604
38.274,80.8382,0.003604
38.303,80.8382,0.003604
38.335,80.8382,0.003576
38.366,80.8382,0.003576
38.396,80.8382,0.003576
38.427,80.8382,0.003576
38.458,80.8382,0.003576
38.488,80.8382,0.003576
38.519,80.8382,0.003576
38.550,80.8382,0.003576
38.581,80.8382,0.003566
38.613,80.8382,0.003566
38.644,80.8382,0.003566
38.678,80.8382,0.003566
38.707,80.8382,0.003566
38.737,80.8382,0.003566
38.768,80.8382,0.003566
38.799,80.8382,0.003557
38.829,80.8382,0.003557
38.860,80.8382,0.003557
38.891,80.8382,0.003557
38.922,80.8382,0.003557
38.954,80.8382,0.003557
38.985,80.8382,0.003557
39.016,80.8382,0.003557
39.046,80.8382,0.003557
39.077,80.8382,0.003557
39.107,80.8382,0.003566
39.139,80.8382,0.003566
39.169,80.8382,0.003566
39.200,80.8382,0.003566
39.230,80.8382,0.003566
39.261,80.8382,0.003566
39.292,80.8382,0.003566
39.323,80.8382,0.003604
39.356,80.8382,0.003604
39.385,80.8382,0.003604
39.417,80.8382,0.003604
39.448,80.8382,0.003604
39.478,80.8382,0.003604
39.510,80.8382,0.003604
39.541,80.8382,0.003604
39.572,80.8382,0.003613
39.602,80.8382,0.003613
39.633,80.8382,0.003613
39.664,80.8382,0.003613
39.694,80.8382,0.003613
39.726,80.8382,0.003613
39.757,80.8382,0.003613
39.789,80.8382,0.003613
39.819,80.8382,0.003613
39.850,80.8382,0.003585
39.881,80.8382,0.003585
39.913,80.8382,0.003585
39.943,80.8382,0.003585
39.974,80.8382,0.003585
40.005,80.8382,0.003585
40.036,80.8382,0.003585
40.066,80.8382,0.003585
40.097,80.8382,0.003595
40.128,80.8382,0.003595
40.159,80.8382,0.003595
40.190,80.8382,0.003595
40.221,80.8382,0.003595
40.251,80.8382,0.003595
40.282,80.8382,0.003595
40.313,80.8382,0.003595
40.344,80.8382,0.003595
40.375,80.8376,0.003595
40.406,80.8362,0.003595
40.436,80.8344,0.003595
40.467,80.8315,0.003595
40.498,80.8281,0.003595
40.529,80.8238,0.003595
40.562,80.8188,0.003642
40.592,80.8131,0.003642
40.623,80.8070,0.003642
40.654,80.8008,0.003642
40.684,80.7948,0.003642
40.715,80.7886,0.003642
40.745,80.7825,0.003642
40.776,80.7762,0.003642
40.808,80.7700,0.003642
40.838,80.7639,0.003642
40.869,80.7576,0.003651
40.899,80.7517,0.003651
40.931,80.7453,0.003651
40.961,80.7393,0.003651
40.993,80.7329,0.003651
41.024,80.7266,0.003651
41.055,80.7204,0.003651
41.086,80.7143,0.003632
41.117,80.7081,0.003632
41.148,80.7021,0.003632
41.179,80.6957,0.003632
41.210,80.6895,0.003632
41.241,80.6833,0.003632
41.271,80.6775,0.003632
41.300,80.6715,0.003632
41.331,80.6655,0.003632
41.363,80.6590,0.003632
41.392,80.6529,0.003632
41.424,80.6469,0.003632
41.455,80.6405,0.003632
41.485,80.6346,0.003632
41.516,80.6283,0.003632
41.546,80.6223,0.003632
41.577,80.6162,0.003651
41.609,80.6098,0.003651
41.640,80.6036,0.003651
41.672,80.5971,0.003651
41.703,80.5909,0.003651
41.735,80.5845,0.003651
41.766,80.5785,0.003651
41.796,80.5723,0.003651
41.827,80.5661,0.003632
41.858,80.5600,0.003632
41.889,80.5537,0.003632
41.920,80.5475,0.003632
41.952,80.5412,0.003632
41.982,80.5352,0.003632
42.013,80.5289,0.003632
42.045,80.5227,0.003632
42.075,80.5166,0.003604
42.106,80.5102,0.003604
42.138,80.5039,0.003604
42.168,80.4978,0.003604
42.200,80.4916,0.003604
42.231,80.4854,0.003604
42.261,80.4793,0.003604
42.293,80.4729,0.003604
42.323,80.4670,0.003651
42.354,80.4607,0.003651
42.386,80.4545,0.003651
42.416,80.4483,0.003651
42.446,80.4422,0.003651
42.478,80.4359,0.003651
42.507,80.4301,0.003651
42.538,80.4239,0.003651
42.569,80.4179,0.003632
42.599,80.4117,0.003632
42.630,80.4055,0.003632
42.661,80.3993,0.003632
42.692,80.3931,0.003632
42.724,80.3869,0.003632
42.755,80.3806,0.003632
42.786,80.3744,0.003632
42.818,80.3679,0.003632
42.848,80.3619,0.003632
42.880,80.3555,0.003632
42.911,80.3495,0.003632
42.942,80.3431,0.003632
42.972,80.3372,0.003632
43.005,80.3306,0.003632
43.034,80.3249,0.003632
43.065,80.3186,0.003632
43.095,80.3126,0.003604
43.126,80.3064,0.003604
43.157,80.3002,0.003604
43.189,80.2939,0.003604
43.219,80.2877,0.003604
43.251,80.2812,0.003604
43.283,80.2750,0.003604
43.314,80.2687,0.003604
43.346,80.2623,0.003595
43.378,80.2561,0.003595
43.409,80.2499,0.003595
43.440,80.2437,0.003595
43.471,80.2375,0.003595
43.502,80.2311,0.003595
43.533,80.2251,0.003595
43.565,80.2186,0.003595
43.595,80.2125,0.003623
43.626,80.2063,0.003623
43.657,80.2003,0.003623
43.687,80.1942,0.003623
43.718,80.1881,0.003623
43.750,80.1816,0.003623
43.780,80.1756,0.003623
43.811,80.1692,0.003623
43.843,80.1629,0.003642
43.875,80.1566,0.003642
43.904,80.1506,0.003642
43.936,80.1444,0.003642
43.967,80.1384,0.003642
43.998,80.1319,0.003642
44.029,80.1258,0.003642
44.060,80.1196,0.003642
44.090,80.1136,0.003642
44.122,80.1071,0.003604
44.152,80.1012,0.003604
44.183,80.0948,0.003604
44.215,80.0886,0.003604
44.245,80.0824,0.003604
44.277,80.0762,0.003604
44.307,80.0700,0.003604
44.338,80.0640,0.003595
44.370,80.0576,0.003595
44.401,80.0514,0.003595
44.432,80.0453,0.003595
44.463,80.0391,0.003595
44.493,80.0329,0.003595
44.524,80.0267,0.003595
44.555,80.0205,0.003595
44.586,80.0145,0.003613
44.617,80.0083,0.003613
44.648,80.0021,0.003613
44.679,79.9957,0.003613
44.710,79.9897,0.003613
44.741,79.9835,0.003613
44.772,79.9773,0.003613
44.804,79.9708,0.003613
44.834,79.9649,0.003566
44.865,79.9585,0.003566
44.897,79.9522,0.003566
44.928,79.9459,0.003566
44.958,79.9399,0.003566
44.989,79.9337,0.003566
45.020,79.9276,0.003566
45.051,79.9213,0.003566
45.082,79.9151,0.003595
45.114,79.9088,0.003595
45.146,79.9023,0.003595
45.177,79.8961,0.003595
45.208,79.8901,0.003595
45.239,79.8837,0.003595
45.269,79.8777,0.003595
45.300,79.8716,0.003595
45.330,79.8655,0.003604
45.361,79.8594,0.003604
45.392,79.8531,0.003604
45.423,79.8469,0.003604
45.455,79.8407,0.003604
45.486,79.8344,0.003604
45.516,79.8283,0.003604
45.547,79.8222,0.003604
45.579,79.8159,0.003557
45.609,79.8097,0.003557
45.641,79.8034,0.003557
45.672,79.7973,0.003557
45.702,79.7910,0.003557
45.734,79.7849,0.003557
45.765,79.7786,0.003557
45.795,79.7726,0.003557
45.828,79.7662,0.003604
45.858,79.7601,0.003604
45.889,79.7536,0.003604
45.921,79.7474,0.003604
45.953,79.7410,0.003604
45.984,79.7348,0.003604
46.016,79.7283,0.003604
46.047,79.7223,0.003604
46.078,79.7159,0.003595
46.109,79.7099,0.003595
46.139,79.7037,0.003595
46.171,79.6973,0.003595
46.202,79.6913,0.003595
46.233,79.6849,0.003595
46.265,79.6786,0.003595
46.295,79.6725,0.003595
46.328,79.6661,0.003595
46.358,79.6600,0.003613
46.388,79.6541,0.003613
46.419,79.6479,0.003613
46.450,79.6417,0.003613
46.481,79.6353,0.003613
46.512,79.6290,0.003613
46.543,79.6230,0.003613
46.575,79.6166,0.003613
46.605,79.6105,0.003679
46.636,79.6042,0.003679
46.666,79.5984,0.003679
46.697,79.5920,0.003679
46.728,79.5860,0.003679
46.759,79.5799,0.003679
46.790,79.5736,0.003679
46.820,79.5675,0.003679
46.851,79.5613,0.003632
46.882,79.5550,0.003632
46.914,79.5489,0.003632
46.944,79.5427,0.003632
46.976,79.5362,0.003632
47.006,79.5304,0.003632
47.037,79.5238,0.003632
47.067,79.5181,0.003632
47.098,79.5120,0.003595
47.129,79.5057,0.003595
47.160,79.4998,0.003595
47.191,79.4933,0.003595
47.221,79.4874,0.003595
47.253,79.4810,0.003595
47.286,79.4745,0.003595
47.315,79.4685,0.003595
47.345,79.4627,0.003585
47.376,79.4562,0.003585
47.407,79.4500,0.003585
47.439,79.4440,0.003585
47.469,79.4378,0.003585
47.500,79.4314,0.003585
47.531,79.4255,0.003585
47.562,79.4193,0.003585
47.593,79.4131,0.003595
47.623,79.4069,0.003595
47.654,79.4007,0.003595
47.685,79.3946,0.003595
47.716,79.3883,0.003595
47.747,79.3822,0.003595
47.779,79.3757,0.003595
47.810,79.3695,0.003595
47.841,79.3633,0.003613
47.872,79.3573,0.003613
47.902,79.3511,0.003613
47.935,79.3446,0.003613
47.965,79.3387,0.003613
47.996,79.3323,0.003613
48.027,79.3263,0.003613
48.058,79.3199,0.003613
48.088,79.3140,0.003585
48.120,79.3077,0.003585
48.152,79.3012,0.003585
48.185,79.2946,0.003585
48.216,79.2884,0.003585
48.247,79.2822,0.003585
48.279,79.2759,0.003585
48.311,79.2695,0.003557
48.342,79.2633,0.003557
48.372,79.2571,0.003557
48.403,79.2509,0.003557
48.436,79.2443,0.003557
48.467,79.2383,0.003557
48.496,79.2324,0.003557
48.527,79.2263,0.003557
48.558,79.2200,0.003557
48.589,79.2138,0.003576
48.619,79.2078,0.003576
48.650,79.2016,0.003576
48.681,79.1955,0.003576
48.713,79.1891,0.003576
48.743,79.1829,0.003576
48.773,79.1771,0.003576
48.804,79.1707,0.003576
48.836,79.1644,0.003604
48.866,79.1583,0.003604
48.896,79.1523,0.003604
48.927,79.1461,0.003604
48.959,79.1399,0.003604
48.990,79.1335,0.003604
49.021,79.1273,0.003604
49.053,79.1209,0.003604
49.085,79.1146,0.003604
49.116,79.1085,0.003576
49.147,79.1023,0.003576
49.178,79.0961,0.003576
49.210,79.0897,0.003576
49.240,79.0835,0.003576
49.272,79.0772,0.003576
49.302,79.0711,0.003576
49.334,79.0647,0.003632
49.365,79.0587,0.003632
49.395,79.0527,0.003632
49.426,79.0465,0.003632
49.456,79.0404,0.003632
49.488,79.0339,0.003632
49.519,79.0277,0.003632
49.550,79.0218,0.003632
49.580,79.0155,0.003632
49.611,79.0095,0.003660
49.642,79.0032,0.003660
49.673,78.9970,0.003660
49.705,78.9905,0.003660
49.736,78.9843,0.003660
49.767,78.9782,0.003660
49.798,78.9722,0.003660
49.828,78.9661,0.003651
49.859,78.9599,0.003651
49.890,78.9534,0.003651
49.921,78.9476,0.003651
49.952,78.9412,0.003651
49.983,78.9351,0.003651
50.014,78.9288,0.003651
50.045,78.9227,0.003651
50.076,78.9162,0.003651
50.108,78.9099,0.003623
50.139,78.9036,0.003623
50.171,78.8974,0.003623
50.202,78.8912,0.003623
50.233,78.8851,0.003623
50.264,78.8788,0.003623
50.295,78.8727,0.003623
50.326,78.8665,0.003538
50.357,78.8602,0.003538
50.389,78.8540,0.003538
50.419,78.8478,0.003538
50.452,78.8413,0.003538
50.483,78.8351,0.003538
50.514,78.8288,0.003538
50.544,78.8228,0.003538
50.574,78.8166,0.003538
50.606,78.8104,0.003548
50.638,78.8039,0.003548
50.669,78.7979,0.003548
50.699,78.7918,0.003548
50.730,78.7856,0.003548
50.761,78.7794,0.003548
50.792,78.7732,0.003548
50.823,78.7672,0.003604
50.854,78.7608,0.003604
50.885,78.7545,0.003604
50.916,78.7483,0.003604
50.948,78.7421,0.003604
50.979,78.7358,0.003604
51.010,78.7296,0.003604
51.042,78.7233,0.003604
51.073,78.7171,0.003651
51.103,78.7111,0.003651
51.134,78.7047,0.003651
51.166,78.6985,0.003651
51.196,78.6925,0.003651
51.225,78.6865,0.003651
51.256,78.6802,0.003651
51.287,78.6743,0.003651
51.318,78.6678,0.003651
51.350,78.6616,0.003651
51.381,78.6554,0.003651
51.413,78.6491,0.003651
51.443,78.6430,0.003651
51.474,78.6367,0.003651
51.505,78.6306,0.003651
51.537,78.6243,0.003651
51.567,78.6182,0.003632
51.597,78.6123,0.003632
51.628,78.6059,0.003632
51.659,78.6000,0.003632
51.689,78.5937,0.003632
51.721,78.5876,0.003632
51.752,78.5814,0.003632
51.782,78.5753,0.003632
51.814,78.5690,0.003595
51.844,78.5628,0.003595
51.876,78.5566,0.003595
51.906,78.5504,0.003595
51.937,78.5442,0.003595
51.969,78.5377,0.003595
52.000,78.5316,0.003595
52.031,78.5253,0.003595
52.062,78.5192,0.003623
52.093,78.5129,0.003623
52.125,78.5066,0.003623
52.156,78.5005,0.003623
52.187,78.4942,0.003623
52.219,78.4879,0.003623
52.249,78.4815,0.003623
52.280,78.4757,0.003623
52.310,78.4694,0.003670
52.341,78.4634,0.003670
52.373,78.4570,0.003670
52.404,78.4508,0.003670
52.436,78.4445,0.003670
52.467,78.4383,0.003670
52.498,78.4322,0.003670
52.529,78.4258,0.003670
52.560,78.4196,0.003623
52.592,78.4132,0.003623
52.623,78.4071,0.003623
52.654,78.4009,0.003623
52.685,78.3947,0.003623
52.716,78.3883,0.003623
52.747,78.3821,0.003623
52.778,78.3761,0.003623
52.809,78.3698,0.003623
52.841,78.3635,0.003576
52.872,78.3573,0.003576
52.903,78.3512,0.003576
52.934,78.3449,0.003576
52.965,78.3387,0.003576
52.996,78.3325,0.003576
53.026,78.3263,0.003576
53.057,78.3203,0.003557
53.088,78.3140,0.003557
53.120,78.3077,0.003557
53.151,78.3013,0.003557
53.182,78.2953,0.003557
53.214,78.2888,0.003557
53.244,78.2828,0.003557
53.276,78.2765,0.003557
53.307,78.2702,0.003557
53.339,78.2640,0.003557
53.369,78.2578,0.003557
53.400,78.2517,0.003557
53.431,78.2454,0.003557
53.462,78.2393,0.003557
53.492,78.2331,0.003557
53.523,78.2270,0.003557
53.554,78.2207,0.003557
53.586,78.2145,0.003557
53.618,78.2079,0.003566
53.649,78.2017,0.003566
53.680,78.1955,0.003566
53.712,78.1893,0.003566
53.742,78.1833,0.003566
53.774,78.1769,0.003566
53.805,78.1707,0.003566
53.836,78.1643,0.003566
53.868,78.1580,0.003604
53.898,78.1519,0.003604
53.930,78.1458,0.003604
53.960,78.1395,0.003604
53.992,78.1333,0.003604
54.022,78.1272,0.003604
54.052,78.1212,0.003604
54.084,78.1149,0.003604
54.115,78.1086,0.003613
54.147,78.1023,0.003613
54.178,78.0962,0.003613
54.209,78.0899,0.003613
54.241,78.0835,0.003613
54.271,78.0775,0.003613
54.302,78.0713,0.003613
54.333,78.0651,0.003613
54.364,78.0587,0.003576
54.394,78.0528,0.003576
54.426,78.0466,0.003576
54.457,78.0403,0.003576
54.489,78.0339,0.003576
54.520,78.0276,0.003576
54.550,78.0217,0.003576
54.582,78.0151,0.003604
54.613,78.0090,0.003604
54.644,78.0027,0.003604
54.675,77.9966,0.003604
54.706,77.9904,0.003604
54.738,77.9841,0.003604
54.769,77.9779,0.003604
54.799,77.9718,0.003604
54.831,77.9653,0.003604
54.862,77.9594,0.003623
54.893,77.9529,0.003623
54.925,77.9466,0.003623
54.956,77.9404,0.003623
54.987,77.9343,0.003623
55.018,77.9280,0.003623
55.049,77.9218,0.003623
55.080,77.9156,0.003623
55.110,77.9097,0.003623
55.142,77.9033,0.003623
55.172,77.8973,0.003623
55.203,77.8909,0.003623
55.235,77.8847,0.003623
55.266,77.8785,0.003623
55.296,77.8725,0.003623
55.327,77.8661,0.003623
55.359,77.8598,0.003595
55.390,77.8536,0.003595
55.421,77.8475,0.003595
55.451,77.8413,0.003595
55.482,77.8352,0.003595
55.513,77.8289,0.003595
55.545,77.8227,0.003595
55.576,77.8164,0.003595
55.607,77.8104,0.003623
55.638,77.8052,0.003623
55.669,77.8005,0.003623
55.700,77.7967,0.003623
55.731,77.7936,0.003623
55.762,77.7911,0.003623
55.793,77.7895,0.003623
55.824,77.7885,0.003623
55.855,77.7882,0.003548
55.886,77.7882,0.003548
55.918,77.7882,0.003548
55.949,77.7882,0.003548
55.981,77.7884,0.003548
56.012,77.7890,0.003548
56.043,77.7905,0.003548
56.075,77.7926,0.003548
56.106,77.7956,0.003491
56.137,77.7993,0.003491
56.169,77.8036,0.003491
56.200,77.8088,0.003491
56.231,77.8145,0.003491
56.262,77.8209,0.003491
56.292,77.8269,0.003491
56.323,77.8331,0.003491
56.354,77.8393,0.003472
56.385,77.8454,0.003472
56.417,77.8520,0.003472
56.447,77.8581,0.003472
56.478,77.8643,0.003472
56.510,77.8705,0.003472
56.541,77.8768,0.003472
56.572,77.8829,0.003472
56.604,77.8892,0.003538
56.635,77.8955,0.003538
56.666,77.9017,0.003538
56.696,77.9077,0.003538
56.728,77.9140,0.003538
56.759,77.9203,0.003538
56.790,77.9265,0.003538
56.821,77.9326,0.003679
56.852,77.9388,0.003679
56.885,77.9454,0.003679
56.914,77.9512,0.003679
56.945,77.9575,0.003679
56.976,77.9635,0.003679
57.007,77.9699,0.003679
57.039,77.9764,0.003679
57.069,77.9822,0.003679
57.101,77.9885,0.003632
57.132,77.9949,0.003632
57.163,78.0011,0.003632
57.195,78.0074,0.003632
57.226,78.0137,0.003632
57.257,78.0199,0.003632
57.288,78.0260,0.003632
57.319,78.0323,0.003632
57.350,78.0386,0.003604
57.383,78.0450,0.003604
57.414,78.0513,0.003604
57.444,78.0573,0.003604
57.475,78.0635,0.003604
57.506,78.0698,0.003604
57.537,78.0757,0.003604
57.568,78.0822,0.003604
57.599,78.0884,0.003604
57.631,78.0948,0.003604
57.662,78.1008,0.003604
57.693,78.1071,0.003604
57.725,78.1134,0.003604
57.756,78.1199,0.003604
57.788,78.1261,0.003604
57.819,78.1323,0.003576
57.851,78.1386,0.003576
57.881,78.1447,0.003576
57.911,78.1508,0.003576
57.942,78.1568,0.003576
57.973,78.1630,0.003576
58.004,78.1692,0.003576
58.035,78.1754,0.003576
58.066,78.1816,0.003576
58.097,78.1881,0.003576
58.129,78.1942,0.003576
58.160,78.2006,0.003576
58.193,78.2071,0.003576
58.223,78.2130,0.003576
58.254,78.2193,0.003576
58.286,78.2257,0.003576
58.316,78.2318,0.003576
58.347,78.2378,0.003576
58.379,78.2443,0.003613
58.408,78.2500,0.003613
58.439,78.2562,0.003613
58.469,78.2623,0.003613
58.500,78.2685,0.003613
58.531,78.2747,0.003613
58.562,78.2809,0.003613
58.593,78.2872,0.003660
58.623,78.2931,0.003660
58.654,78.2991,0.003660
58.685,78.3054,0.003660
58.716,78.3115,0.003660
58.746,78.3178,0.003660
58.777,78.3239,0.003660
58.807,78.3300,0.003660
58.838,78.3361,0.003670
58.869,78.3424,0.003670
58.901,78.3486,0.003670
58.933,78.3550,0.003670
58.964,78.3612,0.003670
58.995,78.3676,0.003670
59.026,78.3736,0.003670
59.058,78.3801,0.003670
59.088,78.3860,0.003623
59.119,78.3922,0.003623
59.149,78.3983,0.003623
59.180,78.4045,0.003623
59.212,78.4107,0.003623
59.242,78.4169,0.003623
59.274,78.4234,0.003623
59.305,78.4296,0.003623
59.337,78.4359,0.003585
59.367,78.4420,0.003585
59.398,78.4480,0.003585
59.430,78.4545,0.003585
59.461,78.4606,0.003585
59.493,78.4671,0.003585
59.524,78.4732,0.003585
59.554,78.4794,0.003613
59.585,78.4854,0.003613
59.616,78.4917,0.003613
59.647,78.4979,0.003613
59.679,78.5044,0.003613
59.711,78.5107,0.003613
59.742,78.5169,0.003613
59.773,78.5230,0.003613
59.804,78.5293,0.003613
59.835,78.5354,0.003613
59.868,78.5419,0.003585
59.898,78.5481,0.003585
59.929,78.5542,0.003585
59.961,78.5605,0.003585
59.991,78.5667,0.003585
60.022,78.5731,0.003585
60.053,78.5791,0.003585
60.084,78.5853,0.003585
60.115,78.5917,0.003557
60.147,78.5979,0.003557
60.178,78.6042,0.003557
60.209,78.6101,0.003557
60.240,78.6166,0.003557
60.271,78.6227,0.003557
60.303,78.6290,0.003557
60.335,78.6353,0.003566
60.366,78.6418,0.003566
60.397,78.6477,0.003566
60.429,78.6543,0.003566
60.460,78.6603,0.003566
60.491,78.6666,0.003566
60.522,78.6728,0.003566
60.553,78.6791,0.003566
60.584,78.6853,0.003566
60.615,78.6916,0.003538
60.646,78.6977,0.003538
60.677,78.7038,0.003538
60.708,78.7100,0.003538
60.739,78.7162,0.003538
60.770,78.7224,0.003538
60.801,78.7288,0.003538
60.832,78.7348,0.003576
60.864,78.7412,0.003576
60.895,78.7474,0.003576
60.926,78.7536,0.003576
60.958,78.7600,0.003576
60.989,78.7662,0.003576
61.020,78.7725,0.003576
61.050,78.7784,0.003576
61.081,78.7846,0.003576
61.112,78.7910,0.003613
61.143,78.7972,0.003613
61.175,78.8034,0.003613
61.206,78.8096,0.003613
61.236,78.8157,0.003613
61.268,78.8221,0.003613
61.300,78.8284,0.003613
61.331,78.8345,0.003557
61.361,78.8407,0.003557
61.393,78.8469,0.003557
61.424,78.8532,0.003557
61.455,78.8593,0.003557
61.485,78.8656,0.003557
61.516,78.8716,0.003557
61.547,78.8779,0.003557
61.579,78.8844,0.003557
61.610,78.8904,0.003557
61.641,78.8966,0.003557
61.672,78.9028,0.003557
61.703,78.9090,0.003557
61.734,78.9152,0.003557
61.765,78.9214,0.003557
61.796,78.9278,0.003557
61.827,78.9340,0.003566
61.858,78.9400,0.003566
61.890,78.9465,0.003566
61.921,78.9526,0.003566
61.952,78.9590,0.003566
61.983,78.9650,0.003566
62.014,78.9712,0.003566
62.045,78.9774,0.003566
62.076,78.9836,0.003632
62.107,78.9899,0.003632
62.138,78.9960,0.003632
62.169,79.0023,0.003632
62.200,79.0084,0.003632
62.231,79.0146,0.003632
62.262,79.0208,0.003632
62.294,79.0272,0.003632
62.324,79.0332,0.003670
62.356,79.0395,0.003670
62.387,79.0457,0.003670
62.419,79.0522,0.003670
62.449,79.0582,0.003670
62.481,79.0646,0.003670
62.510,79.0706,0.003670
62.541,79.0765,0.003670
62.572,79.0828,0.003595
62.603,79.0889,0.003595
62.634,79.0952,0.003595
62.666,79.1017,0.003595
62.697,79.1077,0.003595
62.728,79.1141,0.003595
62.759,79.1203,0.003595
62.790,79.1266,0.003595
62.822,79.1328,0.003595
62.853,79.1392,0.003632
62.884,79.1453,0.003632
62.916,79.1518,0.003632
62.947,79.1577,0.003632
62.978,79.1640,0.003632
63.009,79.1702,0.003632
63.040,79.1766,0.003632
63.071,79.1826,0.003632
63.102,79.1887,0.003632
63.133,79.1950,0.003632
63.164,79.2011,0.003632
63.195,79.2076,0.003632
63.226,79.2136,0.003632
63.257,79.2198,0.003632
63.289,79.2262,0.003632
63.319,79.2324,0.003632
63.350,79.2385,0.003604
63.381,79.2445,0.003604
63.411,79.2507,0.003604
63.443,79.2569,0.003604
63.473,79.2630,0.003604
63.505,79.2695,0.003604
63.536,79.2758,0.003604
63.567,79.2817,0.003585
63.597,79.2881,0.003585
63.628,79.2940,0.003585
63.659,79.3002,0.003585
63.690,79.3064,0.003585
63.721,79.3126,0.003585
63.752,79.3191,0.003585
63.783,79.3251,0.003585
63.814,79.3315,0.003576
63.846,79.3375,0.003576
63.876,79.3437,0.003576
63.907,79.3499,0.003576
63.938,79.3560,0.003576
63.969,79.3622,0.003576
64.000,79.3683,0.003576
64.031,79.3746,0.003576
64.063,79.3810,0.003585
64.093,79.3872,0.003585
64.125,79.3934,0.003585
64.157,79.3998,0.003585
64.188,79.4060,0.003585
64.219,79.4122,0.003585
64.249,79.4183,0.003585
64.283,79.4251,0.003585
64.312,79.4308,0.003595
64.343,79.4370,0.003595
64.374,79.4432,0.003595
64.405,79.4494,0.003595
64.436,79.4556,0.003595
64.467,79.4618,0.003595
64.497,79.4679,0.003595
64.529,79.4741,0.003595
64.559,79.4803,0.003557
64.590,79.4865,0.003557
64.621,79.4927,0.003557
64.652,79.4988,0.003557
64.682,79.5047,0.003557
64.713,79.5109,0.003557
64.744,79.5171,0.003557
64.775,79.5235,0.003557
64.805,79.5294,0.003557
64.836,79.5356,0.003585
64.867,79.5418,0.003585
64.897,79.5480,0.003585
64.928,79.5541,0.003585
64.960,79.5604,0.003585
64.991,79.5666,0.003585
65.022,79.5727,0.003585
65.052,79.5789,0.003585
65.082,79.5848,0.003623
65.114,79.5912,0.003623
65.143,79.5970,0.003623
65.175,79.6035,0.003623
65.206,79.6097,0.003623
65.237,79.6159,0.003623
65.269,79.6222,0.003623
65.300,79.6285,0.003623
65.331,79.6346,0.003566
65.361,79.6407,0.003566
65.392,79.6467,0.003566
65.423,79.6529,0.003566
65.455,79.6593,0.003566
65.485,79.6655,0.003566
65.517,79.6718,0.003566
65.548,79.6781,0.003566
65.580,79.6843,0.003613
65.610,79.6904,0.003613
65.641,79.6967,0.003613
65.673,79.7029,0.003613
65.703,79.7091,0.003613
65.734,79.7153,0.003613
65.765,79.7214,0.003613
65.796,79.7276,0.003613
65.827,79.7338,0.003613
65.858,79.7399,0.003613
65.889,79.7463,0.003613
65.920,79.7524,0.003613
65.951,79.7589,0.003613
65.982,79.7648,0.003613
66.013,79.7711,0.003613
66.044,79.7772,0.003613
66.075,79.7835,0.003604
66.105,79.7896,0.003604
66.136,79.7957,0.003604
66.167,79.8018,0.003604
66.198,79.8082,0.003604
66.229,79.8142,0.003604
66.260,79.8205,0.003604
66.291,79.8266,0.003604
66.322,79.8329,0.003604
66.354,79.8392,0.003595
66.385,79.8454,0.003595
66.416,79.8516,0.003595
66.447,79.8578,0.003595
66.478,79.8640,0.003595
66.509,79.8703,0.003595
66.541,79.8764,0.003595
66.572,79.8829,0.003595
66.603,79.8888,0.003595
66.635,79.8954,0.003642
66.665,79.9014,0.003642
66.696,79.9078,0.003642
66.727,79.9136,0.003642
66.757,79.9200,0.003642
66.788,79.9260,0.003642
66.820,79.9326,0.003642
66.852,79.9387,0.003660
66.884,79.9450,0.003660
66.914,79.9512,0.003660
66.946,79.9575,0.003660
66.978,79.9639,0.003660
67.008,79.9699,0.003660
67.039,79.9764,0.003660
67.071,79.9826,0.003660
67.101,79.9887,0.003604
67.134,79.9951,0.003604
67.164,80.0012,0.003604
67.194,80.0073,0.003604
67.226,80.0135,0.003604
67.257,80.0197,0.003604
67.289,80.0261,0.003604
67.320,80.0323,0.003604
67.351,80.0385,0.003642
67.382,80.0447,0.003642
67.414,80.0511,0.003642
67.445,80.0574,0.003642
67.477,80.0637,0.003642
67.506,80.0697,0.003642
67.537,80.0759,0.003642
67.569,80.0823,0.003642
67.600,80.0884,0.003604
67.631,80.0946,0.003604
67.663,80.1009,0.003604
67.694,80.1071,0.003604
67.724,80.1133,0.003604
67.754,80.1194,0.003604
67.786,80.1257,0.003604
67.817,80.1318,0.003604
67.848,80.1381,0.003576
67.878,80.1441,0.003576
67.909,80.1504,0.003576
67.940,80.1565,0.003576
67.972,80.1629,0.003576
68.003,80.1691,0.003576
68.035,80.1754,0.003576
68.067,80.1818,0.003576
68.098,80.1881,0.003585
68.128,80.1941,0.003585
68.160,80.2003,0.003585
68.191,80.2066,0.003585
68.222,80.2128,0.003585
68.253,80.2191,0.003585
68.284,80.2252,0.003585
68.315,80.2314,0.003585
68.346,80.2376,0.003585
68.377,80.2438,0.003557
68.408,80.2499,0.003557
68.439,80.2562,0.003557
68.470,80.2623,0.003557
68.501,80.2686,0.003557
68.532,80.2747,0.003557
68.563,80.2810,0.003557
68.594,80.2872,0.003576
68.625,80.2934,0.003576
68.657,80.2998,0.003576
68.688,80.3059,0.003576
68.718,80.3120,0.003576
68.749,80.3183,0.003576
68.781,80.3248,0.003576
68.812,80.3307,0.003576
68.842,80.3367,0.003576
68.874,80.3431,0.003557
68.904,80.3491,0.003557
68.934,80.3554,0.003557
68.966,80.3616,0.003557
68.997,80.3679,0.003557
69.029,80.3743,0.003557
69.060,80.3806,0.003557
69.091,80.3865,0.003548
69.123,80.3930,0.003548
69.154,80.3992,0.003548
69.185,80.4055,0.003548
69.217,80.4117,0.003548
69.248,80.4180,0.003548
69.278,80.4239,0.003548
69.309,80.4302,0.003548
69.340,80.4364,0.003576
69.371,80.4426,0.003576
69.402,80.4488,0.003576
69.433,80.4551,0.003576
69.463,80.4611,0.003576
69.496,80.4675,0.003576
69.526,80.4737,0.003576
69.557,80.4798,0.003576
69.588,80.4859,0.003604
69.618,80.4921,0.003604
69.649,80.4982,0.003604
69.681,80.5047,0.003604
69.711,80.5107,0.003604
69.742,80.5168,0.003604
69.773,80.5230,0.003604
69.804,80.5292,0.003604
69.835,80.5354,0.003660
69.866,80.5417,0.003660
69.897,80.5478,0.003660
69.929,80.5543,0.003660
69.959,80.5602,0.003660
69.990,80.5664,0.003660
70.021,80.5724,0.003660
70.051,80.5786,0.003660
70.082,80.5848,0.003613
70.113,80.5910,0.003613
70.144,80.5971,0.003613
70.176,80.6036,0.003613
70.207,80.6097,0.003613
70.238,80.6161,0.003613
70.269,80.6223,0.003613
70.300,80.6284,0.003613
70.331,80.6346,0.003576
70.363,80.6409,0.003576
70.393,80.6470,0.003576
70.425,80.6534,0.003576
70.455,80.6594,0.003576
70.486,80.6655,0.003576
70.517,80.6717,0.003576
70.548,80.6779,0.003576
70.578,80.6841,0.003576
70.609,80.6901,0.003585
70.640,80.6963,0.003585
70.671,80.7025,0.003585
70.702,80.7087,0.003585
70.733,80.7151,0.003585
70.764,80.7213,0.003585
70.795,80.7274,0.003585
70.826,80.7334,0.003548
70.857,80.7398,0.003548
70.888,80.7460,0.003548
70.919,80.7523,0.003548
70.951,80.7585,0.003548
70.982,80.7648,0.003548
71.014,80.7703,0.003548
71.045,80.7751,0.003548
71.076,80.7791,0.003548
71.107,80.7824,0.003538
71.138,80.7849,0.003538
71.169,80.7868,0.003538
71.200,80.7879,0.003538
71.230,80.7882,0.003538
71.262,80.7882,0.003538
71.293,80.7882,0.003538
71.324,80.7882,0.003604
71.355,80.7882,0.003604
71.386,80.7882,0.003604
71.418,80.7882,0.003604
71.449,80.7882,0.003604
71.480,80.7882,0.003604
71.510,80.7882,0.003604
71.540,80.7882,0.003604
71.571,80.7882,0.003679
71.601,80.7882,0.003679
71.633,80.7882,0.003679
71.664,80.7882,0.003679
71.696,80.7882,0.003679
71.727,80.7882,0.003679
71.759,80.7882,0.003679
71.790,80.7882,0.003679
71.821,80.7882,0.003623
71.853,80.7882,0.003623
71.883,80.7882,0.003623
71.915,80.7882,0.003623
71.947,80.7882,0.003623
71.978,80.7882,0.003623
72.010,80.7882,0.003623
72.041,80.7882,0.003623
72.071,80.7882,0.003566
72.101,80.7882,0.003566
72.135,80.7882,0.003566
72.164,80.7882,0.003566
72.194,80.7882,0.003566
72.225,80.7882,0.003566
72.256,80.7882,0.003566
72.287,80.7882,0.003566
72.319,80.7882,0.003595
72.349,80.7882,0.003595
72.381,80.7882,0.003595
72.412,80.7882,0.003595
72.442,80.7882,0.003595
72.474,80.7882,0.003595
72.504,80.7882,0.003595
72.536,80.7882,0.003595
72.567,80.7882,0.003595
72.597,80.7882,0.003632
72.628,80.7882,0.003632
72.659,80.7882,0.003632
72.690,80.7882,0.003632
72.721,80.7882,0.003632
72.753,80.7882,0.003632
72.785,80.7882,0.003632
72.815,80.7882,0.003632
72.846,80.7882,0.003632
72.877,80.7882,0.003632
72.907,80.7882,0.003632
72.938,80.7882,0.003632
72.969,80.7882,0.003632
73.000,80.7882,0.003632
73.032,80.7882,0.003632
73.064,80.7882,0.003632
73.095,80.7882,0.003604
73.126,80.7882,0.003604
73.157,80.7882,0.003604
73.188,80.7882,0.003604
73.220,80.7882,0.003604
73.250,80.7882,0.003604
73.282,80.7882,0.003604
73.314,80.7882,0.003604
73.345,80.7882,0.003613
73.375,80.7882,0.003613
73.406,80.7882,0.003613
73.437,80.7882,0.003613
73.467,80.7882,0.003613
73.498,80.7882,0.003613
73.529,80.7882,0.003613
73.561,80.7882,0.003613
73.592,80.7882,0.003604
73.623,80.7882,0.003604
73.654,80.7882,0.003604
73.685,80.7882,0.003604
73.716,80.7882,0.003604
73.747,80.7882,0.003604
73.778,80.7882,0.003604
73.808,80.7882,0.003604
73.839,80.7882,0.003585
73.870,80.7882,0.003585
73.900,80.7882,0.003585
73.931,80.7882,0.003585
73.961,80.7882,0.003585
73.993,80.7882,0.003585
74.023,80.7882,0.003585
74.055,80.7882,0.003585
74.086,80.7882,0.003585
74.117,80.7882,0.003585
74.148,80.7882,0.003585
74.179,80.7882,0.003585
74.211,80.7882,0.003585
74.240,80.7882,0.003585
74.271,80.7882,0.003585
74.302,80.7882,0.003585
74.333,80.7882,0.003604
74.364,80.7882,0.003604
74.395,80.7882,0.003604
74.426,80.7882,0.003604
74.455,80.7882,0.003604
74.487,80.7882,0.003604
74.517,80.7882,0.003604
74.548,80.7882,0.003651
74.579,80.7882,0.003651
74.610,80.7882,0.003651
74.640,80.7882,0.003651
74.671,80.7882,0.003651
74.702,80.7882,0.003651
74.733,80.7882,0.003651
74.764,80.7882,0.003651
74.795,80.7882,0.003651
74.826,80.7882,0.003651
74.857,80.7882,0.003660
74.889,80.7882,0.003660
74.920,80.7882,0.003660
74.951,80.7882,0.003660
74.983,80.7882,0.003660
75.014,80.7882,0.003660
75.045,80.7882,0.003660
75.075,80.7882,0.003613
75.106,80.7882,0.003613
75.137,80.7882,0.003613
75.168,80.7882,0.003613
75.198,80.7882,0.003613
75.230,80.7882,0.003613
75.260,80.7882,0.003613
75.291,80.7882,0.003613
75.322,80.7882,0.003557
75.353,80.7882,0.003557
75.383,80.7882,0.003557
75.415,80.7882,0.003557
75.446,80.7882,0.003557
75.476,80.7882,0.003557
75.506,80.7882,0.003557
75.537,80.7882,0.003557
75.569,80.7882,0.003557
75.601,80.7882,0.003557
75.632,80.7882,0.003557
75.663,80.7882,0.003557
75.693,80.7882,0.003557
75.724,80.7882,0.003557
75.755,80.7882,0.003557
75.786,80.7882,0.003557
75.818,80.7882,0.003566
75.849,80.7882,0.003566
75.881,80.7882,0.003566
75.911,80.7882,0.003566
75.943,80.7882,0.003566
75.973,80.7882,0.003566
76.004,80.7882,0.003566
76.035,80.7876,0.003566
76.066,80.7863,0.003566
76.097,80.7843,0.003576
76.129,80.7814,0.003576
76.160,80.7778,0.003576
76.191,80.7735,0.003576
76.222,80.7687,0.003576
76.253,80.7628,0.003576
76.284,80.7565,0.003576
76.316,80.7503,0.003576
76.348,80.7437,0.003613
76.379,80.7376,0.003613
76.410,80.7314,0.003613
76.441,80.7251,0.003613
76.472,80.7190,0.003613
76.503,80.7128,0.003613
76.533,80.7071,0.003613
76.565,80.7006,0.003613
76.597,80.6942,0.003642
76.627,80.6880,0.003642
76.658,80.6821,0.003642
76.689,80.6758,0.003642
76.720,80.6696,0.003642
76.751,80.6635,0.003642
76.781,80.6573,0.003642
76.812,80.6511,0.003642
76.844,80.6448,0.003576
76.875,80.6384,0.003576
76.905,80.6323,0.003576
76.936,80.6261,0.003576
76.967,80.6202,0.003576
76.999,80.6137,0.003576
77.030,80.6074,0.003576
77.060,80.6013,0.003576
77.090,80.5955,0.003576
77.121,80.5893,0.003557
77.152,80.5830,0.003557
77.184,80.5768,0.003557
77.216,80.5703,0.003557
77.245,80.5644,0.003557
77.277,80.5582,0.003557
77.307,80.5520,0.003557
77.338,80.5459,0.003557
77.370,80.5393,0.003557
77.400,80.5335,0.003557
77.431,80.5273,0.003557
77.463,80.5209,0.003557
77.494,80.5148,0.003557
77.524,80.5086,0.003557
77.556,80.5024,0.003613
77.587,80.4962,0.003613
77.618,80.4898,0.003613
77.649,80.4838,0.003613
77.681,80.4773,0.003613
77.712,80.4711,0.003613
77.742,80.4650,0.003613
77.773,80.4590,0.003613
77.804,80.4526,0.003613
77.837,80.4462,0.003632
77.867,80.4401,0.003632
77.898,80.4339,0.003632
77.930,80.4275,0.003632
77.962,80.4210,0.003632
77.992,80.4151,0.003632
78.022,80.4091,0.003632
78.053,80.4028,0.003632
78.084,80.3968,0.003566
78.114,80.3908,0.003566
78.146,80.3844,0.003566
78.176,80.3783,0.003566
78.207,80.3720,0.003566
78.238,80.3658,0.003566
78.269,80.3596,0.003566
78.301,80.3534,0.003566
78.333,80.3470,0.003566
78.363,80.3409,0.003566
78.394,80.3346,0.003566
78.426,80.3285,0.003566
78.458,80.3220,0.003566
78.488,80.3157,0.003566
78.519,80.3099,0.003566
78.552,80.3031,0.003566
78.581,80.2974,0.003566
78.612,80.2909,0.003613
78.644,80.2847,0.003613
78.674,80.2788,0.003613
78.705,80.2726,0.003613
78.735,80.2665,0.003613
78.767,80.2602,0.003613
78.799,80.2538,0.003613
78.830,80.2476,0.003613
78.862,80.2413,0.003670
78.891,80.2354,0.003670
78.922,80.2291,0.003670
78.954,80.2227,0.003670
78.986,80.2164,0.003670
79.017,80.2102,0.003670
79.049,80.2038,0.003670
79.081,80.1974,0.003670
79.110,80.1914,0.003623
79.142,80.1851,0.003623
79.172,80.1790,0.003623
79.202,80.1732,0.003623
79.233,80.1670,0.003623
79.264,80.1607,0.003623
79.296,80.1544,0.003623
79.325,80.1485,0.003623
79.356,80.1425,0.003566
79.386,80.1363,0.003566
79.418,80.1299,0.003566
79.448,80.1240,0.003566
79.479,80.1178,0.003566
79.510,80.1116,0.003566
79.541,80.1052,0.003566
79.573,80.0988,0.003576
79.603,80.0930,0.003576
79.634,80.0866,0.003576
79.665,80.0806,0.003576
79.696,80.0745,0.003576
79.727,80.0680,0.003576
79.761,80.0613,0.003576
79.790,80.0555,0.003576
79.821,80.0493,0.003585
79.852,80.0431,0.003585
79.883,80.0370,0.003585
79.914,80.0308,0.003585
79.945,80.0245,0.003585
79.976,80.0184,0.003585
80.008,80.0120,0.003585
80.039,80.0057,0.003585
80.070,79.9995,0.003585
80.101,79.9933,0.003566
80.132,79.9872,0.003566
80.164,79.9807,0.003566
80.194,79.9748,0.003566
80.226,79.9683,0.003566
80.257,79.9621,0.003566
80.288,79.9560,0.003566
80.318,79.9498,0.003566
80.348,79.9439,0.003529
80.379,79.9376,0.003529
80.410,79.9316,0.003529
80.440,79.9254,0.003529
80.471,79.9192,0.003529
80.502,79.9130,0.003529
80.533,79.9069,0.003529
80.564,79.9007,0.003500
80.595,79.8945,0.003500
80.627,79.8881,0.003500
80.657,79.8821,0.003500
80.688,79.8759,0.003500
80.719,79.8697,0.003500
80.750,79.8635,0.003500
80.781,79.8575,0.003500
80.812,79.8512,0.003519
80.844,79.8448,0.003519
80.877,79.8381,0.003519
80.906,79.8322,0.003519
80.938,79.8259,0.003519
80.969,79.8199,0.003519
81.000,79.8137,0.003519
81.031,79.8073,0.003519
81.062,79.8011,0.003519
81.094,79.7946,0.003519
81.123,79.7887,0.003642
81.155,79.7827,0.003642
81.186,79.7765,0.003642
81.217,79.7701,0.003642
81.248,79.7639,0.003642
81.279,79.7577,0.003642
81.310,79.7515,0.003642
81.341,79.7453,0.003642
81.372,79.7391,0.003642
81.402,79.7331,0.003642
81.434,79.7267,0.003642
81.465,79.7205,0.003642
81.496,79.7143,0.003642
81.527,79.7083,0.003642
81.558,79.7019,0.003642
81.589,79.6957,0.003642
81.620,79.6895,0.003642
81.652,79.6832,0.003642
81.683,79.6770,0.003642
81.714,79.6707,0.003642
81.745,79.6645,0.003642
81.777,79.6581,0.003642
81.809,79.6516,0.003642
81.841,79.6454,0.003613
81.871,79.6393,0.003613
81.903,79.6330,0.003613
81.934,79.6266,0.003613
81.966,79.6203,0.003613
81.997,79.6141,0.003613
82.028,79.6078,0.003613
82.059,79.6017,0.003613
82.090,79.5955,0.003548
82.122,79.5892,0.003548
82.153,79.5830,0.003548
82.185,79.5765,0.003548
82.216,79.5705,0.003548
82.248,79.5640,0.003548
82.279,79.5578,0.003548
82.310,79.5515,0.003548
82.341,79.5453,0.003576
82.371,79.5392,0.003576
82.402,79.5331,0.003576
82.433,79.5268,0.003576
82.464,79.5207,0.003576
82.495,79.5145,0.003576
82.526,79.5083,0.003576
82.556,79.5022,0.003576
82.588,79.4959,0.003576
82.619,79.4897,0.003585
82.650,79.4835,0.003585
82.680,79.4774,0.003585
82.711,79.4715,0.003585
82.742,79.4653,0.003585
82.772,79.4591,0.003585
82.804,79.4528,0.003585
82.835,79.4464,0.003557
82.867,79.4402,0.003557
82.897,79.4342,0.003557
82.927,79.4281,0.003557
82.958,79.4219,0.003557
82.989,79.4158,0.003557
83.020,79.4097,0.003557
83.050,79.4034,0.003557
83.081,79.3973,0.003557
83.111,79.3912,0.003585
83.142,79.3852,0.003585
83.173,79.3791,0.003585
83.204,79.3729,0.003585
83.235,79.3666,0.003585
83.267,79.3602,0.003585
83.297,79.3539,0.003585
83.329,79.3477,0.003613
83.361,79.3414,0.003613
83.392,79.3352,0.003613
83.424,79.3289,0.003613
83.455,79.3225,0.003613
83.486,79.3165,0.003613
83.516,79.3104,0.003613
83.546,79.3043,0.003613
83.579,79.2977,0.003557
83.608,79.2918,0.003557
83.641,79.2855,0.003557
83.671,79.2795,0.003557
83.701,79.2733,0.003557
83.733,79.2670,0.003557
83.764,79.2607,0.003557
83.795,79.2546,0.003557
83.826,79.2481,0.003566
83.857,79.2419,0.003566
83.887,79.2360,0.003566
83.918,79.2298,0.003566
83.948,79.2239,0.003566
83.979,79.2179,0.003566
84.010,79.2114,0.003566
84.042,79.2053,0.003566
84.072,79.1990,0.003566
84.103,79.1931,0.003566
84.133,79.1869,0.003566
84.164,79.1809,0.003566
84.195,79.1745,0.003566
84.226,79.1681,0.003566
84.257,79.1621,0.003566
84.288,79.1559,0.003566
84.320,79.1495,0.003566
84.350,79.1436,0.003529
84.382,79.1371,0.003529
84.413,79.1310,0.003529
84.444,79.1247,0.003529
84.475,79.1186,0.003529
84.506,79.1122,0.003529
84.538,79.1060,0.003529
84.569,79.0999,0.003529
84.599,79.0938,0.003576
84.629,79.0878,0.003576
84.660,79.0813,0.003576
84.691,79.0754,0.003576
84.722,79.0692,0.003576
84.753,79.0628,0.003576
84.784,79.0568,0.003576
84.815,79.0506,0.003576
84.846,79.0445,0.003613
84.877,79.0382,0.003613
84.908,79.0321,0.003613
84.938,79.0260,0.003613
84.969,79.0198,0.003613
85.000,79.0135,0.003613
85.030,79.0076,0.003613
85.061,79.0013,0.003613
85.093,78.9950,0.003604
85.123,78.9889,0.003604
85.154,78.9827,0.003604
85.184,78.9768,0.003604
85.215,78.9706,0.003604
85.245,78.9645,0.003604
85.275,78.9584,0.003604
85.306,78.9523,0.003604
85.338,78.9459,0.003604
85.369,78.9397,0.003595
85.400,78.9336,0.003595
85.431,78.9274,0.003595
85.461,78.9212,0.003595
85.492,78.9151,0.003595
85.524,78.9088,0.003595
85.555,78.9026,0.003595
85.585,78.8965,0.003538
85.616,78.8902,0.003538
85.647,78.8842,0.003538
85.678,78.8780,0.003538
85.709,78.8717,0.003538
85.741,78.8654,0.003538
85.772,78.8591,0.003538
85.803,78.8530,0.003538
85.834,78.8464,0.003538
85.866,78.8403,0.003566
85.896,78.8345,0.003566
85.926,78.8283,0.003566
85.957,78.8222,0.003566
85.988,78.8160,0.003566
86.019,78.8098,0.003566
86.050,78.8037,0.003566
86.082,78.7973,0.003595
86.112,78.7911,0.003595
86.143,78.7849,0.003595
86.174,78.7788,0.003595
86.205,78.7725,0.003595
86.236,78.7664,0.003595
86.267,78.7601,0.003595
86.298,78.7540,0.003595
86.329,78.7477,0.003538
86.361,78.7415,0.003538
86.392,78.7350,0.003538
86.424,78.7287,0.003538
86.454,78.7228,0.003538
86.485,78.7167,0.003538
86.516,78.7105,0.003538
86.547,78.7042,0.003538
86.578,78.6981,0.003453
86.609,78.6919,0.003453
86.640,78.6858,0.003453
86.671,78.6794,0.003453
86.703,78.6732,0.003453
86.734,78.6668,0.003453
86.765,78.6606,0.003453
86.796,78.6544,0.003453
86.827,78.6482,0.003519
86.859,78.6418,0.003519
86.889,78.6358,0.003519
86.920,78.6296,0.003519
86.950,78.6234,0.003519
86.982,78.6172,0.003519
87.013,78.6110,0.003519
87.043,78.6049,0.003519
87.074,78.5986,0.003651
87.106,78.5924,0.003651
87.137,78.5862,0.003651
87.168,78.5799,0.003651
87.199,78.5737,0.003651
87.230,78.5675,0.003651
87.262,78.5612,0.003651
87.293,78.5551,0.003651
87.324,78.5489,0.003613
87.354,78.5428,0.003613
87.386,78.5364,0.003613
87.416,78.5303,0.003613
87.446,78.5244,0.003613
87.477,78.5182,0.003613
87.508,78.5120,0.003613
87.539,78.5057,0.003613
87.570,78.4996,0.003613
87.602,78.4932,0.003548
87.631,78.4875,0.003548
87.662,78.4812,0.003548
87.694,78.4748,0.003548
87.725,78.4685,0.003548
87.758,78.4622,0.003548
87.789,78.4559,0.003548
87.819,78.4497,0.003557
87.851,78.4435,0.003557
87.881,78.4374,0.003557
87.913,78.4308,0.003557
87.944,78.4246,0.003557
87.975,78.4185,0.003557
88.005,78.4126,0.003557
88.036,78.4064,0.003557
88.067,78.4003,0.003557
88.098,78.3940,0.003548
88.130,78.3876,0.003548
88.160,78.3816,0.003548
88.190,78.3755,0.003548
88.222,78.3692,0.003548
88.253,78.3628,0.003548
88.284,78.3569,0.003548
88.315,78.3506,0.003566
88.347,78.3444,0.003566
88.377,78.3382,0.003566
88.408,78.3320,0.003566
88.439,78.3258,0.003566
88.470,78.3196,0.003566
88.500,78.3136,0.003566
88.531,78.3073,0.003566
88.563,78.3011,0.003566
88.593,78.2948,0.003566
88.625,78.2886,0.003604
88.656,78.2824,0.003604
88.687,78.2763,0.003604
88.718,78.2701,0.003604
88.749,78.2637,0.003604
88.781,78.2574,0.003604
88.813,78.2511,0.003604
88.844,78.2448,0.003595
88.875,78.2386,0.003595
88.907,78.2322,0.003595
88.938,78.2260,0.003595
88.969,78.2198,0.003595
89.000,78.2135,0.003595
89.031,78.2074,0.003595
89.062,78.2012,0.003595
89.094,78.1949,0.003604
89.124,78.1887,0.003604
89.155,78.1824,0.003604
89.186,78.1763,0.003604
89.217,78.1702,0.003604
89.248,78.1639,0.003604
89.280,78.1577,0.003604
89.311,78.1514,0.003604
89.343,78.1449,0.003585
89.374,78.1387,0.003585
89.405,78.1325,0.003585
89.437,78.1262,0.003585
89.468,78.1199,0.003585
89.497,78.1142,0.003585
89.528,78.1081,0.003585
89.559,78.1018,0.003604
89.590,78.0955,0.003604
89.621,78.0894,0.003604
89.652,78.0830,0.003604
89.684,78.0770,0.003604
89.714,78.0706,0.003604
89.745,78.0644,0.003604
89.777,78.0582,0.003604
89.808,78.0522,0.003651
89.839,78.0457,0.003651
89.870,78.0396,0.003651
89.901,78.0332,0.003651
89.932,78.0271,0.003651
89.963,78.0209,0.003651
89.994,78.0150,0.003651
90.025,78.0086,0.003651
90.057,78.0021,0.003613
90.088,77.9961,0.003613
90.120,77.9897,0.003613
90.150,77.9835,0.003613
90.181,77.9775,0.003613
90.211,77.9713,0.003613
90.242,77.9651,0.003613
90.273,77.9590,0.003613
90.305,77.9525,0.003613
90.336,77.9465,0.003595
90.367,77.9403,0.003595
90.398,77.9341,0.003595
90.430,77.9276,0.003595
90.461,77.9214,0.003595
90.493,77.9151,0.003595
90.523,77.9090,0.003595
90.554,77.9028,0.003595
90.585,77.8965,0.003632
90.616,77.8903,0.003632
90.647,77.8842,0.003632
90.678,77.8780,0.003632
90.708,77.8720,0.003632
90.739,77.8658,0.003632
90.770,77.8596,0.003632
90.802,77.8532,0.003632
90.832,77.8470,0.003632
90.863,77.8411,0.003595
90.894,77.8349,0.003595
90.926,77.8284,0.003595
90.958,77.8221,0.003595
90.990,77.8157,0.003595
91.020,77.8096,0.003595
91.051,77.8033,0.003595
91.082,77.7972,0.003576
91.112,77.7910,0.003576
91.144,77.7848,0.003576
91.175,77.7786,0.003576
91.206,77.7724,0.003576
91.238,77.7660,0.003576
91.268,77.7601,0.003576
91.299,77.7550,0.003576
91.329,77.7504,0.003548
91.361,77.7466,0.003548
91.393,77.7433,0.003548
91.422,77.7410,0.003548
91.453,77.7395,0.003548
91.485,77.7385,0.003548
91.514,77.7383,0.003548
91.545,77.7383,0.003548
91.576,77.7383,0.003548
91.607,77.7383,0.003548
91.639,77.7383,0.003548
91.669,77.7383,0.003548
91.701,77.7383,0.003548
91.732,77.7383,0.003548
91.763,77.7383,0.003548
91.794,77.7383,0.003613
91.824,77.7383,0.003613
91.856,77.7383,0.003613
91.887,77.7383,0.003613
91.918,77.7383,0.003613
91.949,77.7383,0.003613
91.980,77.7383,0.003613
92.011,77.7383,0.003613
92.041,77.7383,0.003613
92.072,77.7383,0.003613
92.104,77.7383,0.003585
92.135,77.7385,0.003585
92.167,77.7396,0.003585
92.199,77.7415,0.003585
92.231,77.7441,0.003585
92.263,77.7474,0.003585
92.294,77.7514,0.003585
92.324,77.7561,0.003585
92.356,77.7617,0.003453
92.386,77.7675,0.003453
92.417,77.7739,0.003453
92.447,77.7799,0.003453
92.479,77.7863,0.003453
92.510,77.7922,0.003453
92.541,77.7987,0.003453
92.572,77.8047,0.003453
92.603,77.8111,0.003425
92.635,77.8174,0.003425
92.666,77.8237,0.003425
92.697,77.8297,0.003425
92.729,77.8362,0.003425
92.760,77.8424,0.003425
92.792,77.8490,0.003425
92.823,77.8551,0.003425
92.855,77.8614,0.003519
92.887,77.8677,0.003519
92.917,77.8738,0.003519
92.948,77.8799,0.003519
92.979,77.8861,0.003519
93.010,77.8924,0.003519
93.040,77.8985,0.003519
93.071,77.9045,0.003519
93.101,77.9107,0.003595
93.131,77.9166,0.003595
93.162,77.9227,0.003595
93.193,77.9289,0.003595
93.224,77.9351,0.003595
93.255,77.9413,0.003595
93.286,77.9476,0.003595
93.316,77.9537,0.003623
93.348,77.9601,0.003623
93.381,77.9665,0.003623
93.411,77.9727,0.003623
93.441,77.9786,0.003623
93.472,77.9848,0.003623
93.503,77.9910,0.003623
93.533,77.9970,0.003623
93.564,78.0031,0.003623
93.594,78.0091,0.003613
93.625,78.0153,0.003613
93.656,78.0215,0.003613
93.687,78.0279,0.003613
93.719,78.0341,0.003613
93.750,78.0404,0.003613
93.781,78.0466,0.003613
93.813,78.0530,0.003670
93.844,78.0592,0.003670
93.876,78.0654,0.003670
93.906,78.0718,0.003670
93.938,78.0778,0.003670
93.969,78.0842,0.003670
94.000,78.0904,0.003670
94.031,78.0966,0.003670
94.062,78.1029,0.003670
94.093,78.1090,0.003670
94.125,78.1154,0.003670
94.155,78.1215,0.003670
94.186,78.1276,0.003670
94.217,78.1336,0.003670
94.248,78.1400,0.003670
94.279,78.1463,0.003670
94.309,78.1523,0.003632
94.340,78.1585,0.003632
94.371,78.1647,0.003632
94.403,78.1710,0.003632
94.434,78.1773,0.003632
94.465,78.1834,0.003632
94.496,78.1896,0.003632
94.527,78.1958,0.003632
94.558,78.2021,0.003632
94.590,78.2083,0.003632
94.621,78.2145,0.003585
94.652,78.2208,0.003585
94.685,78.2273,0.003585
94.714,78.2331,0.003585
94.746,78.2396,0.003585
94.777,78.2458,0.003585
94.809,78.2522,0.003585
94.839,78.2582,0.003566
94.870,78.2645,0.003566
94.901,78.2706,0.003566
94.931,78.2766,0.003566
94.962,78.2830,0.003566
94.994,78.2892,0.003566
95.025,78.2953,0.003566
95.055,78.3013,0.003566
95.086,78.3074,0.003604
95.117,78.3137,0.003604
95.147,78.3198,0.003604
95.178,78.3260,0.003604
95.210,78.3323,0.003604
95.241,78.3384,0.003604
95.272,78.3447,0.003604
95.304,78.3513,0.003604
95.336,78.3575,0.003585
95.367,78.3638,0.003585
95.398,78.3702,0.003585
95.429,78.3762,0.003585
95.461,78.3824,0.003585
95.492,78.3888,0.003585
95.523,78.3950,0.003585
95.555,78.4013,0.003585
95.586,78.4075,0.003557
95.617,78.4136,0.003557
95.648,78.4200,0.003557
95.679,78.4261,0.003557
95.710,78.4323,0.003557
95.740,78.4385,0.003557
95.771,78.4446,0.003557
95.802,78.4508,0.003557
95.833,78.4570,0.003576
95.864,78.4632,0.003576
95.895,78.4693,0.003576
95.926,78.4756,0.003576
95.958,78.4819,0.003576
95.989,78.4881,0.003576
96.019,78.4942,0.003576
96.050,78.5005,0.003576
96.081,78.5065,0.003623
96.112,78.5128,0.003623
96.145,78.5194,0.003623
96.174,78.5252,0.003623
96.206,78.5315,0.003623
96.235,78.5373,0.003623
96.266,78.5437,0.003623
96.298,78.5497,0.003623
96.328,78.5558,0.003623
96.359,78.5622,0.003604
96.389,78.5682,0.003604
96.420,78.5743,0.003604
96.452,78.5806,0.003604
96.484,78.5871,0.003604
96.516,78.5934,0.003604
96.546,78.5996,0.003604
96.577,78.6058,0.003576
96.609,78.6120,0.003576
96.640,78.6183,0.003576
96.671,78.6247,0.003576
96.702,78.6306,0.003576
96.733,78.6371,0.003576
96.764,78.6430,0.003576
96.795,78.6493,0.003576
96.826,78.6555,0.003576
96.857,78.6617,0.003576
96.888,78.6679,0.003576
96.919,78.6743,0.003576
96.949,78.6803,0.003576
96.980,78.6864,0.003576
97.012,78.6930,0.003576
97.042,78.6989,0.003576
97.073,78.7051,0.003548
97.106,78.7116,0.003548
97.137,78.7178,0.003548
97.168,78.7239,0.003548
97.199,78.7301,0.003548
97.229,78.7362,0.003548
97.260,78.7422,0.003548
97.291,78.7487,0.003548
97.322,78.7549,0.003548
97.353,78.7612,0.003548
97.385,78.7674,0.003576
97.415,78.7735,0.003576
97.446,78.7797,0.003576
97.478,78.7859,0.003576
97.509,78.7921,0.003576
97.541,78.7987,0.003576
97.571,78.8046,0.003576
97.601,78.8107,0.003585
97.631,78.8168,0.003585
97.663,78.8228,0.003585
97.693,78.8289,0.003585
97.725,78.8352,0.003585
97.756,78.8417,0.003585
97.787,78.8478,0.003585
97.819,78.8542,0.003585
97.851,78.8607,0.003604
97.885,78.8672,0.003604
97.914,78.8732,0.003604
97.944,78.8793,0.003604
97.977,78.8856,0.003604
98.007,78.8917,0.003604
98.038,78.8979,0.003604
98.068,78.9040,0.003604
98.099,78.9102,0.003623
98.131,78.9166,0.003623
98.162,78.9227,0.003623
98.193,78.9289,0.003623
98.223,78.9348,0.003623
98.254,78.9412,0.003623
98.285,78.9472,0.003623
98.316,78.9537,0.003623
98.348,78.9600,0.003557
98.380,78.9662,0.003557
98.410,78.9724,0.003557
98.442,78.9787,0.003557
98.473,78.9851,0.003557
98.504,78.9913,0.003557
98.535,78.9973,0.003557
98.565,79.0034,0.003538
98.596,79.0096,0.003538
98.628,79.0161,0.003538
98.659,79.0223,0.003538
98.690,79.0284,0.003538
98.721,79.0347,0.003538
98.752,79.0408,0.003538
98.782,79.0468,0.003538
98.814,79.0530,0.003595
98.845,79.0592,0.003595
98.876,79.0656,0.003595
98.906,79.0715,0.003595
98.937,79.0778,0.003595
98.968,79.0840,0.003595
98.999,79.0904,0.003595
99.031,79.0966,0.003595
99.062,79.1028,0.003595
99.092,79.1088,0.003595
99.123,79.1149,0.003595
99.154,79.1210,0.003595
99.184,79.1272,0.003595
99.216,79.1335,0.003595
99.248,79.1399,0.003595
99.279,79.1462,0.003595
99.310,79.1524,0.003595
99.340,79.1585,0.003595
99.374,79.1650,0.003566
99.404,79.1710,0.003566
99.435,79.1773,0.003566
99.466,79.1835,0.003566
99.497,79.1897,0.003566
99.527,79.1957,0.003566
99.558,79.2019,0.003566
99.591,79.2084,0.003623
99.620,79.2144,0.003623
99.652,79.2207,0.003623
99.684,79.2272,0.003623
99.714,79.2331,0.003623
99.745,79.2394,0.003623
99.776,79.2455,0.003623
99.806,79.2516,0.003623
99.837,79.2578,0.003623
99.869,79.2641,0.003651
99.900,79.2703,0.003651
99.932,79.2768,0.003651
99.963,79.2830,0.003651
99.994,79.2891,0.003651
100.024,79.2951,0.003651
100.055,79.3013,0.003651
100.086,79.3075,0.003651
100.117,79.3139,0.003576
100.148,79.3198,0.003576
100.178,79.3261,0.003576
100.209,79.3321,0.003576
100.240,79.3385,0.003576
100.271,79.3445,0.003576
100.301,79.3507,0.003576
100.334,79.3571,0.003595
100.365,79.3635,0.003595
100.397,79.3698,0.003595
100.428,79.3760,0.003595
100.459,79.3822,0.003595
100.491,79.3884,0.003595
100.520,79.3945,0.003595
100.551,79.4007,0.003576
100.584,79.4071,0.003576
100.613,79.4130,0.003576
100.644,79.4190,0.003576
100.675,79.4252,0.003576
100.706,79.4314,0.003576
100.737,79.4376,0.003576
100.768,79.4440,0.003576
100.799,79.4500,0.003576
100.830,79.4562,0.003576
100.862,79.4626,0.003557
100.893,79.4690,0.003557
100.924,79.4751,0.003557
100.956,79.4815,0.003557
100.985,79.4875,0.003557
101.017,79.4938,0.003557
101.048,79.4999,0.003557
101.079,79.5062,0.003557
101.111,79.5124,0.003604
101.140,79.5185,0.003604
101.171,79.5246,0.003604
101.202,79.5309,0.003604
101.235,79.5372,0.003604
101.264,79.5432,0.003604
101.296,79.5495,0.003604
101.327,79.5558,0.003651
101.359,79.5620,0.003651
101.390,79.5684,0.003651
101.421,79.5744,0.003651
101.452,79.5809,0.003651
101.482,79.5867,0.003651
101.514,79.5930,0.003651
101.544,79.5991,0.003651
101.576,79.6054,0.003613
101.607,79.6118,0.003613
101.638,79.6180,0.003613
101.669,79.6239,0.003613
101.702,79.6307,0.003613
101.730,79.6363,0.003613
101.762,79.6428,0.003613
101.792,79.6487,0.003613
101.824,79.6552,0.003548
101.855,79.6612,0.003548
101.886,79.6677,0.003548
101.918,79.6739,0.003548
101.949,79.6802,0.003548
101.980,79.6863,0.003548
102.010,79.6925,0.003548
102.042,79.6987,0.003548
102.073,79.7050,0.003595
102.103,79.7111,0.003595
102.135,79.7173,0.003595
102.166,79.7234,0.003595
102.196,79.7295,0.003595
102.227,79.7359,0.003595
102.259,79.7421,0.003595
102.290,79.7484,0.003595
102.322,79.7548,0.003660
102.353,79.7608,0.003660
102.383,79.7672,0.003660
102.415,79.7732,0.003660
102.447,79.7797,0.003660
102.478,79.7858,0.003660
102.508,79.7920,0.003660
102.538,79.7979,0.003660
102.570,79.8044,0.003660
102.601,79.8106,0.003595
102.632,79.8169,0.003595
102.663,79.8228,0.003595
102.694,79.8290,0.003595
102.725,79.8353,0.003595
102.755,79.8415,0.003595
102.786,79.8477,0.003595
102.818,79.8539,0.003595
102.849,79.8602,0.003585
102.880,79.8664,0.003585
102.910,79.8723,0.003585
102.941,79.8785,0.003585
102.972,79.8849,0.003585
103.004,79.8911,0.003585
103.035,79.8974,0.003585
103.066,79.9036,0.003632
103.097,79.9097,0.003632
103.127,79.9156,0.003632
103.158,79.9219,0.003632
103.189,79.9283,0.003632
103.221,79.9343,0.003632
103.252,79.9405,0.003632
103.283,79.9470,0.003632
103.314,79.9531,0.003613
103.345,79.9595,0.003613
103.376,79.9656,0.003613
103.408,79.9719,0.003613
103.438,79.9779,0.003613
103.469,79.9841,0.003613
103.500,79.9902,0.003613
103.531,79.9965,0.003613
103.561,80.0026,0.003670
103.592,80.0088,0.003670
103.623,80.0150,0.003670
103.654,80.0213,0.003670
103.686,80.0274,0.003670
103.718,80.0338,0.003670
103.750,80.0401,0.003670
103.781,80.0465,0.003670
103.812,80.0528,0.003670
103.842,80.0587,0.003670
103.874,80.0649,0.003651
103.905,80.0714,0.003651
103.938,80.0778,0.003651
103.968,80.0839,0.003651
103.999,80.0901,0.003651
104.031,80.0963,0.003651
104.062,80.1028,0.003651
104.093,80.1088,0.003576
104.125,80.1153,0.003576
104.156,80.1216,0.003576
104.188,80.1278,0.003576
104.219,80.1343,0.003576
104.250,80.1403,0.003576
104.281,80.1465,0.003576
104.312,80.1528,0.003576
104.344,80.1591,0.003585
104.375,80.1653,0.003585
104.406,80.1714,0.003585
104.437,80.1777,0.003585
104.467,80.1836,0.003585
104.498,80.1900,0.003585
104.529,80.1960,0.003585
104.559,80.2021,0.003585
104.590,80.2083,0.003585
104.622,80.2146,0.003585
104.653,80.2210,0.003585
104.684,80.2272,0.003585
104.714,80.2332,0.003585
104.745,80.2393,0.003585
104.776,80.2455,0.003585
104.808,80.2518,0.003576
104.839,80.2580,0.003576
104.870,80.2645,0.003576
104.901,80.2704,0.003576
104.933,80.2768,0.003576
104.965,80.2832,0.003576
104.994,80.2892,0.003576
105.024,80.2953,0.003576
105.055,80.3012,0.003576
105.086,80.3075,0.003566
105.116,80.3135,0.003566
105.147,80.3198,0.003566
105.177,80.3256,0.003566
105.208,80.3321,0.003566
105.240,80.3383,0.003566
105.272,80.3447,0.003566
105.303,80.3509,0.003557
105.336,80.3575,0.003557
105.366,80.3635,0.003557
105.396,80.3697,0.003557
105.428,80.3757,0.003557
105.459,80.3821,0.003557
105.489,80.3883,0.003557
105.520,80.3943,0.003557
105.551,80.4004,0.003557
105.583,80.4069,0.003557
105.613,80.4130,0.003595
105.644,80.4190,0.003595
105.676,80.4255,0.003595
105.707,80.4317,0.003595
105.739,80.4380,0.003595
105.770,80.4442,0.003595
105.801,80.4505,0.003595
105.832,80.4566,0.003604
105.862,80.4627,0.003604
105.893,80.4689,0.003604
105.923,80.4748,0.003604
105.954,80.4812,0.003604
105.985,80.4874,0.003604
106.017,80.4936,0.003604
106.049,80.5000,0.003604
106.079,80.5061,0.003623
106.109,80.5122,0.003623
106.140,80.5184,0.003623
106.171,80.5244,0.003623
106.203,80.5309,0.003623
106.233,80.5369,0.003623
106.263,80.5429,0.003623
106.295,80.5494,0.003623
106.326,80.5555,0.003595
106.357,80.5618,0.003595
106.389,80.5681,0.003595
106.419,80.5741,0.003595
106.450,80.5804,0.003595
106.481,80.5865,0.003595
106.512,80.5927,0.003595
106.543,80.5990,0.003576
106.574,80.6049,0.003576
106.605,80.6115,0.003576
106.636,80.6175,0.003576
106.667,80.6238,0.003576
106.697,80.6297,0.003576
106.728,80.6361,0.003576
106.760,80.6423,0.003576
106.791,80.6486,0.003576
106.823,80.6548,0.003632
106.854,80.6612,0.003632
106.885,80.6673,0.003632
106.916,80.6736,0.003632
106.947,80.6797,0.003632
106.978,80.6859,0.003632
107.009,80.6920,0.003632
107.039,80.6981,0.003632
107.070,80.7044,0.003623
107.101,80.7105,0.003623
107.132,80.7164,0.003623
107.163,80.7218,0.003623
107.194,80.7264,0.003623
107.225,80.7301,0.003623
107.257,80.7332,0.003623
107.288,80.7355,0.003623
107.319,80.7371,0.003660
107.350,80.7381,0.003660
107.382,80.7383,0.003660
107.413,80.7383,0.003660
107.445,80.7383,0.003660
107.476,80.7383,0.003660
107.506,80.7383,0.003660
107.537,80.7383,0.003660
107.569,80.7383,0.003707
107.599,80.7383,0.003707
107.630,80.7383,0.003707
107.661,80.7383,0.003707
107.692,80.7383,0.003707
107.723,80.7383,0.003707
107.755,80.7383,0.003707
107.785,80.7383,0.003707
107.816,80.7383,0.003679
107.848,80.7383,0.003679
107.879,80.7383,0.003679
107.911,80.7383,0.003679
107.942,80.7383,0.003679
107.973,80.7383,0.003679
108.005,80.7383,0.003679
108.036,80.7383,0.003679
108.067,80.7383,0.003613
108.099,80.7383,0.003613
108.130,80.7383,0.003613
108.162,80.7383,0.003613
108.193,80.7383,0.003613
108.224,80.7383,0.003613
108.255,80.7383,0.003613
108.286,80.7383,0.003613
108.317,80.7383,0.003595
108.348,80.7383,0.003595
108.378,80.7383,0.003595
108.409,80.7383,0.003595
108.441,80.7383,0.003595
108.472,80.7383,0.003595
108.503,80.7383,0.003595
108.534,80.7383,0.003595
108.565,80.7383,0.003595
108.596,80.7383,0.003651
108.627,80.7383,0.003651
108.659,80.7383,0.003651
108.691,80.7383,0.003651
108.721,80.7383,0.003651
108.752,80.7383,0.003651
108.782,80.7383,0.003651
108.813,80.7383,0.003651
108.845,80.7383,0.003651
108.876,80.7383,0.003613
108.907,80.7383,0.003613
108.938,80.7383,0.003613
108.970,80.7383,0.003613
109.001,80.7383,0.003613
109.033,80.7383,0.003613
109.064,80.7383,0.003613
109.096,80.7383,0.003595
109.127,80.7383,0.003595
109.157,80.7383,0.003595
109.188,80.7383,0.003595
109.219,80.7383,0.003595
109.250,80.7383,0.003595
109.282,80.7383,0.003595
109.312,80.7383,0.003595
109.343,80.7383,0.003595
109.376,80.7383,0.003623
109.405,80.7383,0.003623
109.437,80.7383,0.003623
109.469,80.7383,0.003623
109.500,80.7383,0.003623
109.530,80.7383,0.003623
109.561,80.7383,0.003623
109.591,80.7383,0.003632
109.622,80.7383,0.003632
109.654,80.7383,0.003632
109.686,80.7383,0.003632
109.717,80.7383,0.003632
109.748,80.7383,0.003632
109.780,80.7383,0.003632
109.810,80.7383,0.003642
109.841,80.7383,0.003642
109.873,80.7383,0.003642
109.905,80.7383,0.003642
109.935,80.7383,0.003642
109.966,80.7383,0.003642
109.997,80.7383,0.003642
110.029,80.7383,0.003642
110.060,80.7383,0.003595
110.091,80.7383,0.003595
110.122,80.7383,0.003595
110.152,80.7383,0.003595
110.184,80.7383,0.003595
110.215,80.7383,0.003595
110.246,80.7383,0.003595
110.277,80.7383,0.003595
110.308,80.7383,0.003566
110.339,80.7383,0.003566
110.370,80.7383,0.003566
110.401,80.7383,0.003566
110.432,80.7383,0.003566
110.463,80.7383,0.003566
110.493,80.7383,0.003566
110.525,80.7383,0.003566
110.556,80.7383,0.003576
110.586,80.7383,0.003576
110.616,80.7383,0.003576
110.647,80.7383,0.003576
110.679,80.7383,0.003576
110.711,80.7383,0.003576
110.742,80.7383,0.003576
110.773,80.7383,0.003576
110.805,80.7383,0.003576
110.835,80.7383,0.003576
110.865,80.7383,0.003576
110.896,80.7383,0.003576
110.928,80.7383,0.003576
110.959,80.7383,0.003576
110.990,80.7383,0.003576
111.021,80.7383,0.003576
111.052,80.7383,0.003576
111.083,80.7383,0.003576
111.114,80.7383,0.003585
111.146,80.7383,0.003585
111.176,80.7383,0.003585
111.207,80.7383,0.003585
111.239,80.7383,0.003585
111.270,80.7383,0.003585
111.301,80.7383,0.003585
111.333,80.7383,0.003595
111.364,80.7383,0.003595
111.395,80.7383,0.003595
111.426,80.7383,0.003595
111.457,80.7383,0.003595
111.488,80.7383,0.003595
111.519,80.7383,0.003595
111.550,80.7383,0.003595
111.582,80.7383,0.003595
111.613,80.7383,0.003595
111.644,80.7383,0.003595
111.674,80.7383,0.003595
111.705,80.7383,0.003595
111.737,80.7383,0.003595
111.767,80.7383,0.003595
111.799,80.7383,0.003595
111.830,80.7383,0.003576
111.861,80.7383,0.003576
111.893,80.7383,0.003576
111.924,80.7383,0.003576
111.956,80.7383,0.003576
111.987,80.7383,0.003576
112.017,80.7383,0.003576
112.049,80.7383,0.003576
112.080,80.7383,0.003566
112.111,80.7383,0.003566
112.142,80.7383,0.003566
112.173,80.7383,0.003566
112.204,80.7383,0.003566
112.235,80.7383,0.003566
112.266,80.7383,0.003566
112.298,80.7383,0.003566
112.327,80.7380,0.003566
112.359,80.7371,0.003585
112.390,80.7354,0.003585
112.420,80.7331,0.003585
112.452,80.7298,0.003585
112.484,80.7259,0.003585
112.516,80.7210,0.003585
112.547,80.7158,0.003585
112.579,80.7095,0.003585
112.610,80.7033,0.003707
112.641,80.6971,0.003707
112.672,80.6908,0.003707
112.703,80.6848,0.003707
112.734,80.6784,0.003707
112.765,80.6723,0.003707
112.795,80.6662,0.003707
112.826,80.6601,0.003707
112.858,80.6538,0.003689
112.888,80.6476,0.003689
112.920,80.6413,0.003689
112.950,80.6352,0.003689
112.982,80.6290,0.003689
113.013,80.6227,0.003689
113.044,80.6165,0.003689
113.076,80.6101,0.003689
113.108,80.6038,0.003566
113.139,80.5975,0.003566
113.169,80.5914,0.003566
113.201,80.5852,0.003566
113.231,80.5793,0.003566
113.261,80.5731,0.003566
113.292,80.5669,0.003566
113.324,80.5605,0.003566
113.354,80.5543,0.003595
113.385,80.5483,0.003595
113.416,80.5421,0.003595
113.447,80.5359,0.003595
113.479,80.5294,0.003595
113.509,80.5236,0.003595
113.540,80.5173,0.003595
113.571,80.5112,0.003613
113.602,80.5050,0.003613
113.632,80.4988,0.003613
113.661,80.4931,0.003613
113.693,80.4867,0.003613
113.724,80.4805,0.003613
113.755,80.4745,0.003613
113.786,80.4680,0.003613
113.817,80.4619,0.003548
113.847,80.4559,0.003548
113.878,80.4498,0.003548
113.909,80.4435,0.003548
113.941,80.4373,0.003548
113.972,80.4308,0.003548
114.004,80.4246,0.003548
114.035,80.4182,0.003548
114.067,80.4121,0.003576
114.098,80.4056,0.003576
114.130,80.3994,0.003576
114.160,80.3934,0.003576
114.192,80.3870,0.003576
114.222,80.3810,0.003576
114.252,80.3748,0.003576
114.284,80.3686,0.003576
114.315,80.3624,0.003604
114.346,80.3560,0.003604
114.377,80.3499,0.003604
114.409,80.3435,0.003604
114.440,80.3373,0.003604
114.471,80.3311,0.003604
114.502,80.3248,0.003604
114.533,80.3187,0.003604
114.564,80.3125,0.003642
114.596,80.3060,0.003642
114.626,80.3001,0.003642
114.658,80.2938,0.003642
114.688,80.2878,0.003642
114.719,80.2814,0.003642
114.751,80.2752,0.003642
114.782,80.2688,0.003642
114.813,80.2626,0.003613
114.844,80.2564,0.003613
114.875,80.2502,0.003613
114.906,80.2439,0.003613
114.936,80.2381,0.003613
114.967,80.2320,0.003613
114.998,80.2259,0.003613
115.029,80.2196,0.003613
115.060,80.2133,0.003510
115.090,80.2072,0.003510
115.122,80.2009,0.003510
115.152,80.1948,0.003510
115.183,80.1887,0.003510
115.214,80.1825,0.003510
115.247,80.1759,0.003510
115.277,80.1700,0.003510
115.308,80.1637,0.003510
115.339,80.1576,0.003510
115.371,80.1511,0.003538
115.402,80.1449,0.003538
115.433,80.1389,0.003538
115.464,80.1325,0.003538
115.496,80.1262,0.003538
115.527,80.1200,0.003538
115.558,80.1137,0.003538
115.588,80.1075,0.003595
115.619,80.1014,0.003595
115.651,80.0951,0.003595
115.681,80.0891,0.003595
115.713,80.0827,0.003595
115.743,80.0767,0.003595
115.774,80.0705,0.003595
115.805,80.0642,0.003595
115.836,80.0581,0.003595
115.868,80.0517,0.003604
115.900,80.0453,0.003604
115.930,80.0393,0.003604
115.961,80.0331,0.003604
115.994,80.0266,0.003604
116.023,80.0208,0.003604
116.053,80.0147,0.003660
116.084,80.0085,0.003660
116.116,80.0021,0.003660
116.147,79.9960,0.003660
116.177,79.9900,0.003660
116.208,79.9838,0.003660
116.239,79.9775,0.003660
116.271,79.9712,0.003660
116.301,79.9651,0.003660
116.332,79.9589,0.003660
116.363,79.9527,0.003679
116.394,79.9464,0.003679
116.426,79.9402,0.003679
116.456,79.9340,0.003679
116.488,79.9278,0.003679
116.519,79.9216,0.003679
116.550,79.9154,0.003679
116.580,79.9093,0.003613
116.610,79.9032,0.003613
116.642,79.8969,0.003613
116.672,79.8908,0.003613
116.703,79.8846,0.003613
116.734,79.8784,0.003613
116.765,79.8722,0.003613
116.796,79.8661,0.003613
116.827,79.8601,0.003566
116.857,79.8540,0.003566
116.889,79.8475,0.003566
116.920,79.8413,0.003566
116.952,79.8350,0.003566
116.982,79.8289,0.003566
117.013,79.8227,0.003566
117.045,79.8164,0.003566
117.077,79.8100,0.003566
117.107,79.8041,0.003566
117.137,79.7978,0.003566
117.168,79.7917,0.003566
117.199,79.7854,0.003566
117.231,79.7792,0.003566
117.261,79.7730,0.003566
117.293,79.7667,0.003566
117.324,79.7606,0.003566
117.355,79.7544,0.003595
117.386,79.7482,0.003595
117.418,79.7419,0.003595
117.448,79.7355,0.003595
117.478,79.7297,0.003595
117.509,79.7235,0.003595
117.540,79.7173,0.003595
117.571,79.7110,0.003595
117.603,79.7048,0.003585
117.636,79.6982,0.003585
117.666,79.6923,0.003585
117.697,79.6858,0.003585
117.728,79.6796,0.003585
117.759,79.6734,0.003585
117.791,79.6672,0.003585
117.822,79.6611,0.003566
117.853,79.6547,0.003566
117.884,79.6485,0.003566
117.916,79.6420,0.003566
117.946,79.6361,0.003566
117.979,79.6296,0.003566
118.009,79.6235,0.003566
118.039,79.6176,0.003566
118.070,79.6113,0.003585
118.101,79.6051,0.003585
118.133,79.5989,0.003585
118.164,79.5924,0.003585
118.195,79.5863,0.003585
118.226,79.5801,0.003585
118.256,79.5741,0.003585
118.288,79.5677,0.003585
118.320,79.5613,0.003613
118.350,79.5555,0.003613
118.381,79.5491,0.003613
118.412,79.5431,0.003613
118.443,79.5367,0.003613
118.474,79.5304,0.003613
118.505,79.5242,0.003613
118.536,79.5181,0.003613
118.567,79.5119,0.003613
118.599,79.5055,0.003660
118.629,79.4995,0.003660
118.661,79.4931,0.003660
118.691,79.4871,0.003660
118.723,79.4808,0.003660
118.753,79.4747,0.003660
118.783,79.4686,0.003660
118.814,79.4624,0.003642
118.845,79.4564,0.003642
118.877,79.4500,0.003642
118.907,79.4440,0.003642
118.939,79.4375,0.003642
118.971,79.4312,0.003642
119.002,79.4251,0.003642
119.035,79.4183,0.003642
119.064,79.4127,0.003642
119.094,79.4065,0.003595
119.124,79.4005,0.003595
119.155,79.3941,0.003595
119.187,79.3880,0.003595
119.218,79.3817,0.003595
119.249,79.3755,0.003595
119.281,79.3690,0.003595
119.312,79.3630,0.003595
119.344,79.3565,0.003595
119.376,79.3502,0.003595
119.406,79.3440,0.003595
119.438,79.3379,0.003595
119.469,79.3317,0.003595
119.499,79.3255,0.003595
119.529,79.3194,0.003595
119.560,79.3132,0.003613
119.591,79.3070,0.003613
119.623,79.3008,0.003613
119.653,79.2948,0.003613
119.685,79.2883,0.003613
119.715,79.2825,0.003613
119.746,79.2762,0.003613
119.777,79.2701,0.003613
119.808,79.2638,0.003613
119.838,79.2577,0.003613
119.870,79.2512,0.003613
119.901,79.2453,0.003613
119.931,79.2392,0.003613
119.963,79.2326,0.003613
119.994,79.2265,0.003613
120.025,79.2203,0.003613
120.057,79.2139,0.003604
120.088,79.2077,0.003604
120.119,79.2014,0.003604
120.151,79.1952,0.003604
120.182,79.1890,0.003604
120.213,79.1828,0.003604
120.245,79.1764,0.003604
120.275,79.1702,0.003604
120.306,79.1643,0.003604
120.336,79.1581,0.003604
120.369,79.1515,0.003604
120.399,79.1454,0.003604
120.430,79.1395,0.003604
120.461,79.1332,0.003604
120.493,79.1266,0.003604
120.523,79.1208,0.003604
120.554,79.1147,0.003604
120.585,79.1082,0.003604
120.616,79.1023,0.003623
120.647,79.0959,0.003623
120.678,79.0899,0.003623
120.708,79.0837,0.003623
120.739,79.0775,0.003623
120.771,79.0713,0.003623
120.802,79.0647,0.003623
120.834,79.0586,0.003623
120.866,79.0522,0.003623
120.897,79.0461,0.003623
120.928,79.0396,0.003623
120.959,79.0336,0.003623
120.990,79.0274,0.003623
121.022,79.0210,0.003623
121.053,79.0147,0.003623
121.084,79.0086,0.003604
121.115,79.0023,0.003604
121.145,78.9964,0.003604
121.176,78.9902,0.003604
121.207,78.9840,0.003604
121.238,78.9776,0.003604
121.269,78.9716,0.003604
121.300,78.9654,0.003604
121.331,78.9593,0.003576
121.363,78.9528,0.003576
121.394,78.9466,0.003576
121.425,78.9403,0.003576
121.458,78.9338,0.003576
121.486,78.9280,0.003576
121.518,78.9217,0.003576
121.549,78.9155,0.003576
121.580,78.9093,0.003538
121.611,78.9032,0.003538
121.642,78.8969,0.003538
121.673,78.8908,0.003538
121.704,78.8845,0.003538
121.736,78.8782,0.003538
121.767,78.8718,0.003538
121.799,78.8655,0.003538
121.830,78.8594,0.003538
121.861,78.8531,0.003548
121.891,78.8470,0.003548
121.923,78.8408,0.003548
121.954,78.8345,0.003548
121.985,78.8284,0.003548
122.015,78.8224,0.003548
122.047,78.8160,0.003548
122.077,78.8098,0.003566
122.109,78.8036,0.003566
122.140,78.7974,0.003566
122.170,78.7913,0.003566
122.202,78.7850,0.003566
122.233,78.7787,0.003566
122.265,78.7725,0.003566
122.296,78.7660,0.003613
122.327,78.7601,0.003613
122.357,78.7538,0.003613
122.388,78.7478,0.003613
122.419,78.7415,0.003613
122.450,78.7355,0.003613
122.480,78.7293,0.003613
122.512,78.7229,0.003613
122.542,78.7171,0.003613
122.572,78.7110,0.003632
122.604,78.7047,0.003632
122.634,78.6985,0.003632
122.664,78.6926,0.003632
122.695,78.6864,0.003632
122.725,78.6803,0.003632
122.756,78.6741,0.003632
122.787,78.6679,0.003632
122.818,78.6616,0.003557
122.849,78.6555,0.003557
122.882,78.6491,0.003557
122.911,78.6433,0.003557
122.943,78.6368,0.003557
122.974,78.6305,0.003557
123.005,78.6245,0.003557
123.035,78.6182,0.003557
123.066,78.6120,0.003576
123.097,78.6059,0.003576
123.129,78.5996,0.003576
123.160,78.5935,0.003576
123.191,78.5871,0.003576
123.222,78.5809,0.003576
123.253,78.5747,0.003576
123.284,78.5686,0.003576
123.315,78.5623,0.003576
123.346,78.5562,0.003576
123.378,78.5497,0.003604
123.408,78.5437,0.003604
123.440,78.5373,0.003604
123.472,78.5310,0.003604
123.503,78.5248,0.003604
123.533,78.5187,0.003604
123.564,78.5125,0.003604
123.595,78.5063,0.003566
123.627,78.5001,0.003566
123.657,78.4938,0.003566
123.688,78.4879,0.003566
123.719,78.4815,0.003566
123.750,78.4753,0.003566
123.781,78.4691,0.003566
123.812,78.4629,0.003566
123.842,78.4570,0.003566
123.875,78.4504,0.003576
123.904,78.4446,0.003576
123.935,78.4384,0.003576
123.965,78.4323,0.003576
123.996,78.4262,0.003576
124.027,78.4200,0.003576
124.058,78.4138,0.003576
124.089,78.4075,0.003548
124.120,78.4014,0.003548
124.151,78.3951,0.003548
124.182,78.3888,0.003548
124.213,78.3829,0.003548
124.243,78.3767,0.003548
124.273,78.3708,0.003548
124.304,78.3646,0.003548
124.335,78.3584,0.003576
124.366,78.3521,0.003576
124.397,78.3460,0.003576
124.428,78.3397,0.003576
124.459,78.3336,0.003576
124.490,78.3274,0.003576
124.521,78.3212,0.003576
124.553,78.3148,0.003632
124.585,78.3084,0.003632
124.617,78.3019,0.003632
124.647,78.2960,0.003632
124.678,78.2897,0.003632
124.708,78.2838,0.003632
124.739,78.2776,0.003632
124.771,78.2712,0.003632
124.802,78.2650,0.003632
124.833,78.2588,0.003585
124.864,78.2526,0.003585
124.894,78.2466,0.003585
124.925,78.2403,0.003585
124.956,78.2342,0.003585
124.987,78.2280,0.003585
125.018,78.2220,0.003585
125.049,78.2158,0.003585
125.080,78.2094,0.003566
125.110,78.2035,0.003566
125.141,78.1971,0.003566
125.172,78.1909,0.003566
125.203,78.1847,0.003566
125.234,78.1785,0.003566
125.265,78.1725,0.003566
125.296,78.1663,0.003604
125.327,78.1601,0.003604
125.358,78.1537,0.003604
125.389,78.1477,0.003604
125.420,78.1413,0.003604
125.452,78.1351,0.003604
125.482,78.1288,0.003604
125.514,78.1225,0.003604
125.544,78.1167,0.003604
125.575,78.1102,0.003604
125.606,78.1041,0.003689
125.638,78.0978,0.003689
125.668,78.0917,0.003689
125.699,78.0857,0.003689
125.730,78.0795,0.003689
125.762,78.0731,0.003689
125.791,78.0673,0.003689
125.822,78.0610,0.003689
125.853,78.0548,0.003670
125.884,78.0486,0.003670
125.915,78.0422,0.003670
125.947,78.0360,0.003670
125.978,78.0297,0.003670
126.010,78.0234,0.003670
126.041,78.0172,0.003670
126.073,78.0107,0.003576
126.106,78.0042,0.003576
126.135,77.9985,0.003576
126.166,77.9921,0.003576
126.197,77.9861,0.003576
126.228,77.9799,0.003576
126.259,77.9737,0.003576
126.290,77.9673,0.003576
126.321,77.9613,0.003576
126.353,77.9549,0.003585
126.383,77.9489,0.003585
126.413,77.9428,0.003585
126.444,77.9366,0.003585
126.475,77.9305,0.003585
126.506,77.9243,0.003585
126.537,77.9181,0.003585
126.568,77.9118,0.003585
126.598,77.9056,0.003585
126.629,77.8995,0.003604
126.660,77.8932,0.003604
126.691,77.8872,0.003604
126.723,77.8808,0.003604
126.754,77.8746,0.003604
126.785,77.8682,0.003604
126.817,77.8620,0.003604
126.847,77.8560,0.003595
126.877,77.8500,0.003595
126.908,77.8438,0.003595
126.939,77.8377,0.003595
126.969,77.8317,0.003595
127.000,77.8253,0.003595
127.030,77.8194,0.003595
127.062,77.8129,0.003595
127.092,77.8071,0.003576
127.123,77.8006,0.003576
127.154,77.7946,0.003576
127.186,77.7882,0.003576
127.217,77.7820,0.003576
127.247,77.7760,0.003576
127.279,77.7698,0.003576
127.310,77.7633,0.003576
127.341,77.7574,0.003595
127.372,77.7509,0.003595
127.404,77.7446,0.003595
127.435,77.7384,0.003595
127.466,77.7323,0.003595
127.497,77.7257,0.003595
127.528,77.7198,0.003595
127.559,77.7137,0.003595
127.590,77.7079,0.003595
127.621,77.7029,0.003595
127.652,77.6986,0.003595
127.683,77.6952,0.003595
127.713,77.6925,0.003595
127.744,77.6904,0.003595
127.775,77.6889,0.003595
127.806,77.6883,0.003595
127.837,77.6883,0.003529
127.869,77.6883,0.003529
127.900,77.6883,0.003529
127.931,77.6883,0.003529
127.962,77.6883,0.003529
127.993,77.6883,0.003529
128.024,77.6883,0.003529
128.056,77.6883,0.003529
128.086,77.6883,0.003529
128.117,77.6883,0.003529
128.148,77.6883,0.003529
128.179,77.6883,0.003529
128.210,77.6883,0.003529
128.240,77.6883,0.003529
128.272,77.6883,0.003529
128.303,77.6883,0.003529
128.332,77.6883,0.003529
128.364,77.6883,0.003613
128.395,77.6883,0.003613
128.426,77.6887,0.003613
128.456,77.6896,0.003613
128.487,77.6915,0.003613
128.519,77.6940,0.003613
128.550,77.6972,0.003613
128.580,77.7011,0.003566
128.612,77.7059,0.003566
128.642,77.7112,0.003566
128.673,77.7172,0.003566
128.704,77.7236,0.003566
128.736,77.7297,0.003566
128.767,77.7362,0.003566
128.799,77.7424,0.003566
128.830,77.7486,0.003566
128.861,77.7548,0.003529
128.891,77.7608,0.003529
128.923,77.7672,0.003529
128.953,77.7731,0.003529
128.984,77.7794,0.003529
129.015,77.7856,0.003529
129.046,77.7920,0.003529
129.077,77.7979,0.003576
129.108,77.8042,0.003576
129.138,77.8102,0.003576
129.169,77.8164,0.003576
129.200,77.8226,0.003576
129.231,77.8288,0.003576
129.262,77.8351,0.003576
129.293,77.8413,0.003576
129.324,77.8475,0.003613
129.356,77.8537,0.003613
129.388,77.8602,0.003613
129.418,77.8661,0.003613
129.449,77.8725,0.003613
129.480,77.8785,0.003613
129.510,77.8846,0.003613
129.541,77.8908,0.003613
129.572,77.8970,0.003623
129.604,77.9035,0.003623
129.636,77.9097,0.003623
129.667,77.9159,0.003623
129.699,77.9222,0.003623
129.730,77.9285,0.003623
129.760,77.9346,0.003623
129.792,77.9409,0.003623
129.823,77.9470,0.003566
129.853,77.9533,0.003566
129.885,77.9596,0.003566
129.915,77.9656,0.003566
129.947,77.9720,0.003566
129.979,77.9784,0.003566
130.009,77.9844,0.003566
130.040,77.9905,0.003566
130.071,77.9969,0.003585
130.103,78.0032,0.003585
130.134,78.0095,0.003585
130.166,78.0157,0.003585
130.197,78.0220,0.003585
130.228,78.0282,0.003585
130.260,78.0347,0.003585
130.291,78.0408,0.003585
130.323,78.0472,0.003604
130.354,78.0534,0.003604
130.385,78.0595,0.003604
130.415,78.0656,0.003604
130.446,78.0716,0.003604
130.477,78.0781,0.003604
130.508,78.0842,0.003604
130.539,78.0904,0.003604
130.571,78.0967,0.003604
130.600,78.1025,0.003604
130.632,78.1088,0.003604
130.663,78.1150,0.003604
130.693,78.1210,0.003604
130.724,78.1273,0.003604
130.754,78.1334,0.003604
130.785,78.1397,0.003604
130.816,78.1458,0.003613
130.847,78.1519,0.003613
130.878,78.1582,0.003613
130.908,78.1643,0.003613
130.940,78.1705,0.003613
130.970,78.1766,0.003613
131.000,78.1825,0.003613
131.031,78.1888,0.003613
131.062,78.1949,0.003613
131.092,78.2011,0.003642
131.123,78.2072,0.003642
131.154,78.2135,0.003642
131.186,78.2197,0.003642
131.217,78.2259,0.003642
131.248,78.2321,0.003642
131.279,78.2383,0.003642
131.311,78.2447,0.003642
131.342,78.2510,0.003642
131.373,78.2571,0.003642
131.404,78.2634,0.003642
131.435,78.2695,0.003642
131.466,78.2758,0.003642
131.496,78.2820,0.003642
131.527,78.2879,0.003642
131.558,78.2941,0.003613
131.589,78.3003,0.003613
131.620,78.3070,0.003613
131.654,78.3132,0.003613
131.684,78.3193,0.003613
131.713,78.3251,0.003613
131.745,78.3315,0.003613
131.775,78.3377,0.003613
131.807,78.3439,0.003632
131.837,78.3499,0.003632
131.868,78.3561,0.003632
131.900,78.3626,0.003632
131.931,78.3688,0.003632
131.962,78.3749,0.003632
131.993,78.3812,0.003632
132.023,78.3872,0.003632
132.055,78.3936,0.003632
132.086,78.3997,0.003576
132.117,78.4060,0.003576
132.147,78.4123,0.003576
132.178,78.4183,0.003576
132.209,78.4242,0.003576
132.241,78.4308,0.003576
132.272,78.4370,0.003576
132.303,78.4433,0.003576
132.335,78.4495,0.003566
132.366,78.4559,0.003566
132.397,78.4618,0.003566
132.428,78.4683,0.003566
132.459,78.4743,0.003566
132.490,78.4805,0.003566
132.522,78.4869,0.003566
132.551,78.4928,0.003595
132.582,78.4990,0.003595
132.613,78.5052,0.003595
132.644,78.5113,0.003595
132.675,78.5176,0.003595
132.707,78.5238,0.003595
132.738,78.5302,0.003595
132.769,78.5362,0.003595
132.800,78.5424,0.003595
132.832,78.5490,0.003566
132.865,78.5555,0.003566
132.894,78.5614,0.003566
132.926,78.5676,0.003566
132.957,78.5738,0.003566
132.988,78.5801,0.003566
133.019,78.5863,0.003566
133.049,78.5925,0.003566
133.080,78.5987,0.003566
133.111,78.6048,0.003566
133.142,78.6110,0.003566
133.173,78.6172,0.003566
133.204,78.6235,0.003566
133.236,78.6297,0.003566
133.267,78.6361,0.003566
133.298,78.6421,0.003566
133.328,78.6483,0.003566
133.359,78.6543,0.003613
133.390,78.6606,0.003613
133.422,78.6668,0.003613
133.453,78.6732,0.003613
133.485,78.6795,0.003613
133.516,78.6858,0.003613
133.547,78.6919,0.003613
133.579,78.6983,0.003613
133.610,78.7045,0.003679
133.641,78.7107,0.003679
133.672,78.7169,0.003679
133.702,78.7230,0.003679
133.733,78.7293,0.003679
133.764,78.7353,0.003679
133.795,78.7415,0.003679
133.827,78.7479,0.003679
133.857,78.7539,0.003670
133.887,78.7601,0.003670
133.919,78.7663,0.003670
133.950,78.7725,0.003670
133.982,78.7789,0.003670
134.013,78.7850,0.003670
134.044,78.7913,0.003670
134.075,78.7975,0.003613
134.107,78.8039,0.003613
134.137,78.8099,0.003613
134.168,78.8162,0.003613
134.198,78.8222,0.003613
134.229,78.8283,0.003613
134.261,78.8346,0.003613
134.292,78.8410,0.003613
134.323,78.8473,0.003613
134.355,78.8535,0.003566
134.385,78.8596,0.003566
134.417,78.8660,0.003566
134.447,78.8720,0.003566
134.479,78.8783,0.003566
134.510,78.8844,0.003566
134.541,78.8908,0.003566
134.572,78.8969,0.003538
134.603,78.9032,0.003538
134.634,78.9094,0.003538
134.665,78.9156,0.003538
134.697,78.9218,0.003538
134.729,78.9284,0.003538
134.760,78.9345,0.003538
134.792,78.9408,0.003538
134.823,78.9470,0.003585
134.855,78.9534,0.003585
134.886,78.9598,0.003585
134.917,78.9658,0.003585
134.947,78.9720,0.003585
134.978,78.9781,0.003585
135.010,78.9845,0.003585
135.040,78.9907,0.003585
135.071,78.9966,0.003623
135.102,79.0029,0.003623
135.132,79.0089,0.003623
135.163,79.0153,0.003623
135.195,79.0215,0.003623
135.227,79.0279,0.003623
135.258,79.0342,0.003623
135.290,79.0404,0.003623
135.321,79.0467,0.003613
135.352,79.0529,0.003613
135.383,79.0591,0.003613
135.414,79.0653,0.003613
135.445,79.0715,0.003613
135.477,79.0778,0.003613
135.506,79.0838,0.003613
135.537,79.0900,0.003613
135.568,79.0962,0.003576
135.599,79.1025,0.003576
135.631,79.1086,0.003576
135.662,79.1149,0.003576
135.694,79.1212,0.003576
135.726,79.1277,0.003576
135.757,79.1339,0.003576
135.787,79.1401,0.003576
135.819,79.1462,0.003566
135.850,79.1525,0.003566
135.882,79.1588,0.003566
135.912,79.1650,0.003566
135.943,79.1712,0.003566
135.974,79.1774,0.003566
136.005,79.1836,0.003566
136.036,79.1897,0.003566
136.067,79.1959,0.003566
136.098,79.2021,0.003613
136.130,79.2086,0.003613
136.162,79.2149,0.003613
136.193,79.2212,0.003613
136.224,79.2274,0.003613
136.255,79.2337,0.003613
136.287,79.2399,0.003613
136.318,79.2463,0.003585
136.350,79.2525,0.003585
136.382,79.2589,0.003585
136.411,79.2647,0.003585
136.442,79.2709,0.003585
136.474,79.2773,0.003585
136.505,79.2835,0.003585
136.536,79.2898,0.003585
136.566,79.2957,0.003566
136.597,79.3018,0.003566
136.628,79.3082,0.003566
136.660,79.3146,0.003566
136.691,79.3206,0.003566
136.722,79.3269,0.003566
136.753,79.3331,0.003566
136.784,79.3394,0.003566
136.816,79.3456,0.003576
136.847,79.3519,0.003576
136.878,79.3580,0.003576
136.909,79.3643,0.003576
136.941,79.3707,0.003576
136.971,79.3767,0.003576
137.002,79.3831,0.003576
137.033,79.3891,0.003576
137.065,79.3953,0.003566
137.096,79.4017,0.003566
137.127,79.4079,0.003566
137.158,79.4142,0.003566
137.189,79.4204,0.003566
137.221,79.4267,0.003566
137.251,79.4327,0.003566
137.282,79.4391,0.003566
137.314,79.4453,0.003566
137.346,79.4519,0.003566
137.378,79.4580,0.003566
137.409,79.4644,0.003566
137.440,79.4705,0.003566
137.471,79.4766,0.003566
137.501,79.4828,0.003566
137.533,79.4890,0.003566
137.563,79.4953,0.003548
137.594,79.5013,0.003548
137.625,79.5075,0.003548
137.655,79.5135,0.003548
137.687,79.5199,0.003548
137.718,79.5261,0.003548
137.750,79.5325,0.003548
137.781,79.5386,0.003548
137.812,79.5449,0.003566
137.842,79.5510,0.003566
137.873,79.5571,0.003566
137.905,79.5634,0.003566
137.935,79.5695,0.003566
137.966,79.5758,0.003566
137.999,79.5821,0.003566
138.028,79.5881,0.003566
138.059,79.5943,0.003566
138.090,79.6006,0.003651
138.120,79.6067,0.003651
138.152,79.6128,0.003651
138.183,79.6192,0.003651
138.213,79.6250,0.003651
138.244,79.6314,0.003651
138.275,79.6374,0.003651
138.306,79.6438,0.003651
138.336,79.6497,0.003698
138.367,79.6560,0.003698
138.398,79.6621,0.003698
138.430,79.6686,0.003698
138.460,79.6745,0.003698
138.491,79.6808,0.003698
138.523,79.6872,0.003698
138.554,79.6934,0.003698
138.586,79.6996,0.003670
138.617,79.7058,0.003670
138.647,79.7118,0.003670
138.679,79.7183,0.003670
138.709,79.7242,0.003670
138.740,79.7306,0.003670
138.771,79.7370,0.003670
138.803,79.7431,0.003670
138.835,79.7496,0.003670
138.866,79.7558,0.003623
138.896,79.7617,0.003623
138.927,79.7679,0.003623
138.957,79.7739,0.003623
138.988,79.7802,0.003623
139.019,79.7863,0.003623
139.051,79.7927,0.003623
139.081,79.7987,0.003576
139.112,79.8049,0.003576
139.143,79.8113,0.003576
139.175,79.8175,0.003576
139.206,79.8237,0.003576
139.237,79.8299,0.003576
139.267,79.8359,0.003576
139.298,79.8422,0.003576
139.329,79.8483,0.003548
139.361,79.8546,0.003548
139.391,79.8607,0.003548
139.422,79.8670,0.003548
139.453,79.8732,0.003548
139.485,79.8794,0.003548
139.516,79.8857,0.003548
139.547,79.8921,0.003548
139.578,79.8981,0.003585
139.609,79.9043,0.003585
139.640,79.9103,0.003585
139.671,79.9166,0.003585
139.702,79.9229,0.003585
139.734,79.9291,0.003585
139.764,79.9355,0.003585
139.795,79.9415,0.003585
139.826,79.9477,0.003557
139.857,79.9538,0.003557
139.888,79.9603,0.003557
139.920,79.9665,0.003557
139.951,79.9727,0.003557
139.982,79.9790,0.003557
140.013,79.9851,0.003557
140.044,79.9914,0.003557
140.075,79.9975,0.003548
140.106,80.0037,0.003548
140.138,80.0100,0.003548
140.169,80.0162,0.003548
140.200,80.0225,0.003548
140.231,80.0289,0.003548
140.262,80.0348,0.003548
140.293,80.0411,0.003548
140.325,80.0476,0.003538
140.356,80.0537,0.003538
140.388,80.0602,0.003538
140.419,80.0663,0.003538
140.450,80.0725,0.003538
140.485,80.0793,0.003538
140.512,80.0850,0.003538
140.544,80.0914,0.003538
140.574,80.0973,0.003538
140.606,80.1038,0.003557
140.637,80.1098,0.003557
140.668,80.1162,0.003557
140.699,80.1224,0.003557
140.730,80.1286,0.003557
140.761,80.1348,0.003557
140.793,80.1411,0.003557
140.824,80.1473,0.003557
140.856,80.1537,0.003595
140.887,80.1599,0.003595
140.919,80.1663,0.003595
140.948,80.1721,0.003595
140.979,80.1783,0.003595
141.010,80.1845,0.003595
141.041,80.1906,0.003595
141.073,80.1970,0.003548
141.103,80.2031,0.003548
141.134,80.2094,0.003548
141.165,80.2154,0.003548
141.196,80.2217,0.003548
141.228,80.2283,0.003548
141.259,80.2342,0.003548
141.291,80.2408,0.003548
141.321,80.2466,0.003548
141.352,80.2530,0.003491
141.384,80.2593,0.003491
141.415,80.2655,0.003491
141.446,80.2717,0.003491
141.477,80.2778,0.003491
141.508,80.2840,0.003491
141.538,80.2902,0.003491
141.569,80.2962,0.003491
141.601,80.3026,0.003576
141.632,80.3090,0.003576
141.663,80.3151,0.003576
141.694,80.3213,0.003576
141.724,80.3275,0.003576
141.755,80.3336,0.003576
141.787,80.3398,0.003576
141.818,80.3461,0.003576
141.849,80.3523,0.003651
141.879,80.3585,0.003651
141.911,80.3647,0.003651
141.942,80.3710,0.003651
141.974,80.3771,0.003651
142.005,80.3837,0.003651
142.036,80.3898,0.003651
142.067,80.3958,0.003651
142.098,80.4020,0.003642
142.128,80.4081,0.003642
142.160,80.4146,0.003642
142.191,80.4206,0.003642
142.222,80.4267,0.003642
142.253,80.4330,0.003642
142.284,80.4392,0.003642
142.315,80.4454,0.003642
142.346,80.4516,0.003642
142.377,80.4578,0.003642
142.408,80.4640,0.003642
142.439,80.4703,0.003642
142.470,80.4765,0.003642
142.501,80.4827,0.003642
142.532,80.4889,0.003642
142.562,80.4951,0.003642
142.592,80.5009,0.003642
142.623,80.5071,0.003642
142.655,80.5134,0.003642
142.686,80.5196,0.003642
142.716,80.5258,0.003642
142.748,80.5321,0.003642
142.778,80.5382,0.003642
142.809,80.5444,0.003642
142.840,80.5504,0.003604
142.870,80.5564,0.003604
142.902,80.5628,0.003604
142.932,80.5690,0.003604
142.963,80.5751,0.003604
142.995,80.5814,0.003604
143.026,80.5877,0.003604
143.057,80.5940,0.003604
143.088,80.6001,0.003623
143.119,80.6062,0.003623
143.150,80.6125,0.003623
143.182,80.6188,0.003623
143.213,80.6253,0.003623
143.244,80.6312,0.003623
143.275,80.6374,0.003623
143.306,80.6438,0.003623
143.337,80.6498,0.003623
143.368,80.6560,0.003613
143.399,80.6622,0.003613
143.430,80.6681,0.003613
143.461,80.6732,0.003613
143.493,80.6775,0.003613
143.522,80.6810,0.003613
143.554,80.6839,0.003613
143.585,80.6861,0.003623
143.616,80.6875,0.003623
143.647,80.6882,0.003623
143.678,80.6883,0.003623
143.709,80.6883,0.003623
143.740,80.6883,0.003623
143.771,80.6883,0.003623
143.802,80.6883,0.003623
143.833,80.6883,0.003651
143.864,80.6883,0.003651
143.895,80.6883,0.003651
143.927,80.6883,0.003651
143.958,80.6883,0.003651
143.990,80.6883,0.003651
144.021,80.6883,0.003651
144.052,80.6883,0.003651
144.084,80.6883,0.003576
144.116,80.6883,0.003576
144.146,80.6883,0.003576
144.177,80.6883,0.003576
144.209,80.6883,0.003576
144.241,80.6883,0.003576
144.271,80.6883,0.003576
144.302,80.6883,0.003576
144.332,80.6883,0.003613
144.363,80.6883,0.003613
144.393,80.6883,0.003613
144.424,80.6883,0.003613
144.454,80.6883,0.003613
144.486,80.6883,0.003613
144.517,80.6883,0.003613
144.548,80.6883,0.003613
144.580,80.6883,0.003651
144.611,80.6883,0.003651
144.642,80.6883,0.003651
144.673,80.6883,0.003651
144.705,80.6883,0.003651
144.737,80.6883,0.003651
144.768,80.6883,0.003651
144.799,80.6883,0.003651
144.831,80.6883,0.003613
144.863,80.6883,0.003613
144.894,80.6883,0.003613
144.926,80.6883,0.003613
144.956,80.6883,0.003613
144.987,80.6883,0.003613
145.019,80.6883,0.003613
145.049,80.6883,0.003613
145.080,80.6883,0.003613
145.111,80.6883,0.003613
145.141,80.6883,0.003613
145.173,80.6883,0.003613
145.204,80.6883,0.003613
145.235,80.6883,0.003613
145.266,80.6883,0.003613
145.298,80.6883,0.003613
145.328,80.6883,0.003623
145.359,80.6883,0.003623
145.391,80.6883,0.003623
145.421,80.6883,0.003623
145.452,80.6883,0.003623
145.483,80.6883,0.003623
145.514,80.6883,0.003623
145.547,80.6883,0.003623
145.578,80.6883,0.003623
145.607,80.6883,0.003604
145.638,80.6883,0.003604
145.670,80.6883,0.003604
145.701,80.6883,0.003604
145.732,80.6883,0.003604
145.762,80.6883,0.003604
145.794,80.6883,0.003604
145.825,80.6883,0.003623
145.857,80.6883,0.003623
145.887,80.6883,0.003623
145.918,80.6883,0.003623
145.949,80.6883,0.003623
145.980,80.6883,0.003623
146.011,80.6883,0.003623
146.042,80.6883,0.003623
146.073,80.6883,0.003585
146.104,80.6883,0.003585
146.135,80.6883,0.003585
146.165,80.6883,0.003585
146.196,80.6883,0.003585
146.228,80.6883,0.003585
146.260,80.6883,0.003585
146.292,80.6883,0.003585
146.323,80.6883,0.003548
146.354,80.6883,0.003548
146.386,80.6883,0.003548
146.417,80.6883,0.003548
146.448,80.6883,0.003548
146.480,80.6883,0.003548
146.511,80.6883,0.003548
146.542,80.6883,0.003548
146.572,80.6883,0.003548
146.603,80.6883,0.003548
146.634,80.6883,0.003529
146.665,80.6883,0.003529
146.696,80.6883,0.003529
146.726,80.6883,0.003529
146.757,80.6883,0.003529
146.788,80.6883,0.003529
146.819,80.6883,0.003529
146.850,80.6883,0.003519
146.882,80.6883,0.003519
146.913,80.6883,0.003519
146.944,80.6883,0.003519
146.974,80.6883,0.003519
147.006,80.6883,0.003519
147.037,80.6883,0.003519
147.068,80.6883,0.003519
147.099,80.6883,0.003623
147.131,80.6883,0.003623
147.161,80.6883,0.003623
147.192,80.6883,0.003623
147.226,80.6883,0.003623
147.255,80.6883,0.003623
147.286,80.6883,0.003623
147.317,80.6883,0.003623
147.347,80.6883,0.003642
147.379,80.6883,0.003642
147.410,80.6883,0.003642
147.441,80.6883,0.003642
147.472,80.6883,0.003642
147.504,80.6883,0.003642
147.536,80.6883,0.003642
147.565,80.6883,0.003642
147.596,80.6883,0.003604
147.626,80.6883,0.003604
147.657,80.6883,0.003604
147.688,80.6883,0.003604
147.719,80.6883,0.003604
147.751,80.6883,0.003604
147.781,80.6883,0.003604
147.811,80.6883,0.003613
147.843,80.6883,0.003613
147.874,80.6883,0.003613
147.906,80.6883,0.003613
147.937,80.6883,0.003613
147.969,80.6883,0.003613
148.000,80.6883,0.003613
148.031,80.6883,0.003613
148.062,80.6883,0.003642
148.093,80.6883,0.003642
148.124,80.6883,0.003642
148.155,80.6883,0.003642
148.187,80.6883,0.003642
148.217,80.6883,0.003642
148.247,80.6883,0.003642
148.279,80.6883,0.003642
148.312,80.6883,0.003613
148.342,80.6883,0.003613
148.373,80.6883,0.003613
148.404,80.6883,0.003613
148.436,80.6883,0.003613
148.466,80.6883,0.003613
148.497,80.6883,0.003613
148.529,80.6883,0.003613
148.560,80.6883,0.003613
148.591,80.6878,0.003604
148.622,80.6865,0.003604
148.653,80.6846,0.003604
148.685,80.6820,0.003604
148.716,80.6785,0.003604
148.747,80.6743,0.003604
148.778,80.6693,0.003604
148.809,80.6637,0.003604
148.841,80.6573,0.003698
148.871,80.6513,0.003698
148.902,80.6454,0.003698
148.933,80.6389,0.003698
148.965,80.6327,0.003698
148.996,80.6264,0.003698
149.027,80.6203,0.003698
149.058,80.6140,0.003698
149.088,80.6079,0.003660
149.120,80.6015,0.003660
149.151,80.5954,0.003660
149.183,80.5889,0.003660
149.214,80.5829,0.003660
149.246,80.5762,0.003660
149.277,80.5702,0.003660
149.308,80.5640,0.003660
149.339,80.5576,0.003660
149.372,80.5512,0.003557
149.402,80.5452,0.003557
149.433,80.5390,0.003557
149.464,80.5326,0.003557
149.495,80.5266,0.003557
149.527,80.5202,0.003557
149.558,80.5142,0.003557
149.587,80.5082,0.003548
149.618,80.5020,0.003548
149.650,80.4957,0.003548
149.681,80.4894,0.003548
149.713,80.4831,0.003548
149.744,80.4768,0.003548
149.775,80.4706,0.003548
149.806,80.4644,0.003548
149.837,80.4581,0.003566
149.867,80.4521,0.003566
149.899,80.4453,0.003566
149.930,80.4396,0.003566
149.961,80.4333,0.003566
149.991,80.4273,0.003566
150.023,80.4210,0.003566
150.054,80.4147,0.003566
150.086,80.4082,0.003548
150.118,80.4022,0.003548
150.148,80.3960,0.003548
150.179,80.3896,0.003548
150.210,80.3837,0.003548
150.240,80.3776,0.003548
150.272,80.3714,0.003548
150.303,80.3650,0.003548
150.333,80.3590,0.003585
150.364,80.3529,0.003585
150.395,80.3466,0.003585
150.427,80.3402,0.003585
150.458,80.3341,0.003585
150.489,80.3279,0.003585
150.519,80.3219,0.003585
150.550,80.3156,0.003585
150.582,80.3094,0.003576
150.612,80.3031,0.003576
150.644,80.2969,0.003576
150.676,80.2904,0.003576
150.707,80.2843,0.003576
150.737,80.2780,0.003576
150.769,80.2719,0.003576
150.800,80.2657,0.003576
150.831,80.2593,0.003576
150.863,80.2531,0.003576
150.894,80.2469,0.003576
150.926,80.2404,0.003576
150.956,80.2345,0.003576
150.988,80.2279,0.003576
151.019,80.2218,0.003576
151.050,80.2155,0.003576
151.080,80.2097,0.003651
151.111,80.2034,0.003651
151.142,80.1973,0.003651
151.173,80.1910,0.003651
151.204,80.1849,0.003651
151.235,80.1787,0.003651
151.265,80.1726,0.003651
151.297,80.1661,0.003651
151.328,80.1601,0.003613
151.359,80.1537,0.003613
151.390,80.1475,0.003613
151.421,80.1415,0.003613
151.452,80.1354,0.003613
151.482,80.1292,0.003613
151.513,80.1231,0.003613
151.544,80.1168,0.003613
151.574,80.1107,0.003595
151.605,80.1045,0.003595
151.635,80.0986,0.003595
151.668,80.0920,0.003595
151.698,80.0860,0.003595
151.729,80.0796,0.003595
151.761,80.0735,0.003595
151.792,80.0673,0.003595
151.823,80.0612,0.003595
151.853,80.0550,0.003566
151.885,80.0484,0.003566
151.916,80.0425,0.003566
151.947,80.0363,0.003566
151.978,80.0301,0.003566
152.008,80.0239,0.003566
152.039,80.0178,0.003566
152.070,80.0116,0.003566
152.101,80.0054,0.003566
152.132,79.9993,0.003585
152.164,79.9929,0.003585
152.197,79.9862,0.003585
152.226,79.9805,0.003585
152.257,79.9742,0.003585
152.288,79.9681,0.003585
152.320,79.9618,0.003585
152.351,79.9556,0.003613
152.384,79.9489,0.003613
152.413,79.9430,0.003613
152.444,79.9367,0.003613
152.476,79.9303,0.003613
152.508,79.9241,0.003613
152.539,79.9179,0.003613
152.570,79.9118,0.003613
152.601,79.9054,0.003613
152.632,79.8991,0.003613
152.663,79.8928,0.003613
152.694,79.8868,0.003613
152.727,79.8803,0.003613
152.756,79.8744,0.003613
152.787,79.8682,0.003613
152.818,79.8620,0.003613
152.849,79.8558,0.003623
152.881,79.8495,0.003623
152.912,79.8433,0.003623
152.943,79.8370,0.003623
152.974,79.8308,0.003623
153.005,79.8247,0.003623
153.035,79.8185,0.003623
153.066,79.8126,0.003623
153.097,79.8064,0.003585
153.128,79.8000,0.003585
153.159,79.7938,0.003585
153.190,79.7875,0.003585
153.221,79.7813,0.003585
153.252,79.7751,0.003585
153.284,79.7689,0.003585
153.315,79.7624,0.003585
153.347,79.7562,0.003576
153.379,79.7497,0.003576
153.411,79.7436,0.003576
153.441,79.7374,0.003576
153.471,79.7314,0.003576
153.502,79.7252,0.003576
153.533,79.7190,0.003576
153.563,79.7131,0.003576
153.594,79.7068,0.003604
153.625,79.7004,0.003604
153.657,79.6942,0.003604
153.687,79.6883,0.003604
153.718,79.6820,0.003604
153.748,79.6759,0.003604
153.780,79.6696,0.003604
153.810,79.6636,0.003566
153.842,79.6573,0.003566
153.874,79.6510,0.003566
153.905,79.6446,0.003566
153.936,79.6384,0.003566
153.966,79.6323,0.003566
153.997,79.6263,0.003566
154.029,79.6198,0.003566
154.060,79.6137,0.003595
154.092,79.6074,0.003595
154.122,79.6012,0.003595
154.153,79.5950,0.003595
154.185,79.5886,0.003595
154.217,79.5822,0.003595
154.248,79.5760,0.003595
154.279,79.5697,0.003595
154.312,79.5633,0.003632
154.343,79.5571,0.003632
154.373,79.5510,0.003632
154.404,79.5449,0.003632
154.435,79.5387,0.003632
154.467,79.5323,0.003632
154.498,79.5261,0.003632
154.528,79.5201,0.003632
154.561,79.5134,0.003632
154.591,79.5076,0.003632
154.622,79.5014,0.003613
154.653,79.4951,0.003613
154.686,79.4885,0.003613
154.714,79.4829,0.003613
154.745,79.4767,0.003613
154.776,79.4704,0.003613
154.807,79.4643,0.003613
154.838,79.4581,0.003623
154.868,79.4520,0.003623
154.900,79.4456,0.003623
154.930,79.4395,0.003623
154.961,79.4334,0.003623
154.993,79.4271,0.003623
155.024,79.4209,0.003623
155.055,79.4144,0.003623
155.087,79.4084,0.003623
155.117,79.4022,0.003557
155.147,79.3962,0.003557
155.178,79.3899,0.003557
155.210,79.3837,0.003557
155.241,79.3774,0.003557
155.272,79.3712,0.003557
155.303,79.3651,0.003557
155.335,79.3588,0.003557
155.365,79.3527,0.003576
155.396,79.3464,0.003576
155.427,79.3403,0.003576
155.460,79.3337,0.003576
155.489,79.3277,0.003576
155.520,79.3217,0.003576
155.553,79.3152,0.003576
155.582,79.3091,0.003576
155.613,79.3031,0.003651
155.645,79.2966,0.003651
155.675,79.2907,0.003651
155.707,79.2843,0.003651
155.737,79.2783,0.003651
155.769,79.2719,0.003651
155.800,79.2656,0.003651
155.829,79.2598,0.003651
155.861,79.2535,0.003642
155.892,79.2473,0.003642
155.923,79.2411,0.003642
155.954,79.2349,0.003642
155.985,79.2288,0.003642
156.016,79.2223,0.003642
156.047,79.2164,0.003642
156.078,79.2100,0.003642
156.109,79.2040,0.003642
156.140,79.1976,0.003642
156.171,79.1914,0.003642
156.202,79.1851,0.003642
156.234,79.1788,0.003642
156.266,79.1723,0.003642
156.297,79.1663,0.003642
156.329,79.1598,0.003642
156.360,79.1537,0.003604
156.391,79.1473,0.003604
156.421,79.1415,0.003604
156.452,79.1351,0.003604
156.484,79.1289,0.003604
156.514,79.1227,0.003604
156.545,79.1165,0.003604
156.577,79.1103,0.003604
156.608,79.1040,0.003595
156.639,79.0979,0.003595
156.672,79.0914,0.003595
156.701,79.0854,0.003595
156.732,79.0792,0.003595
156.763,79.0730,0.003595
156.795,79.0666,0.003595
156.826,79.0604,0.003595
156.857,79.0542,0.003604
156.890,79.0478,0.003604
156.919,79.0416,0.003604
156.951,79.0355,0.003604
156.982,79.0293,0.003604
157.013,79.0231,0.003604
157.043,79.0171,0.003604
157.075,79.0107,0.003604
157.106,79.0047,0.003604
157.138,78.9981,0.003604
157.168,78.9921,0.003604
157.199,78.9858,0.003604
157.231,78.9796,0.003604
157.261,78.9734,0.003604
157.293,78.9672,0.003604
157.323,78.9610,0.003604
157.354,78.9548,0.003632
157.385,78.9487,0.003632
157.416,78.9425,0.003632
157.447,78.9363,0.003632
157.478,78.9301,0.003632
157.510,78.9238,0.003632
157.540,78.9176,0.003632
157.570,78.9118,0.003632
157.601,78.9056,0.003632
157.632,78.8994,0.003632
157.662,78.8933,0.003632
157.693,78.8870,0.003632
157.724,78.8809,0.003632
157.755,78.8746,0.003632
157.786,78.8685,0.003632
157.818,78.8620,0.003632
157.849,78.8558,0.003623
157.881,78.8494,0.003623
157.912,78.8433,0.003623
157.944,78.8369,0.003623
157.975,78.8307,0.003623
158.007,78.8242,0.003623
158.038,78.8180,0.003623
158.069,78.8117,0.003623
158.102,78.8052,0.003576
158.132,78.7992,0.003576
158.164,78.7930,0.003576
158.194,78.7868,0.003576
158.225,78.7806,0.003576
158.256,78.7745,0.003576
158.287,78.7683,0.003576
158.318,78.7621,0.003566
158.349,78.7560,0.003566
158.380,78.7497,0.003566
158.411,78.7435,0.003566
158.442,78.7371,0.003566
158.473,78.7311,0.003566
158.504,78.7249,0.003566
158.534,78.7188,0.003566
158.566,78.7126,0.003566
158.598,78.7063,0.003557
158.629,78.7001,0.003557
158.659,78.6940,0.003557
158.689,78.6878,0.003557
158.720,78.6817,0.003557
158.751,78.6755,0.003557
158.782,78.6693,0.003557
158.813,78.6630,0.003557
158.846,78.6565,0.003538
158.875,78.6506,0.003538
158.906,78.6445,0.003538
158.938,78.6382,0.003538
158.970,78.6316,0.003538
159.000,78.6258,0.003538
159.031,78.6194,0.003538
159.063,78.6130,0.003538
159.095,78.6066,0.003538
159.125,78.6006,0.003538
159.156,78.5945,0.003538
159.187,78.5882,0.003538
159.218,78.5819,0.003538
159.249,78.5758,0.003538
159.280,78.5697,0.003538
159.311,78.5634,0.003529
159.342,78.5573,0.003529
159.373,78.5511,0.003529
159.404,78.5450,0.003529
159.435,78.5386,0.003529
159.466,78.5326,0.003529
159.497,78.5263,0.003529
159.528,78.5201,0.003529
159.559,78.5139,0.003529
159.589,78.5078,0.003529
159.621,78.5014,0.003529
159.652,78.4953,0.003529
159.684,78.4889,0.003529
159.715,78.4827,0.003529
159.747,78.4762,0.003529
159.779,78.4700,0.003529
159.810,78.4636,0.003529
159.841,78.4575,0.003557
159.872,78.4511,0.003557
159.903,78.4452,0.003557
159.934,78.4389,0.003557
159.965,78.4325,0.003557
159.996,78.4265,0.003557
160.027,78.4203,0.003557
160.058,78.4142,0.003557
160.089,78.4079,0.003548
160.119,78.4019,0.003548
160.150,78.3956,0.003548
160.181,78.3894,0.003548
160.213,78.3829,0.003548
160.244,78.3770,0.003548
160.275,78.3707,0.003548
160.306,78.3643,0.003548
160.337,78.3583,0.003538
160.369,78.3518,0.003538
160.401,78.3456,0.003538
160.432,78.3393,0.003538
160.463,78.3332,0.003538
160.495,78.3268,0.003538
160.524,78.3209,0.003538
160.555,78.3147,0.003595
160.586,78.3085,0.003595
160.616,78.3026,0.003595
160.648,78.2961,0.003595
160.678,78.2902,0.003595
160.711,78.2836,0.003595
160.740,78.2776,0.003595
160.773,78.2711,0.003595
160.803,78.2651,0.003595
160.834,78.2588,0.003585
160.866,78.2526,0.003585
160.897,78.2461,0.003585
160.929,78.2399,0.003585
160.959,78.2339,0.003585
160.989,78.2279,0.003585
161.020,78.2217,0.003585
161.052,78.2153,0.003585
161.082,78.2093,0.003623
161.113,78.2030,0.003623
161.146,78.1967,0.003623
161.175,78.1906,0.003623
161.206,78.1845,0.003623
161.238,78.1780,0.003623
161.270,78.1717,0.003623
161.299,78.1658,0.003623
161.331,78.1596,0.003623
161.361,78.1534,0.003623
161.392,78.1473,0.003623
161.422,78.1412,0.003623
161.454,78.1350,0.003623
161.485,78.1286,0.003623
161.515,78.1225,0.003623
161.546,78.1165,0.003585
161.577,78.1103,0.003585
161.608,78.1041,0.003585
161.639,78.0981,0.003585
161.670,78.0919,0.003585
161.701,78.0855,0.003585
161.732,78.0795,0.003585
161.764,78.0730,0.003585
161.795,78.0667,0.003585
161.826,78.0606,0.003585
161.857,78.0544,0.003538
161.887,78.0482,0.003538
161.918,78.0419,0.003538
161.949,78.0359,0.003538
161.981,78.0296,0.003538
162.012,78.0233,0.003538
162.044,78.0169,0.003576
162.075,78.0106,0.003576
162.106,78.0045,0.003576
162.137,77.9983,0.003576
162.168,77.9921,0.003576
162.198,77.9859,0.003576
162.230,77.9799,0.003576
162.260,77.9738,0.003576
162.292,77.9675,0.003576
162.323,77.9611,0.003576
162.355,77.9548,0.003632
162.387,77.9484,0.003632
162.418,77.9422,0.003632
162.449,77.9360,0.003632
162.480,77.9299,0.003632
162.510,77.9237,0.003632
162.541,77.9175,0.003632
162.572,77.9114,0.003632
162.603,77.9052,0.003604
162.634,77.8989,0.003604
162.665,77.8927,0.003604
162.697,77.8863,0.003604
162.727,77.8801,0.003604
162.757,77.8742,0.003604
162.790,77.8677,0.003604
162.820,77.8617,0.003604
162.851,77.8556,0.003632
162.882,77.8493,0.003632
162.913,77.8431,0.003632
162.945,77.8366,0.003632
162.977,77.8303,0.003632
163.008,77.8240,0.003632
163.040,77.8178,0.003632
163.072,77.8112,0.003632
163.103,77.8052,0.003566
163.133,77.7990,0.003566
163.166,77.7926,0.003566
163.195,77.7868,0.003566
163.225,77.7806,0.003566
163.256,77.7745,0.003566
163.287,77.7683,0.003566
163.319,77.7620,0.003566
163.349,77.7557,0.003529
163.380,77.7497,0.003529
163.412,77.7432,0.003529
163.443,77.7373,0.003529
163.475,77.7307,0.003529
163.505,77.7247,0.003529
163.536,77.7184,0.003529
163.567,77.7122,0.003529
163.598,77.7059,0.003595
163.629,77.6999,0.003595
163.661,77.6935,0.003595
163.691,77.6877,0.003595
163.722,77.6813,0.003595
163.753,77.6750,0.003595
163.784,77.6689,0.003595
163.816,77.6626,0.003595
163.848,77.6568,0.003585
163.878,77.6522,0.003585
163.908,77.6481,0.003585
163.939,77.6446,0.003585
163.970,77.6420,0.003585
164.001,77.6400,0.003585
164.033,77.6388,0.003585
164.064,77.6383,0.003585
164.096,77.6383,0.003510
164.127,77.6383,0.003510
164.158,77.6383,0.003510
164.189,77.6383,0.003510
164.220,77.6383,0.003510
164.250,77.6383,0.003510
164.281,77.6383,0.003510
164.312,77.6383,0.003510
164.343,77.6383,0.003548
164.374,77.6383,0.003548
164.405,77.6383,0.003548
164.436,77.6383,0.003548
164.467,77.6383,0.003548
164.498,77.6383,0.003548
164.529,77.6383,0.003548
164.561,77.6383,0.003548
164.592,77.6383,0.003642
164.624,77.6383,0.003642
164.655,77.6383,0.003642
164.687,77.6383,0.003642
164.718,77.6383,0.003642
164.749,77.6383,0.003642
164.779,77.6383,0.003642
164.811,77.6389,0.003613
164.842,77.6403,0.003613
164.872,77.6423,0.003613
164.904,77.6451,0.003613
164.937,77.6488,0.003613
164.966,77.6528,0.003613
164.997,77.6579,0.003613
165.029,77.6636,0.003613
165.060,77.6700,0.003472
165.091,77.6760,0.003472
165.122,77.6825,0.003472
165.153,77.6884,0.003472
165.183,77.6946,0.003472
165.214,77.7008,0.003472
165.245,77.7070,0.003472
165.275,77.7128,0.003472
165.306,77.7190,0.003491
165.337,77.7254,0.003491
165.368,77.7313,0.003491
165.399,77.7378,0.003491
165.433,77.7445,0.003491
165.463,77.7504,0.003491
165.493,77.7566,0.003491
165.524,77.7626,0.003491
165.555,77.7689,0.003491
165.586,77.7750,0.003491
165.618,77.7815,0.003566
165.648,77.7874,0.003566
165.679,77.7937,0.003566
165.710,77.7999,0.003566
165.741,77.8062,0.003566
165.773,77.8124,0.003566
165.804,77.8189,0.003566
165.836,77.8250,0.003566
165.868,77.8315,0.003548
165.899,77.8377,0.003548
165.931,77.8442,0.003548
165.963,77.8505,0.003548
165.995,77.8570,0.003548
166.025,77.8628,0.003548
166.056,77.8690,0.003548
166.088,77.8754,0.003566
166.118,77.8815,0.003566
166.149,77.8878,0.003566
166.181,77.8939,0.003566
166.212,77.9002,0.003566
166.243,77.9066,0.003566
166.273,77.9124,0.003566
166.304,77.9185,0.003566
166.335,77.9248,0.003566
166.365,77.9309,0.003585
166.397,77.9373,0.003585
166.429,77.9435,0.003585
166.461,77.9500,0.003585
166.492,77.9563,0.003585
166.524,77.9626,0.003585
166.554,77.9687,0.003623
166.585,77.9749,0.003623
166.616,77.9810,0.003623
166.647,77.9872,0.003623
166.679,77.9938,0.003623
166.709,77.9997,0.003623
166.740,78.0060,0.003623
166.771,78.0121,0.003623
166.803,78.0183,0.003623
166.834,78.0248,0.003651
166.865,78.0310,0.003651
166.896,78.0373,0.003651
166.927,78.0432,0.003651
166.958,78.0496,0.003651
166.989,78.0556,0.003651
167.021,78.0620,0.003651
167.052,78.0682,0.003651
167.082,78.0741,0.003651
167.112,78.0802,0.003642
167.143,78.0864,0.003642
167.174,78.0927,0.003642
167.205,78.0988,0.003642
167.237,78.1051,0.003642
167.268,78.1113,0.003642
167.298,78.1175,0.003642
167.329,78.1237,0.003623
167.361,78.1299,0.003623
167.392,78.1361,0.003623
167.423,78.1425,0.003623
167.454,78.1488,0.003623
167.486,78.1551,0.003623
167.517,78.1613,0.003623
167.549,78.1676,0.003623
167.579,78.1738,0.003576
167.612,78.1802,0.003576
167.642,78.1862,0.003576
167.673,78.1923,0.003576
167.704,78.1985,0.003576
167.736,78.2051,0.003576
167.767,78.2112,0.003576
167.797,78.2172,0.003576
167.829,78.2237,0.003576
167.860,78.2298,0.003576
167.891,78.2360,0.003576
167.922,78.2423,0.003576
167.953,78.2484,0.003576
167.984,78.2546,0.003576
168.016,78.2609,0.003576
168.047,78.2671,0.003576
168.077,78.2733,0.003595
168.108,78.2795,0.003595
168.139,78.2857,0.003595
168.171,78.2920,0.003595
168.202,78.2984,0.003595
168.233,78.3043,0.003595
168.264,78.3106,0.003595
168.295,78.3170,0.003595
168.326,78.3230,0.003566
168.357,78.3295,0.003566
168.388,78.3356,0.003566
168.419,78.3418,0.003566
168.450,78.3478,0.003566
168.481,78.3539,0.003566
168.511,78.3600,0.003566
168.542,78.3664,0.003566
168.575,78.3726,0.003566
168.606,78.3791,0.003566
168.637,78.3852,0.003566
168.668,78.3915,0.003566
168.699,78.3979,0.003566
168.731,78.4040,0.003566
168.762,78.4102,0.003566
168.793,78.4165,0.003566
168.823,78.4226,0.003604
168.855,78.4287,0.003604
168.887,78.4353,0.003604
168.917,78.4414,0.003604
168.949,78.4477,0.003604
168.979,78.4536,0.003604
169.011,78.4601,0.003604
169.041,78.4660,0.003604
169.073,78.4724,0.003623
169.103,78.4784,0.003623
169.134,78.4846,0.003623
169.166,78.4910,0.003623
169.197,78.4972,0.003623
169.227,78.5032,0.003623
169.258,78.5097,0.003623
169.288,78.5153,0.003623
169.319,78.5217,0.003604
169.350,78.5278,0.003604
169.381,78.5340,0.003604
169.412,78.5402,0.003604
169.442,78.5462,0.003604
169.473,78.5524,0.003604
169.505,78.5589,0.003604
169.536,78.5650,0.003604
169.569,78.5717,0.003604
169.600,78.5778,0.003604
169.630,78.5837,0.003604
169.661,78.5901,0.003604
169.693,78.5964,0.003604
169.723,78.6026,0.003604
169.755,78.6088,0.003604
169.785,78.6152,0.003604
169.818,78.6216,0.003604
169.847,78.6273,0.003566
169.879,78.6335,0.003566
169.910,78.6398,0.003566
169.941,78.6460,0.003566
169.973,78.6524,0.003566
170.003,78.6584,0.003566
170.034,78.6647,0.003566
170.065,78.6708,0.003566
170.096,78.6770,0.003585
170.127,78.6833,0.003585
170.158,78.6893,0.003585
170.189,78.6956,0.003585
170.220,78.7018,0.003585
170.251,78.7081,0.003585
170.282,78.7145,0.003585
170.313,78.7204,0.003623
170.345,78.7269,0.003623
170.375,78.7329,0.003623
170.407,78.7391,0.003623
170.437,78.7452,0.003623
170.469,78.7518,0.003623
170.500,78.7577,0.003623
170.532,78.7643,0.003623
170.563,78.7704,0.003576
170.594,78.7767,0.003576
170.626,78.7830,0.003576
170.657,78.7892,0.003576
170.687,78.7952,0.003576
170.718,78.8015,0.003576
170.749,78.8075,0.003576
170.780,78.8137,0.003576
170.811,78.8201,0.003632
170.842,78.8262,0.003632
170.873,78.8323,0.003632
170.902,78.8382,0.003632
170.933,78.8446,0.003632
170.964,78.8508,0.003632
170.996,78.8570,0.003632
171.027,78.8632,0.003632
171.059,78.8695,0.003670
171.089,78.8757,0.003670
171.122,78.8821,0.003670
171.152,78.8883,0.003670
171.184,78.8945,0.003670
171.215,78.9007,0.003670
171.246,78.9069,0.003670
171.277,78.9133,0.003670
171.308,78.9195,0.003651
171.339,78.9257,0.003651
171.370,78.9317,0.003651
171.401,78.9379,0.003651
171.432,78.9443,0.003651
171.463,78.9503,0.003651
171.494,78.9568,0.003651
171.524,78.9626,0.003651
171.555,78.9689,0.003604
171.587,78.9753,0.003604
171.618,78.9815,0.003604
171.650,78.9878,0.003604
171.681,78.9941,0.003604
171.713,79.0004,0.003604
171.744,79.0067,0.003604
171.775,79.0127,0.003604
171.808,79.0193,0.003604
171.836,79.0251,0.003604
171.867,79.0313,0.003623
171.899,79.0375,0.003623
171.929,79.0437,0.003623
171.960,79.0499,0.003623
171.992,79.0561,0.003623
172.023,79.0625,0.003623
172.054,79.0684,0.003623
172.085,79.0749,0.003623
172.116,79.0809,0.003632
172.147,79.0873,0.003632
172.177,79.0932,0.003632
172.209,79.0997,0.003632
172.240,79.1057,0.003632
172.271,79.1121,0.003632
172.302,79.1183,0.003632
172.334,79.1247,0.003632
172.366,79.1309,0.003585
172.397,79.1372,0.003585
172.427,79.1431,0.003585
172.459,79.1496,0.003585
172.490,79.1557,0.003585
172.521,79.1619,0.003585
172.552,79.1683,0.003585
172.585,79.1747,0.003595
172.612,79.1803,0.003595
172.643,79.1864,0.003595
172.676,79.1929,0.003595
172.706,79.1990,0.003595
172.737,79.2052,0.003595
172.767,79.2112,0.003595
172.798,79.2175,0.003595
172.830,79.2238,0.003623
172.861,79.2300,0.003623
172.892,79.2363,0.003623
172.923,79.2424,0.003623
172.954,79.2486,0.003623
172.985,79.2548,0.003623
173.016,79.2609,0.003623
173.047,79.2673,0.003623
173.078,79.2733,0.003623
173.108,79.2796,0.003623
173.139,79.2856,0.003623
173.170,79.2920,0.003623
173.202,79.2982,0.003623
173.233,79.3044,0.003623
173.265,79.3106,0.003623
173.295,79.3170,0.003623
173.327,79.3232,0.003632
173.358,79.3296,0.003632
173.390,79.3357,0.003632
173.420,79.3419,0.003632
173.452,79.3481,0.003632
173.482,79.3542,0.003632
173.512,79.3602,0.003632
173.543,79.3664,0.003632
173.574,79.3728,0.003642
173.605,79.3788,0.003642
173.636,79.3854,0.003642
173.667,79.3914,0.003642
173.698,79.3976,0.003642
173.729,79.4035,0.003642
173.759,79.4099,0.003642
173.791,79.4159,0.003642
173.823,79.4224,0.003595
173.853,79.4283,0.003595
173.884,79.4348,0.003595
173.915,79.4407,0.003595
173.946,79.4469,0.003595
173.976,79.4530,0.003595
174.008,79.4593,0.003595
174.039,79.4657,0.003595
174.070,79.4717,0.003595
174.101,79.4781,0.003595
174.132,79.4841,0.003595
174.163,79.4905,0.003595
174.194,79.4967,0.003595
174.227,79.5032,0.003595
174.257,79.5093,0.003595
174.288,79.5154,0.003595
174.319,79.5216,0.003613
174.351,79.5280,0.003613
174.383,79.5342,0.003613
174.415,79.5408,0.003613
174.445,79.5466,0.003613
174.477,79.5532,0.003613
174.507,79.5592,0.003613
174.539,79.5655,0.003613
174.569,79.5718,0.003623
174.601,79.5779,0.003623
174.631,79.5840,0.003623
174.662,79.5903,0.003623
174.693,79.5963,0.003623
174.724,79.6028,0.003623
174.756,79.6089,0.003623
174.787,79.6151,0.003623
174.819,79.6214,0.003623
174.850,79.6278,0.003651
174.880,79.6338,0.003651
174.912,79.6402,0.003651
174.943,79.6464,0.003651
174.974,79.6527,0.003651
175.005,79.6588,0.003651
175.036,79.6651,0.003651
175.067,79.6712,0.003604
175.097,79.6772,0.003604
175.128,79.6833,0.003604
175.159,79.6895,0.003604
175.190,79.6960,0.003604
175.221,79.7020,0.003604
175.253,79.7083,0.003604
175.285,79.7147,0.003604
175.316,79.7209,0.003585
175.349,79.7276,0.003585
175.378,79.7333,0.003585
175.409,79.7396,0.003585
175.439,79.7456,0.003585
175.470,79.7519,0.003585
175.501,79.7580,0.003585
175.532,79.7643,0.003585
175.564,79.7705,0.003623
175.595,79.7770,0.003623
175.626,79.7830,0.003623
175.657,79.7892,0.003623
175.688,79.7953,0.003623
175.718,79.8015,0.003623
175.750,79.8078,0.003623
175.781,79.8139,0.003623
175.812,79.8201,0.003595
175.843,79.8263,0.003595
175.874,79.8325,0.003595
175.905,79.8388,0.003595
175.936,79.8452,0.003595
175.968,79.8514,0.003595
175.998,79.8573,0.003595
176.029,79.8637,0.003595
176.061,79.8699,0.003613
176.092,79.8762,0.003613
176.124,79.8825,0.003613
176.155,79.8887,0.003613
176.186,79.8949,0.003613
176.217,79.9011,0.003613
176.248,79.9074,0.003613
176.280,79.9139,0.003613
176.311,79.9200,0.003604
176.343,79.9263,0.003604
176.373,79.9324,0.003604
176.404,79.9386,0.003604
176.435,79.9451,0.003604
176.468,79.9513,0.003604
176.497,79.9573,0.003604
176.527,79.9632,0.003604
176.559,79.9697,0.003595
176.590,79.9758,0.003595
176.621,79.9821,0.003595
176.653,79.9884,0.003595
176.684,79.9946,0.003595
176.716,80.0008,0.003595
176.747,80.0073,0.003595
176.778,80.0133,0.003595
176.809,80.0197,0.003623
176.840,80.0256,0.003623
176.872,80.0322,0.003623
176.903,80.0383,0.003623
176.934,80.0445,0.003623
176.965,80.0508,0.003623
176.996,80.0569,0.003623
177.027,80.0632,0.003623
177.058,80.0694,0.003623
177.089,80.0756,0.003613
177.121,80.0818,0.003613
177.151,80.0880,0.003613
177.182,80.0941,0.003613
177.214,80.1005,0.003613
177.245,80.1067,0.003613
177.276,80.1131,0.003613
177.307,80.1191,0.003613
177.339,80.1255,0.003613
177.369,80.1315,0.003613
177.401,80.1379,0.003613
177.431,80.1441,0.003613
177.462,80.1500,0.003613
177.493,80.1563,0.003613
177.522,80.1622,0.003613
177.553,80.1685,0.003613
177.585,80.1748,0.003613
177.616,80.1810,0.003576
177.647,80.1872,0.003576
177.679,80.1937,0.003576
177.710,80.1996,0.003576
177.742,80.2062,0.003576
177.772,80.2122,0.003576
177.803,80.2184,0.003576
177.834,80.2244,0.003557
177.865,80.2308,0.003557
177.896,80.2371,0.003557
177.928,80.2433,0.003557
177.959,80.2496,0.003557
177.991,80.2559,0.003557
178.022,80.2620,0.003557
178.053,80.2683,0.003557
178.083,80.2743,0.003557
178.114,80.2806,0.003585
178.146,80.2871,0.003585
178.177,80.2933,0.003585
178.208,80.2993,0.003585
178.240,80.3058,0.003585
178.271,80.3120,0.003585
178.303,80.3183,0.003585
178.333,80.3244,0.003585
178.363,80.3305,0.003585
178.395,80.3368,0.003585
178.427,80.3433,0.003585
178.459,80.3495,0.003585
178.491,80.3560,0.003585
178.520,80.3617,0.003585
178.551,80.3681,0.003585
178.582,80.3741,0.003576
178.613,80.3803,0.003576
178.643,80.3865,0.003576
178.674,80.3926,0.003576
178.706,80.3989,0.003576
178.735,80.4048,0.003576
178.766,80.4111,0.003576
178.798,80.4173,0.003576
178.829,80.4237,0.003595
178.861,80.4299,0.003595
178.892,80.4363,0.003595
178.923,80.4423,0.003595
178.954,80.4485,0.003595
178.985,80.4547,0.003595
179.015,80.4607,0.003595
179.046,80.4670,0.003595
179.077,80.4732,0.003595
179.108,80.4793,0.003595
179.139,80.4855,0.003595
179.170,80.4917,0.003595
179.201,80.4979,0.003595
179.234,80.5047,0.003595
179.263,80.5104,0.003595
179.294,80.5166,0.003595
179.325,80.5227,0.003585
179.356,80.5289,0.003585
179.387,80.5352,0.003585
179.418,80.5414,0.003585
179.449,80.5476,0.003585
179.480,80.5537,0.003585
179.511,80.5599,0.003585
179.542,80.5661,0.003585
179.573,80.5723,0.003623
179.605,80.5788,0.003623
179.635,80.5847,0.003623
179.666,80.5909,0.003623
179.697,80.5970,0.003623
179.728,80.6035,0.003623
179.759,80.6098,0.003623
179.790,80.6155,0.003623
179.821,80.6209,0.003623
179.851,80.6255,0.003604
179.883,80.6295,0.003604
179.914,80.6327,0.003604
179.945,80.6352,0.003604
179.977,80.6371,0.003604
180.007,80.6381,0.003604
180.039,80.6383,0.003604
180.070,80.6383,0.003604
180.101,80.6383,0.003604
180.132,80.6383,0.003604
180.162,80.6383,0.003604
180.194,80.6383,0.003604
180.224,80.6383,0.003604
180.256,80.6383,0.003604
180.287,80.6383,0.003604
180.318,80.6383,0.003604
180.348,80.6383,0.003632
180.380,80.6383,0.003632
180.411,80.6383,0.003632
180.441,80.6383,0.003632
180.473,80.6383,0.003632
180.503,80.6383,0.003632
180.534,80.6383,0.003632
180.565,80.6383,0.003566
180.596,80.6383,0.003566
180.626,80.6383,0.003566
180.657,80.6383,0.003566
180.688,80.6383,0.003566
180.718,80.6383,0.003566
180.749,80.6383,0.003566
180.781,80.6383,0.003566
180.812,80.6383,0.003548
180.843,80.6383,0.003548
180.874,80.6383,0.003548
180.904,80.6383,0.003548
180.935,80.6383,0.003548
180.967,80.6383,0.003548
180.998,80.6383,0.003548
181.030,80.6383,0.003548
181.062,80.6383,0.003585
181.093,80.6383,0.003585
181.124,80.6383,0.003585
181.155,80.6383,0.003585
181.186,80.6383,0.003585
181.217,80.6383,0.003585
181.248,80.6383,0.003585
181.277,80.6383,0.003585
181.308,80.6383,0.003576
181.339,80.6383,0.003576
181.370,80.6383,0.003576
181.402,80.6383,0.003576
181.432,80.6383,0.003576
181.463,80.6383,0.003576
181.494,80.6383,0.003576
181.525,80.6383,0.003576
181.556,80.6383,0.003585
181.586,80.6383,0.003585
181.618,80.6383,0.003585
181.648,80.6383,0.003585
181.680,80.6383,0.003585
181.712,80.6383,0.003585
181.743,80.6383,0.003585
181.774,80.6383,0.003585
181.805,80.6383,0.003585
181.836,80.6383,0.003604
181.866,80.6383,0.003604
181.898,80.6383,0.003604
181.928,80.6383,0.003604
181.960,80.6383,0.003604
181.992,80.6383,0.003604
182.021,80.6383,0.003604
182.053,80.6383,0.003604
182.084,80.6383,0.003651
182.115,80.6383,0.003651
182.146,80.6383,0.003651
182.177,80.6383,0.003651
182.208,80.6383,0.003651
182.240,80.6383,0.003651
182.271,80.6383,0.003651
182.302,80.6383,0.003651
182.334,80.6383,0.003604
182.366,80.6383,0.003604
182.398,80.6383,0.003604
182.429,80.6383,0.003604
182.460,80.6383,0.003604
182.490,80.6383,0.003604
182.520,80.6383,0.003604
182.552,80.6383,0.003604
182.583,80.6383,0.003604
182.614,80.6383,0.003585
182.645,80.6383,0.003585
182.675,80.6383,0.003585
182.707,80.6383,0.003585
182.738,80.6383,0.003585
182.768,80.6383,0.003585
182.799,80.6383,0.003585
182.831,80.6383,0.003585
182.863,80.6383,0.003585
182.893,80.6383,0.003585
182.925,80.6383,0.003585
182.956,80.6383,0.003585
182.987,80.6383,0.003585
183.018,80.6383,0.003585
183.050,80.6383,0.003585
183.082,80.6383,0.003585
183.114,80.6383,0.003519
183.144,80.6383,0.003519
183.175,80.6383,0.003519
183.206,80.6383,0.003519
183.237,80.6383,0.003519
183.267,80.6383,0.003519
183.298,80.6383,0.003519
183.331,80.6383,0.003538
183.360,80.6383,0.003538
183.391,80.6383,0.003538
183.422,80.6383,0.003538
183.455,80.6383,0.003538
183.484,80.6383,0.003538
183.515,80.6383,0.003538
183.547,80.6383,0.003595
183.578,80.6383,0.003595
183.609,80.6383,0.003595
183.640,80.6383,0.003595
183.672,80.6383,0.003595
183.703,80.6383,0.003595
183.734,80.6383,0.003595
183.765,80.6383,0.003595
183.796,80.6383,0.003595
183.826,80.6383,0.003642
183.858,80.6383,0.003642
183.889,80.6383,0.003642
183.920,80.6383,0.003642
183.952,80.6383,0.003642
183.984,80.6383,0.003642
184.015,80.6383,0.003642
184.046,80.6383,0.003642
184.078,80.6383,0.003660
184.108,80.6383,0.003660
184.139,80.6383,0.003660
184.170,80.6383,0.003660
184.200,80.6383,0.003660
184.232,80.6383,0.003660
184.262,80.6383,0.003660
184.292,80.6383,0.003660
184.325,80.6383,0.003623
184.355,80.6383,0.003623
184.385,80.6383,0.003623
184.415,80.6383,0.003623
184.446,80.6383,0.003623
184.477,80.6383,0.003623
184.508,80.6383,0.003623
184.540,80.6383,0.003623
184.571,80.6383,0.003557
184.604,80.6383,0.003557
184.633,80.6383,0.003557
184.665,80.6383,0.003557
184.694,80.6383,0.003557
184.725,80.6383,0.003557
184.755,80.6381,0.003557
184.786,80.6369,0.003557
184.817,80.6352,0.003557
184.848,80.6327,0.003566
184.879,80.6295,0.003566
184.910,80.6255,0.003566
184.942,80.6206,0.003566
184.973,80.6155,0.003566
185.004,80.6093,0.003566
185.035,80.6031,0.003566
185.066,80.5968,0.003566
185.097,80.5907,0.003613
185.129,80.5842,0.003613
185.160,80.5779,0.003613
185.191,80.5720,0.003613
185.222,80.5656,0.003613
185.253,80.5594,0.003613
185.283,80.5533,0.003613
185.315,80.5470,0.003613
185.345,80.5412,0.003613
185.376,80.5349,0.003642
185.408,80.5284,0.003642
185.438,80.5223,0.003642
185.469,80.5163,0.003642
185.500,80.5101,0.003642
185.531,80.5037,0.003642
185.562,80.4975,0.003642
185.593,80.4916,0.003585
185.624,80.4851,0.003585
185.656,80.4789,0.003585
185.687,80.4726,0.003585
185.718,80.4662,0.003585
185.749,80.4602,0.003585
185.780,80.4540,0.003585
185.811,80.4478,0.003585
185.842,80.4414,0.003538
185.873,80.4354,0.003538
185.905,80.4290,0.003538
185.935,80.4230,0.003538
185.967,80.4167,0.003538
185.997,80.4107,0.003538
186.029,80.4044,0.003538
186.059,80.3982,0.003538
186.090,80.3921,0.003632
186.121,80.3859,0.003632
186.151,80.3798,0.003632
186.182,80.3735,0.003632
186.213,80.3673,0.003632
186.245,80.3611,0.003632
186.275,80.3548,0.003632
186.307,80.3487,0.003632
186.338,80.3424,0.003613
186.369,80.3363,0.003613
186.400,80.3301,0.003613
186.430,80.3240,0.003613
186.462,80.3175,0.003613
186.493,80.3115,0.003613
186.524,80.3051,0.003613
186.555,80.2991,0.003519
186.586,80.2926,0.003519
186.618,80.2863,0.003519
186.649,80.2802,0.003519
186.680,80.2740,0.003519
186.711,80.2678,0.003519
186.742,80.2615,0.003519
186.773,80.2554,0.003519
186.805,80.2490,0.003519
186.834,80.2430,0.003519
186.866,80.2367,0.003519
186.897,80.2306,0.003519
186.928,80.2244,0.003519
186.958,80.2185,0.003519
186.990,80.2119,0.003519
187.021,80.2058,0.003519
187.053,80.1995,0.003519
187.083,80.1934,0.003557
187.114,80.1871,0.003557
187.145,80.1809,0.003557
187.175,80.1750,0.003557
187.206,80.1689,0.003557
187.237,80.1625,0.003557
187.269,80.1563,0.003557
187.300,80.1500,0.003557
187.330,80.1439,0.003585
187.361,80.1377,0.003585
187.392,80.1315,0.003585
187.424,80.1252,0.003585
187.455,80.1190,0.003585
187.486,80.1127,0.003585
187.517,80.1066,0.003585
187.547,80.1005,0.003585
187.578,80.0945,0.003613
187.609,80.0881,0.003613
187.640,80.0821,0.003613
187.671,80.0757,0.003613
187.702,80.0697,0.003613
187.734,80.0631,0.003613
187.765,80.0571,0.003613
187.796,80.0508,0.003613
187.827,80.0447,0.003660
187.858,80.0383,0.003660
187.889,80.0321,0.003660
187.920,80.0260,0.003660
187.951,80.0199,0.003660
187.982,80.0137,0.003660
188.012,80.0073,0.003660
188.044,80.0013,0.003660
188.074,79.9952,0.003623
188.104,79.9892,0.003623
188.135,79.9831,0.003623
188.167,79.9768,0.003623
188.199,79.9703,0.003623
188.230,79.9640,0.003623
188.262,79.9577,0.003623
188.293,79.9515,0.003623
188.325,79.9451,0.003604
188.356,79.9388,0.003604
188.387,79.9327,0.003604
188.417,79.9267,0.003604
188.447,79.9206,0.003604
188.478,79.9144,0.003604
188.510,79.9079,0.003604
188.541,79.9017,0.003604
188.573,79.8954,0.003595
188.603,79.8896,0.003595
188.634,79.8831,0.003595
188.665,79.8770,0.003595
188.697,79.8706,0.003595
188.728,79.8645,0.003595
188.760,79.8581,0.003595
188.790,79.8521,0.003595
188.821,79.8457,0.003595
188.852,79.8396,0.003595
188.884,79.8333,0.003595
188.914,79.8272,0.003595
188.945,79.8210,0.003595
188.976,79.8148,0.003595
189.008,79.8085,0.003595
189.038,79.8024,0.003595
189.069,79.7962,0.003595
189.100,79.7901,0.003595
189.132,79.7837,0.003623
189.163,79.7773,0.003623
189.194,79.7713,0.003623
189.224,79.7653,0.003623
189.255,79.7590,0.003623
189.286,79.7528,0.003623
189.317,79.7466,0.003623
189.348,79.7404,0.003585
189.379,79.7342,0.003585
189.410,79.7281,0.003585
189.442,79.7218,0.003585
189.473,79.7153,0.003585
189.505,79.7091,0.003585
189.536,79.7028,0.003585
189.568,79.6963,0.003585
189.599,79.6903,0.003604
189.630,79.6839,0.003604
189.661,79.6779,0.003604
189.692,79.6715,0.003604
189.724,79.6652,0.003604
189.754,79.6591,0.003604
189.785,79.6531,0.003604
189.816,79.6467,0.003604
189.847,79.6408,0.003613
189.878,79.6345,0.003613
189.909,79.6283,0.003613
189.939,79.6223,0.003613
189.969,79.6162,0.003613
190.000,79.6099,0.003613
190.031,79.6037,0.003613
190.062,79.5976,0.003613
190.098,79.5903,0.003548
190.125,79.5851,0.003548
190.155,79.5790,0.003548
190.187,79.5726,0.003548
190.217,79.5664,0.003548
190.248,79.5603,0.003548
190.279,79.5542,0.003548
190.310,79.5480,0.003548
190.341,79.5419,0.003548
190.372,79.5355,0.003548
190.403,79.5294,0.003548
190.435,79.5231,0.003548
190.466,79.5168,0.003548
190.497,79.5108,0.003548
190.527,79.5047,0.003548
190.558,79.4985,0.003548
190.588,79.4923,0.003566
190.619,79.4862,0.003566
190.650,79.4802,0.003566
190.681,79.4737,0.003566
190.712,79.4676,0.003566
190.743,79.4614,0.003566
190.774,79.4554,0.003566
190.806,79.4488,0.003566
190.836,79.4430,0.003613
190.868,79.4365,0.003613
190.898,79.4306,0.003613
190.929,79.4242,0.003613
190.961,79.4180,0.003613
190.991,79.4118,0.003613
191.022,79.4056,0.003613
191.053,79.3993,0.003613
191.085,79.3931,0.003651
191.116,79.3868,0.003651
191.148,79.3805,0.003651
191.179,79.3743,0.003651
191.210,79.3679,0.003651
191.241,79.3619,0.003651
191.271,79.3559,0.003651
191.303,79.3495,0.003651
191.333,79.3431,0.003642
191.364,79.3372,0.003642
191.396,79.3310,0.003642
191.426,79.3249,0.003642
191.458,79.3186,0.003642
191.488,79.3124,0.003642
191.518,79.3065,0.003642
191.548,79.3002,0.003642
191.579,79.2941,0.003670
191.610,79.2882,0.003670
191.640,79.2820,0.003670
191.672,79.2758,0.003670
191.703,79.2693,0.003670
191.734,79.2631,0.003670
191.765,79.2569,0.003670
191.796,79.2507,0.003670
191.827,79.2445,0.003651
191.858,79.2386,0.003651
191.888,79.2322,0.003651
191.921,79.2259,0.003651
191.951,79.2197,0.003651
191.982,79.2136,0.003651
192.014,79.2071,0.003651
192.045,79.2010,0.003651
192.077,79.1947,0.003604
192.106,79.1888,0.003604
192.138,79.1825,0.003604
192.169,79.1762,0.003604
192.200,79.1701,0.003604
192.230,79.1640,0.003604
192.261,79.1580,0.003604
192.292,79.1518,0.003604
192.323,79.1454,0.003604
192.355,79.1392,0.003548
192.385,79.1330,0.003548
192.416,79.1270,0.003548
192.447,79.1206,0.003548
192.477,79.1147,0.003548
192.508,79.1085,0.003548
192.540,79.1021,0.003548
192.571,79.0958,0.003548
192.603,79.0895,0.003623
192.633,79.0834,0.003623
192.665,79.0771,0.003623
192.695,79.0709,0.003623
192.726,79.0648,0.003623
192.757,79.0586,0.003623
192.789,79.0524,0.003623
192.820,79.0461,0.003623
192.851,79.0398,0.003679
192.881,79.0338,0.003679
192.912,79.0275,0.003679
192.944,79.0212,0.003679
192.975,79.0148,0.003679
193.006,79.0088,0.003679
193.037,79.0027,0.003679
193.069,78.9964,0.003679
193.099,78.9903,0.003623
193.131,78.9840,0.003623
193.161,78.9779,0.003623
193.192,78.9717,0.003623
193.224,78.9654,0.003623
193.255,78.9591,0.003623
193.287,78.9528,0.003623
193.319,78.9463,0.003623
193.350,78.9402,0.003623
193.381,78.9338,0.003623
193.412,78.9276,0.003623
193.444,78.9212,0.003623
193.474,78.9154,0.003623
193.505,78.9090,0.003623
193.536,78.9028,0.003623
193.568,78.8963,0.003623
193.600,78.8901,0.003642
193.629,78.8842,0.003642
193.660,78.8780,0.003642
193.690,78.8722,0.003642
193.721,78.8658,0.003642
193.754,78.8594,0.003642
193.784,78.8532,0.003642
193.816,78.8470,0.003642
193.847,78.8406,0.003670
193.878,78.8344,0.003670
193.909,78.8283,0.003670
193.940,78.8221,0.003670
193.970,78.8162,0.003670
194.002,78.8096,0.003670
194.033,78.8035,0.003670
194.065,78.7972,0.003670
194.095,78.7911,0.003670
194.126,78.7849,0.003670
194.158,78.7783,0.003670
194.188,78.7724,0.003670
194.220,78.7662,0.003670
194.251,78.7598,0.003670
194.282,78.7536,0.003670
194.313,78.7474,0.003670
194.345,78.7410,0.003632
194.374,78.7352,0.003632
194.406,78.7288,0.003632
194.438,78.7225,0.003632
194.469,78.7162,0.003632
194.500,78.7100,0.003632
194.531,78.7038,0.003632
194.562,78.6976,0.003604
194.593,78.6915,0.003604
194.625,78.6851,0.003604
194.656,78.6790,0.003604
194.686,78.6728,0.003604
194.717,78.6667,0.003604
194.749,78.6603,0.003604
194.779,78.6543,0.003604
194.810,78.6481,0.003604
194.842,78.6415,0.003623
194.872,78.6357,0.003623
194.903,78.6294,0.003623
194.936,78.6229,0.003623
194.966,78.6168,0.003623
194.998,78.6104,0.003623
195.029,78.6042,0.003623
195.061,78.5980,0.003623
195.092,78.5917,0.003660
195.124,78.5853,0.003660
195.155,78.5789,0.003660
195.187,78.5728,0.003660
195.217,78.5666,0.003660
195.248,78.5605,0.003660
195.279,78.5543,0.003660
195.309,78.5481,0.003651
195.340,78.5421,0.003651
195.373,78.5355,0.003651
195.404,78.5293,0.003651
195.435,78.5231,0.003651
195.465,78.5171,0.003651
195.496,78.5108,0.003651
195.527,78.5047,0.003651
195.558,78.4984,0.003651
195.589,78.4923,0.003642
195.621,78.4859,0.003642
195.653,78.4796,0.003642
195.684,78.4731,0.003642
195.716,78.4670,0.003642
195.747,78.4607,0.003642
195.778,78.4546,0.003642
195.808,78.4484,0.003642
195.839,78.4422,0.003604
195.870,78.4361,0.003604
195.900,78.4301,0.003604
195.931,78.4240,0.003604
195.962,78.4178,0.003604
195.992,78.4117,0.003604
196.023,78.4056,0.003604
196.055,78.3992,0.003604
196.088,78.3926,0.003604
196.117,78.3868,0.003604
196.147,78.3807,0.003604
196.178,78.3744,0.003604
196.209,78.3683,0.003604
196.240,78.3621,0.003604
196.271,78.3559,0.003604
196.302,78.3496,0.003595
196.333,78.3434,0.003595
196.364,78.3373,0.003595
196.397,78.3308,0.003595
196.427,78.3249,0.003595
196.458,78.3184,0.003595
196.489,78.3124,0.003595
196.520,78.3062,0.003595
196.551,78.3000,0.003595
196.581,78.2939,0.003566
196.613,78.2876,0.003566
196.644,78.2812,0.003566
196.675,78.2750,0.003566
196.707,78.2687,0.003566
196.739,78.2624,0.003566
196.770,78.2561,0.003566
196.802,78.2497,0.003566
196.832,78.2437,0.003585
196.863,78.2373,0.003585
196.894,78.2313,0.003585
196.924,78.2253,0.003585
196.956,78.2189,0.003585
196.987,78.2127,0.003585
197.018,78.2063,0.003585
197.049,78.2002,0.003585
197.080,78.1939,0.003566
197.111,78.1880,0.003566
197.143,78.1814,0.003566
197.174,78.1753,0.003566
197.204,78.1691,0.003566
197.236,78.1628,0.003566
197.267,78.1566,0.003566
197.299,78.1503,0.003566
197.331,78.1438,0.003557
197.362,78.1377,0.003557
197.393,78.1314,0.003557
197.425,78.1251,0.003557
197.457,78.1188,0.003557
197.488,78.1124,0.003557
197.519,78.1062,0.003557
197.549,78.1003,0.003557
197.580,78.0942,0.003538
197.611,78.0880,0.003538
197.641,78.0818,0.003538
197.673,78.0754,0.003538
197.704,78.0693,0.003538
197.736,78.0628,0.003538
197.767,78.0566,0.003538
197.798,78.0506,0.003538
197.829,78.0444,0.003519
197.860,78.0380,0.003519
197.891,78.0320,0.003519
197.923,78.0255,0.003519
197.954,78.0192,0.003519
197.987,78.0127,0.003519
198.016,78.0068,0.003519
198.047,78.0006,0.003519
198.079,77.9942,0.003595
198.111,77.9879,0.003595
198.141,77.9820,0.003595
198.173,77.9755,0.003595
198.204,77.9694,0.003595
198.235,77.9631,0.003595
198.265,77.9572,0.003595
198.296,77.9510,0.003604
198.327,77.9446,0.003604
198.358,77.9387,0.003604
198.388,77.9325,0.003604
198.419,77.9262,0.003604
198.451,77.9198,0.003604
198.481,77.9138,0.003604
198.512,77.9077,0.003604
198.543,77.9015,0.003604
198.575,77.8952,0.003604
198.605,77.8891,0.003585
198.637,77.8827,0.003585
198.668,77.8765,0.003585
198.699,77.8702,0.003585
198.731,77.8640,0.003585
198.762,77.8577,0.003585
198.793,77.8514,0.003585
198.825,77.8452,0.003585
198.856,77.8390,0.003566
198.887,77.8326,0.003566
198.918,77.8266,0.003566
198.949,77.8202,0.003566
198.979,77.8143,0.003566
199.010,77.8081,0.003566
199.041,77.8016,0.003566
199.072,77.7957,0.003566
199.103,77.7896,0.003566
199.134,77.7833,0.003566
199.167,77.7767,0.003566
199.197,77.7706,0.003566
199.229,77.7643,0.003566
199.260,77.7580,0.003566
199.292,77.7515,0.003566
199.323,77.7455,0.003566
199.355,77.7390,0.003604
199.386,77.7329,0.003604
199.416,77.7270,0.003604
199.446,77.7209,0.003604
199.477,77.7148,0.003604
199.507,77.7086,0.003604
199.538,77.7025,0.003604
199.569,77.6965,0.003604
199.601,77.6899,0.003623
199.630,77.6841,0.003623
199.662,77.6777,0.003623
199.693,77.6717,0.003623
199.723,77.6653,0.003623
199.754,77.6594,0.003623
199.785,77.6531,0.003623
199.817,77.6467,0.003651
199.848,77.6404,0.003651
199.879,77.6343,0.003651
199.911,77.6280,0.003651
199.942,77.6217,0.003651
199.973,77.6155,0.003651
200.005,77.6095,0.003651
200.036,77.6042,0.003651
200.066,77.5999,0.003604
200.097,77.5961,0.003604
200.128,77.5930,0.003604
200.160,77.5907,0.003604
200.191,77.5892,0.003604
200.222,77.5883,0.003604
200.253,77.5882,0.003604
200.284,77.5882,0.003604
200.315,77.5882,0.003538
200.347,77.5882,0.003538
200.378,77.5882,0.003538
200.409,77.5882,0.003538
200.440,77.5882,0.003538
200.471,77.5882,0.003538
200.501,77.5882,0.003538
200.532,77.5882,0.003538
200.563,77.5882,0.003557
200.595,77.5882,0.003557
200.626,77.5882,0.003557
200.656,77.5882,0.003557
200.687,77.5882,0.003557
200.719,77.5882,0.003557
200.750,77.5882,0.003557
200.781,77.5882,0.003557
200.812,77.5882,0.003623
200.841,77.5884,0.003623
200.874,77.5896,0.003623
200.904,77.5913,0.003623
200.935,77.5937,0.003623
200.967,77.5970,0.003623
200.998,77.6008,0.003623
201.028,77.6054,0.003623
201.060,77.6109,0.003576
201.090,77.6168,0.003576
201.122,77.6232,0.003576
201.152,77.6291,0.003576
201.183,77.6356,0.003576
201.214,77.6415,0.003576
201.245,77.6477,0.003576
201.276,77.6539,0.003576
201.308,77.6604,0.003576
201.338,77.6665,0.003548
201.370,77.6729,0.003548
201.401,77.6791,0.003548
201.433,77.6854,0.003548
201.465,77.6918,0.003548
201.496,77.6980,0.003548
201.527,77.7042,0.003548
201.558,77.7102,0.003548
201.589,77.7166,0.003604
201.620,77.7228,0.003604
201.651,77.7290,0.003604
201.682,77.7352,0.003604
201.714,77.7414,0.003604
201.745,77.7477,0.003604
201.776,77.7539,0.003604
201.807,77.7602,0.003604
201.837,77.7663,0.003604
201.869,77.7726,0.003548
201.900,77.7787,0.003548
201.931,77.7850,0.003548
201.962,77.7911,0.003548
201.993,77.7974,0.003548
202.024,77.8036,0.003548
202.055,77.8097,0.003548
202.087,77.8160,0.003538
202.118,77.8225,0.003538
202.149,77.8284,0.003538
202.179,77.8346,0.003538
202.211,77.8410,0.003538
202.242,77.8472,0.003538
202.273,77.8535,0.003538
202.305,77.8598,0.003538
202.336,77.8661,0.003538
202.368,77.8725,0.003613
202.399,77.8787,0.003613
202.430,77.8849,0.003613
202.462,77.8912,0.003613
202.493,77.8974,0.003613
202.525,77.9038,0.003613
202.556,77.9100,0.003613
202.587,77.9162,0.003604
202.619,77.9226,0.003604
202.650,77.9288,0.003604
202.680,77.9348,0.003604
202.710,77.9408,0.003604
202.740,77.9469,0.003604
202.770,77.9528,0.003604
202.801,77.9589,0.003604
202.833,77.9652,0.003595
202.864,77.9716,0.003595
202.894,77.9775,0.003595
202.925,77.9838,0.003595
202.956,77.9899,0.003595
202.987,77.9962,0.003595
203.018,78.0023,0.003595
203.050,78.0089,0.003595
203.080,78.0148,0.003576
203.112,78.0212,0.003576
203.143,78.0274,0.003576
203.175,78.0338,0.003576
203.205,78.0398,0.003576
203.237,78.0461,0.003576
203.267,78.0522,0.003576
203.298,78.0585,0.003576
203.330,78.0648,0.003604
203.361,78.0710,0.003604
203.392,78.0771,0.003604
203.423,78.0834,0.003604
203.453,78.0895,0.003604
203.485,78.0958,0.003604
203.514,78.1015,0.003604
203.545,78.1079,0.003604
203.576,78.1141,0.003623
203.607,78.1201,0.003623
203.638,78.1262,0.003623
203.669,78.1327,0.003623
203.701,78.1390,0.003623
203.733,78.1453,0.003623
203.764,78.1514,0.003623
203.794,78.1577,0.003623
203.825,78.1638,0.003642
203.856,78.1699,0.003642
203.886,78.1761,0.003642
203.917,78.1823,0.003642
203.949,78.1885,0.003642
203.980,78.1948,0.003642
204.011,78.2009,0.003642
204.042,78.2071,0.003642
204.073,78.2134,0.003642
204.104,78.2195,0.003613
204.134,78.2256,0.003613
204.166,78.2320,0.003613
204.198,78.2383,0.003613
204.229,78.2447,0.003613
204.260,78.2506,0.003613
204.291,78.2571,0.003613
204.322,78.2633,0.003557
204.353,78.2693,0.003557
204.384,78.2755,0.003557
204.416,78.2819,0.003557
204.446,78.2879,0.003557
204.477,78.2944,0.003557
204.508,78.3002,0.003557
204.539,78.3068,0.003557
204.570,78.3131,0.003557
204.602,78.3192,0.003595
204.633,78.3254,0.003595
204.664,78.3317,0.003595
204.694,78.3375,0.003595
204.726,78.3441,0.003595
204.758,78.3503,0.003595
204.789,78.3566,0.003595
204.821,78.3628,0.003576
204.852,78.3693,0.003576
204.883,78.3754,0.003576
204.914,78.3817,0.003576
204.945,78.3876,0.003576
204.976,78.3940,0.003576
205.007,78.4002,0.003576
205.039,78.4065,0.003576
205.070,78.4127,0.003632
205.102,78.4192,0.003632
205.132,78.4252,0.003632
205.163,78.4314,0.003632
205.195,78.4378,0.003632
205.225,78.4437,0.003632
205.256,78.4500,0.003632
205.288,78.4562,0.003632
205.319,78.4624,0.003660
205.349,78.4685,0.003660
205.380,78.4748,0.003660
205.411,78.4810,0.003660
205.442,78.4872,0.003660
205.474,78.4937,0.003660
205.505,78.4996,0.003660
205.536,78.5060,0.003660
205.567,78.5122,0.003613
205.598,78.5185,0.003613
205.629,78.5246,0.003613
205.659,78.5306,0.003613
205.690,78.5368,0.003613
205.721,78.5431,0.003613
205.753,78.5494,0.003613
205.783,78.5556,0.003613
205.814,78.5618,0.003585
205.846,78.5679,0.003585
205.877,78.5743,0.003585
205.909,78.5806,0.003585
205.939,78.5867,0.003585
205.970,78.5927,0.003585
206.000,78.5987,0.003585
206.032,78.6051,0.003585
206.063,78.6114,0.003566
206.094,78.6177,0.003566
206.126,78.6239,0.003566
206.157,78.6301,0.003566
206.188,78.6363,0.003566
206.219,78.6425,0.003566
206.250,78.6488,0.003566
206.283,78.6552,0.003566
206.313,78.6614,0.003566
206.345,78.6678,0.003613
206.376,78.6740,0.003613
206.407,78.6802,0.003613
206.439,78.6867,0.003613
206.470,78.6926,0.003613
206.500,78.6989,0.003613
206.531,78.7049,0.003613
206.562,78.7114,0.003660
206.594,78.7174,0.003660
206.625,78.7236,0.003660
206.655,78.7298,0.003660
206.686,78.7359,0.003660
206.717,78.7422,0.003660
206.747,78.7482,0.003660
206.778,78.7544,0.003660
206.809,78.7606,0.003660
206.840,78.7668,0.003642
206.871,78.7730,0.003642
206.902,78.7791,0.003642
206.933,78.7854,0.003642
206.963,78.7913,0.003642
206.994,78.7975,0.003642
207.026,78.8039,0.003642
207.057,78.8102,0.003642
207.087,78.8163,0.003642
207.118,78.8224,0.003557
207.149,78.8284,0.003557
207.180,78.8348,0.003557
207.211,78.8411,0.003557
207.243,78.8474,0.003557
207.275,78.8536,0.003557
207.305,78.8598,0.003557
207.337,78.8661,0.003557
207.367,78.8723,0.003548
207.398,78.8783,0.003548
207.429,78.8845,0.003548
207.459,78.8906,0.003548
207.491,78.8970,0.003548
207.522,78.9032,0.003548
207.553,78.9094,0.003548
207.585,78.9157,0.003557
207.617,78.9219,0.003557
207.648,78.9283,0.003557
207.679,78.9346,0.003557
207.709,78.9405,0.003557
207.740,78.9467,0.003557
207.771,78.9529,0.003557
207.802,78.9591,0.003557
207.833,78.9655,0.003604
207.864,78.9714,0.003604
207.894,78.9775,0.003604
207.926,78.9841,0.003604
207.955,78.9898,0.003604
207.986,78.9960,0.003604
208.016,79.0019,0.003604
208.047,79.0081,0.003604
208.079,79.0145,0.003613
208.109,79.0205,0.003613
208.141,79.0270,0.003613
208.172,79.0333,0.003613
208.203,79.0393,0.003613
208.233,79.0455,0.003613
208.264,79.0515,0.003613
208.295,79.0577,0.003613
208.326,79.0641,0.003623
208.358,79.0704,0.003623
208.390,79.0767,0.003623
208.420,79.0828,0.003623
208.451,79.0891,0.003623
208.483,79.0953,0.003623
208.512,79.1013,0.003623
208.543,79.1074,0.003623
208.574,79.1134,0.003651
208.604,79.1196,0.003651
208.635,79.1257,0.003651
208.666,79.1320,0.003651
208.698,79.1382,0.003651
208.729,79.1444,0.003651
208.761,79.1508,0.003651
208.792,79.1572,0.003651
208.824,79.1635,0.003632
208.855,79.1699,0.003632
208.887,79.1761,0.003632
208.918,79.1823,0.003632
208.949,79.1885,0.003632
208.980,79.1948,0.003632
209.011,79.2009,0.003632
209.041,79.2072,0.003632
209.071,79.2130,0.003632
209.103,79.2195,0.003642
209.134,79.2256,0.003642
209.165,79.2318,0.003642
209.196,79.2378,0.003642
209.227,79.2443,0.003642
209.258,79.2504,0.003642
209.290,79.2567,0.003642
209.320,79.2626,0.003651
209.352,79.2691,0.003651
209.383,79.2754,0.003651
209.414,79.2815,0.003651
209.445,79.2877,0.003651
209.475,79.2939,0.003651
209.506,79.2998,0.003651
209.537,79.3063,0.003651
209.568,79.3124,0.003651
209.599,79.3186,0.003613
209.630,79.3246,0.003613
209.661,79.3310,0.003613
209.692,79.3370,0.003613
209.723,79.3434,0.003613
209.754,79.3495,0.003613
209.786,79.3560,0.003613
209.816,79.3620,0.003623
209.848,79.3684,0.003623
209.879,79.3745,0.003623
209.910,79.3808,0.003623
209.941,79.3869,0.003623
209.973,79.3934,0.003623
210.003,79.3994,0.003623
210.035,79.4058,0.003623
210.065,79.4117,0.003604
210.096,79.4179,0.003604
210.127,79.4241,0.003604
210.158,79.4302,0.003604
210.189,79.4365,0.003604
210.220,79.4427,0.003604
210.251,79.4488,0.003604
210.282,79.4550,0.003604
210.313,79.4613,0.003595
210.345,79.4678,0.003595
210.377,79.4740,0.003595
210.407,79.4802,0.003595
210.438,79.4862,0.003595
210.470,79.4927,0.003595
210.500,79.4987,0.003595
210.531,79.5050,0.003595
210.563,79.5112,0.003632
210.594,79.5174,0.003632
210.624,79.5237,0.003632
210.655,79.5297,0.003632
210.686,79.5361,0.003632
210.718,79.5424,0.003632
210.748,79.5484,0.003632
210.779,79.5546,0.003632
210.811,79.5609,0.003595
210.842,79.5671,0.003595
210.874,79.5734,0.003595
210.905,79.5798,0.003595
210.937,79.5861,0.003595
210.969,79.5924,0.003595
210.999,79.5986,0.003595
211.031,79.6048,0.003595
211.061,79.6109,0.003585
211.092,79.6172,0.003585
211.124,79.6234,0.003585
211.155,79.6297,0.003585
211.186,79.6358,0.003585
211.218,79.6423,0.003585
211.248,79.6485,0.003585
211.279,79.6544,0.003585
211.310,79.6607,0.003585
211.341,79.6668,0.003595
211.372,79.6730,0.003595
211.403,79.6792,0.003595
211.434,79.6856,0.003595
211.465,79.6918,0.003595
211.497,79.6980,0.003595
211.528,79.7043,0.003595
211.559,79.7105,0.003566
211.591,79.7169,0.003566
211.621,79.7231,0.003566
211.651,79.7290,0.003566
211.683,79.7353,0.003566
211.714,79.7415,0.003566
211.745,79.7476,0.003566
211.775,79.7538,0.003566
211.806,79.7601,0.003566
211.837,79.7663,0.003604
211.868,79.7722,0.003604
211.899,79.7784,0.003604
211.929,79.7845,0.003604
211.961,79.7910,0.003604
211.993,79.7972,0.003604
212.024,79.8035,0.003604
212.055,79.8097,0.003670
212.086,79.8160,0.003670
212.116,79.8220,0.003670
212.148,79.8283,0.003670
212.178,79.8343,0.003670
212.209,79.8405,0.003670
212.240,79.8465,0.003670
212.270,79.8526,0.003670
212.301,79.8591,0.003670
212.332,79.8651,0.003670
212.363,79.8712,0.003595
212.394,79.8775,0.003595
212.425,79.8836,0.003595
212.456,79.8899,0.003595
212.487,79.8961,0.003595
212.518,79.9023,0.003595
212.549,79.9085,0.003595
212.580,79.9146,0.003529
212.611,79.9208,0.003529
212.642,79.9270,0.003529
212.673,79.9332,0.003529
212.703,79.9394,0.003529
212.734,79.9454,0.003529
212.765,79.9517,0.003529
212.796,79.9579,0.003529
212.827,79.9642,0.003623
212.858,79.9704,0.003623
212.889,79.9765,0.003623
212.921,79.9830,0.003623
212.952,79.9892,0.003623
212.983,79.9955,0.003623
213.015,80.0017,0.003623
213.046,80.0079,0.003623
213.077,80.0140,0.003613
213.107,80.0202,0.003613
213.139,80.0265,0.003613
213.170,80.0328,0.003613
213.202,80.0390,0.003613
213.233,80.0453,0.003613
213.265,80.0517,0.003613
213.295,80.0579,0.003613
213.326,80.0640,0.003566
213.358,80.0703,0.003566
213.389,80.0765,0.003566
213.420,80.0827,0.003566
213.451,80.0893,0.003566
213.482,80.0952,0.003566
213.512,80.1013,0.003566
213.543,80.1072,0.003566
213.575,80.1137,0.003576
213.606,80.1199,0.003576
213.637,80.1260,0.003576
213.668,80.1324,0.003576
213.700,80.1386,0.003576
213.730,80.1448,0.003576
213.762,80.1510,0.003576
213.793,80.1572,0.003576
213.824,80.1637,0.003595
213.855,80.1696,0.003595
213.886,80.1758,0.003595
213.916,80.1819,0.003595
213.947,80.1882,0.003595
213.978,80.1944,0.003595
214.010,80.2009,0.003595
214.041,80.2069,0.003595
214.071,80.2129,0.003595
214.103,80.2194,0.003632
214.134,80.2254,0.003632
214.165,80.2318,0.003632
214.197,80.2380,0.003632
214.228,80.2442,0.003632
214.260,80.2506,0.003632
214.291,80.2569,0.003632
214.322,80.2630,0.003595
214.353,80.2693,0.003595
214.383,80.2754,0.003595
214.415,80.2817,0.003595
214.447,80.2879,0.003595
214.477,80.2941,0.003595
214.509,80.3006,0.003595
214.540,80.3067,0.003595
214.571,80.3130,0.003595
214.602,80.3191,0.003585
214.633,80.3253,0.003585
214.664,80.3316,0.003585
214.695,80.3378,0.003585
214.725,80.3437,0.003585
214.756,80.3499,0.003585
214.787,80.3560,0.003585
214.817,80.3621,0.003548
214.848,80.3683,0.003548
214.880,80.3748,0.003548
214.911,80.3811,0.003548
214.943,80.3872,0.003548
214.974,80.3935,0.003548
215.005,80.3997,0.003548
215.036,80.4059,0.003548
215.067,80.4122,0.003585
215.098,80.4183,0.003585
215.129,80.4246,0.003585
215.160,80.4307,0.003585
215.190,80.4368,0.003585
215.221,80.4430,0.003585
215.253,80.4492,0.003585
215.284,80.4556,0.003585
215.315,80.4617,0.003642
215.346,80.4678,0.003642
215.377,80.4741,0.003642
215.409,80.4804,0.003642
215.440,80.4866,0.003642
215.470,80.4928,0.003642
215.501,80.4989,0.003642
215.526,80.5040,0.003642
215.564,80.5113,0.003604
215.595,80.5176,0.003604
215.625,80.5240,0.003604
215.656,80.5299,0.003604
215.687,80.5361,0.003604
215.718,80.5424,0.003604
215.748,80.5484,0.003604
215.779,80.5545,0.003604
215.810,80.5607,0.003585
215.842,80.5667,0.003585
215.874,80.5721,0.003585
215.904,80.5765,0.003585
215.936,80.5804,0.003585
215.968,80.5835,0.003585
216.000,80.5857,0.003585
216.031,80.5873,0.003585
216.063,80.5881,0.003585
216.094,80.5882,0.003585
216.125,80.5882,0.003585
216.156,80.5882,0.003585
216.188,80.5882,0.003585
216.218,80.5882,0.003585
216.250,80.5882,0.003585
216.281,80.5882,0.003585
216.313,80.5882,0.003585
216.343,80.5882,0.003604
216.375,80.5882,0.003604
216.406,80.5882,0.003604
216.437,80.5882,0.003604
216.468,80.5882,0.003604
216.499,80.5882,0.003604
216.530,80.5882,0.003604
216.561,80.5882,0.003613
216.594,80.5882,0.003613
216.624,80.5882,0.003613
216.656,80.5882,0.003613
216.686,80.5882,0.003613
216.717,80.5882,0.003613
216.747,80.5882,0.003613
216.778,80.5882,0.003613
216.809,80.5882,0.003613
216.840,80.5882,0.003613
216.872,80.5882,0.003613
