Elapsed Time (s),Position (mm),Force (N)
-0.006,82.7112,0.001488
0.103,82.7112,0.001930
0.213,82.7112,0.001930
0.321,82.7112,0.002392
0.429,82.7112,0.002392
0.538,82.7112,0.002430
0.647,82.7112,0.002430
0.757,82.7112,0.002477
0.864,82.7112,0.002477
0.974,82.7112,0.002477
1.084,82.7112,0.002514
1.193,82.7112,0.002514
1.302,82.7112,0.002561
1.411,82.7112,0.002561
1.522,82.7112,0.002552
1.633,82.7112,0.002552
1.744,82.7112,0.002552
1.854,82.7112,0.002552
1.963,82.7112,0.002552
2.073,82.7112,0.002599
2.182,82.7112,0.002599
2.291,82.7112,0.002637
2.400,82.7112,0.002637
2.509,82.7112,0.002674
2.619,82.7112,0.002674
2.729,82.7112,0.002674
2.839,82.7112,0.002618
2.947,82.7112,0.002618
3.057,82.7112,0.002627
3.167,82.7112,0.002627
3.274,82.7112,0.002740
3.383,82.7112,0.002740
3.494,82.7112,0.002740
3.603,82.7112,0.002778
3.713,82.7112,0.002778
3.822,82.7112,0.002750
3.930,82.7112,0.002750
4.041,82.7112,0.002712
4.150,82.7075,0.002712
4.257,82.6950,0.002712
4.367,82.6744,0.002797
4.475,82.6528,0.002797
4.582,82.6314,0.003399
4.692,82.6094,0.003399
4.803,82.5871,0.003964
4.913,82.5654,0.003964
5.023,82.5432,0.004030
5.134,82.5211,0.004030
5.242,82.4994,0.004030
5.352,82.4774,0.004162
5.459,82.4560,0.004162
5.566,82.4345,0.004313
5.675,82.4126,0.004313
5.784,82.3910,0.004388
5.894,82.3689,0.004388
6.003,82.3471,0.004520
6.112,82.3253,0.004520
6.221,82.3037,0.004520
6.331,82.2817,0.004633
6.440,82.2598,0.004633
6.550,82.2378,0.004690
6.660,82.2158,0.004690
6.768,82.1942,0.004727
6.877,82.1725,0.004727
6.987,82.1505,0.004727
7.095,82.1288,0.004840
7.203,82.1074,0.004840
7.313,82.0852,0.004934
7.421,82.0636,0.004934
7.529,82.0420,0.004991
7.638,82.0202,0.004991
7.747,81.9983,0.004991
7.857,81.9764,0.005104
7.966,81.9547,0.005104
8.075,81.9329,0.005170
8.184,81.9110,0.005170
8.293,81.8893,0.005236
8.401,81.8677,0.005236
8.510,81.8455,0.005349
8.620,81.8238,0.005349
8.731,81.8016,0.005349
8.840,81.7797,0.005424
8.949,81.7580,0.005424
9.057,81.7364,0.005499
9.165,81.7148,0.005499
9.274,81.6930,0.005584
9.384,81.6710,0.005584
9.494,81.6490,0.005584
9.602,81.6275,0.005669
9.710,81.6057,0.005669
9.819,81.5840,0.005744
9.929,81.5622,0.005744
10.039,81.5400,0.005820
10.147,81.5185,0.005820
10.256,81.4965,0.005820
10.366,81.4747,0.005914
10.475,81.4526,0.005914
10.582,81.4314,0.005999
10.692,81.4094,0.005999
10.802,81.3874,0.006036
10.913,81.3653,0.006036
11.020,81.3439,0.006102
11.129,81.3220,0.006102
11.239,81.3001,0.006102
11.348,81.2783,0.006187
11.457,81.2564,0.006187
11.565,81.2346,0.006243
11.675,81.2129,0.006243
11.782,81.1913,0.006347
11.892,81.1695,0.006347
12.003,81.1473,0.006347
12.113,81.1251,0.006422
12.221,81.1036,0.006422
12.330,81.0818,0.006479
12.438,81.0604,0.006479
12.546,81.0388,0.006545
12.656,81.0165,0.006545
12.766,80.9947,0.006535
12.876,80.9727,0.006535
12.985,80.9510,0.006535
13.094,80.9290,0.006582
13.205,80.9068,0.006582
13.316,80.8847,0.006639
13.425,80.8628,0.006639
13.533,80.8412,0.006733
13.641,80.8196,0.006733
13.749,80.7980,0.006808
13.859,80.7761,0.006808
13.969,80.7541,0.006808
14.077,80.7324,0.006818
14.185,80.7109,0.006818
14.296,80.6885,0.006855
14.407,80.6666,0.006855
14.515,80.6445,0.006855
14.623,80.6232,0.006884
14.734,80.6012,0.006884
14.841,80.5796,0.006893
14.951,80.5574,0.006893
15.060,80.5359,0.006912
15.167,80.5145,0.006912
15.277,80.4923,0.006950
15.386,80.4706,0.006950
15.495,80.4488,0.006968
15.605,80.4268,0.006968
15.716,80.4048,0.006968
15.826,80.3827,0.007034
15.932,80.3615,0.007034
16.042,80.3395,0.007044
16.151,80.3176,0.007044
16.260,80.2959,0.007063
16.369,80.2742,0.007063
16.478,80.2522,0.007063
16.586,80.2306,0.007081
16.694,80.2091,0.007081
16.802,80.1874,0.007025
16.912,80.1656,0.007025
17.019,80.1439,0.007053
17.129,80.1220,0.007053
17.239,80.1000,0.007053
17.349,80.0782,0.007129
17.457,80.0565,0.007129
17.568,80.0344,0.007100
17.678,80.0121,0.007100
17.787,79.9907,0.007063
17.898,79.9685,0.007063
18.007,79.9465,0.007081
18.117,79.9245,0.007081
18.226,79.9026,0.007081
18.334,79.8810,0.007072
18.441,79.8596,0.007072
18.549,79.8381,0.006987
18.659,79.8160,0.006987
18.767,79.7946,0.006978
18.877,79.7724,0.006978
18.985,79.7509,0.006978
19.092,79.7295,0.007025
19.202,79.7076,0.007025
19.311,79.6858,0.006997
19.419,79.6693,0.006997
19.529,79.6617,0.006855
19.638,79.6612,0.006855
19.747,79.6631,0.006855
19.855,79.6734,0.006695
19.965,79.6925,0.006695
20.074,79.7143,0.006469
20.184,79.7363,0.006469
20.292,79.7579,0.006366
20.401,79.7798,0.006366
20.511,79.8016,0.006498
20.620,79.8237,0.006498
20.729,79.8453,0.006498
20.836,79.8668,0.006554
20.946,79.8887,0.006554
21.057,79.9108,0.006516
21.168,79.9332,0.006516
21.276,79.9548,0.006460
21.383,79.9761,0.006460
21.493,79.9981,0.006422
21.602,80.0200,0.006422
21.712,80.0420,0.006422
21.820,80.0635,0.006441
21.929,80.0853,0.006441
22.038,80.1071,0.006422
22.147,80.1289,0.006422
22.257,80.1509,0.006385
22.364,80.1723,0.006385
22.474,80.1943,0.006385
22.583,80.2163,0.006366
22.692,80.2380,0.006366
22.803,80.2603,0.006366
22.913,80.2820,0.006366
23.023,80.3041,0.006319
23.131,80.3256,0.006319
23.239,80.3473,0.006319
23.349,80.3692,0.006300
23.457,80.3909,0.006300
23.566,80.4127,0.006290
23.674,80.4343,0.006290
23.783,80.4561,0.006253
23.892,80.4778,0.006253
24.004,80.5004,0.006177
24.111,80.5217,0.006177
24.219,80.5437,0.006177
24.328,80.5650,0.006102
24.438,80.5871,0.006102
24.545,80.6085,0.006093
24.655,80.6305,0.006093
24.764,80.6522,0.006027
24.873,80.6741,0.006027
24.982,80.6960,0.006027
25.091,80.7176,0.005951
25.199,80.7394,0.005951
25.308,80.7611,0.005876
25.417,80.7830,0.005876
25.525,80.8046,0.005782
25.635,80.8264,0.005782
25.745,80.8484,0.005782
25.854,80.8702,0.005716
25.963,80.8923,0.005716
26.073,80.9141,0.005660
26.184,80.9365,0.005660
26.294,80.9583,0.005575
26.402,80.9799,0.005575
26.512,81.0018,0.005462
26.623,81.0240,0.005462
26.731,81.0457,0.005462
26.842,81.0679,0.005443
26.952,81.0899,0.005443
27.061,81.1118,0.005358
27.170,81.1335,0.005358
27.281,81.1556,0.005208
27.392,81.1779,0.005208
27.503,81.2001,0.005104
27.613,81.2222,0.005104
27.722,81.2442,0.005104
27.833,81.2660,0.005010
27.943,81.2882,0.005010
28.052,81.3099,0.004906
28.160,81.3316,0.004906
28.271,81.3537,0.004765
28.380,81.3755,0.004765
28.490,81.3973,0.004765
28.598,81.4192,0.004661
28.706,81.4406,0.004661
28.816,81.4626,0.004586
28.927,81.4849,0.004586
29.036,81.5067,0.004586
29.145,81.5285,0.004473
29.256,81.5507,0.004379
29.367,81.5729,0.004379
29.476,81.5946,0.004379
29.584,81.6165,0.004266
29.692,81.6378,0.004266
29.800,81.6596,0.004106
29.911,81.6816,0.004106
30.019,81.7033,0.004049
30.129,81.7256,0.004049
30.237,81.7469,0.004049
30.348,81.7691,0.003917
30.455,81.7905,0.003917
30.561,81.8118,0.003748
30.667,81.8328,0.003748
30.772,81.8539,0.003701
30.880,81.8754,0.003701
30.990,81.8975,0.003597
31.098,81.9191,0.003597
31.206,81.9407,0.003597
31.315,81.9624,0.003437
31.425,81.9845,0.003437
31.534,82.0063,0.003343
31.643,82.0280,0.003343
31.752,82.0498,0.003202
31.861,82.0718,0.003202
31.971,82.0937,0.003202
32.080,82.1155,0.003032
32.190,82.1374,0.003032
32.298,82.1590,0.003032
32.407,82.1808,0.002910
32.516,82.2026,0.002759
32.623,82.2239,0.002759
32.732,82.2459,0.002759
32.841,82.2677,0.002618
32.950,82.2896,0.002618
33.059,82.3113,0.002505
33.168,82.3331,0.002505
33.276,82.3549,0.002505
33.386,82.3766,0.002345
33.495,82.3984,0.002345
33.605,82.4205,0.002194
33.715,82.4425,0.002194
33.823,82.4639,0.002053
33.931,82.4855,0.002053
34.041,82.5078,0.001921
34.149,82.5293,0.001921
34.260,82.5514,0.001799
34.368,82.5732,0.001799
34.479,82.5954,0.001799
34.586,82.6167,0.001704
34.695,82.6383,0.001704
34.804,82.6542,0.001601
34.914,82.6610,0.001601
35.024,82.6612,0.001883
35.136,82.6612,0.001883
35.246,82.6612,0.001883
35.357,82.6612,0.002326
35.466,82.6612,0.002326
35.575,82.6612,0.002448
35.684,82.6612,0.002448
35.793,82.6612,0.002524
35.904,82.6612,0.002524
36.015,82.6612,0.002543
36.124,82.6612,0.002543
36.234,82.6612,0.002543
36.344,82.6612,0.002580
36.451,82.6612,0.002580
36.559,82.6612,0.002608
36.669,82.6612,0.002608
36.779,82.6612,0.002656
36.889,82.6612,0.002656
37.000,82.6612,0.002684
37.110,82.6612,0.002684
37.221,82.6612,0.002684
37.330,82.6612,0.002665
37.441,82.6612,0.002665
37.552,82.6612,0.002674
37.661,82.6612,0.002674
37.771,82.6612,0.002684
37.882,82.6612,0.002684
37.989,82.6612,0.002684
38.100,82.6612,0.002778
38.211,82.6612,0.002778
38.321,82.6612,0.002797
38.431,82.6612,0.002797
38.540,82.6612,0.002759
38.648,82.6612,0.002759
38.758,82.6612,0.002750
38.867,82.6612,0.002750
38.977,82.6612,0.002750
39.088,82.6612,0.002806
39.199,82.6567,0.002806
39.307,82.6431,0.002825
39.416,82.6222,0.002825
39.526,82.6000,0.003371
39.634,82.5784,0.003371
39.743,82.5566,0.003983
39.852,82.5349,0.003983
39.962,82.5128,0.003983
40.072,82.4910,0.004096
40.181,82.4690,0.004096
40.289,82.4474,0.004209
40.398,82.4256,0.004209
40.508,82.4035,0.004275
40.617,82.3818,0.004275
40.727,82.3599,0.004275
40.835,82.3382,0.004379
40.944,82.3166,0.004379
41.053,82.2946,0.004473
41.162,82.2728,0.004473
41.271,82.2511,0.004624
41.379,82.2294,0.004624
41.488,82.2077,0.004624
41.596,82.1860,0.004708
41.706,82.1642,0.004708
41.815,82.1421,0.004755
41.925,82.1203,0.004755
42.034,82.0984,0.004906
42.144,82.0765,0.004906
42.255,82.0543,0.005038
42.363,82.0327,0.005038
42.471,82.0111,0.005038
42.580,81.9893,0.005095
42.688,81.9675,0.005095
42.798,81.9456,0.005142
42.908,81.9236,0.005142
43.018,81.9017,0.005226
43.128,81.8797,0.005226
43.237,81.8579,0.005226
43.347,81.8357,0.005358
43.456,81.8142,0.005358
43.566,81.7921,0.005405
43.675,81.7703,0.005405
43.785,81.7482,0.005481
43.895,81.7261,0.005481
44.005,81.7044,0.005612
44.115,81.6823,0.005612
44.223,81.6606,0.005612
44.333,81.6387,0.005622
44.443,81.6166,0.005622
44.552,81.5949,0.005716
44.662,81.5729,0.005716
44.772,81.5509,0.005876
44.880,81.5294,0.005876
44.988,81.5077,0.005876
45.095,81.4863,0.005923
45.206,81.4642,0.005923
45.315,81.4421,0.005951
45.425,81.4204,0.005951
45.534,81.3983,0.005999
45.643,81.3767,0.005999
45.753,81.3547,0.006064
45.861,81.3331,0.006064
45.971,81.3110,0.006064
46.080,81.2893,0.006112
46.189,81.2676,0.006112
46.297,81.2458,0.006215
46.406,81.2242,0.006215
46.515,81.2024,0.006347
46.624,81.1805,0.006347
46.731,81.1592,0.006347
46.842,81.1369,0.006413
46.952,81.1149,0.006413
47.060,81.0932,0.006479
47.170,81.0713,0.006479
47.279,81.0494,0.006498
47.387,81.0279,0.006498
47.497,81.0060,0.006554
47.606,80.9842,0.006554
47.715,80.9623,0.006554
47.825,80.9404,0.006620
47.934,80.9185,0.006620
48.043,80.8968,0.006658
48.152,80.8749,0.006658
48.261,80.8531,0.006658
48.371,80.8312,0.006714
48.480,80.8095,0.006714
48.589,80.7876,0.006761
48.697,80.7658,0.006761
48.808,80.7438,0.006771
48.917,80.7219,0.006771
49.026,80.6999,0.006780
49.135,80.6784,0.006780
49.245,80.6564,0.006780
49.355,80.6342,0.006837
49.463,80.6128,0.006837
49.573,80.5908,0.006846
49.681,80.5692,0.006846
49.790,80.5473,0.006874
49.898,80.5258,0.006874
50.007,80.5039,0.006997
50.116,80.4822,0.006997
50.226,80.4602,0.006997
50.334,80.4384,0.007034
50.444,80.4167,0.007034
50.551,80.3951,0.006987
50.661,80.3730,0.006987
50.771,80.3512,0.006987
50.880,80.3292,0.006987
50.990,80.3074,0.007072
51.098,80.2857,0.007072
51.206,80.2641,0.007072
51.317,80.2420,0.007053
51.425,80.2201,0.007053
51.533,80.1985,0.007053
51.642,80.1768,0.007044
51.751,80.1551,0.007072
51.861,80.1332,0.007072
51.971,80.1112,0.007072
52.081,80.0893,0.007025
52.187,80.0679,0.007025
52.297,80.0460,0.007063
52.406,80.0243,0.007063
52.516,80.0023,0.007081
52.623,79.9809,0.007081
52.733,79.9588,0.007081
52.842,79.9370,0.007129
52.953,79.9149,0.007129
53.062,79.8930,0.007081
53.173,79.8707,0.007081
53.283,79.8488,0.006987
53.392,79.8269,0.006987
53.499,79.8055,0.007006
53.608,79.7838,0.007006
53.718,79.7617,0.007006
53.824,79.7406,0.006950
53.934,79.7184,0.006950
54.043,79.6968,0.006978
54.152,79.6751,0.006978
54.261,79.6533,0.006968
54.371,79.6316,0.006968
54.480,79.6170,0.006968
54.588,79.6114,0.006837
54.696,79.6113,0.006837
54.806,79.6113,0.006742
54.917,79.6113,0.006742
55.026,79.6113,0.006705
55.134,79.6113,0.006705
55.244,79.6113,0.006705
55.354,79.6140,0.006677
55.463,79.6255,0.006677
55.573,79.6457,0.006507
55.684,79.6679,0.006507
55.793,79.6898,0.006403
55.904,79.7120,0.006403
56.013,79.7336,0.006413
56.121,79.7553,0.006413
56.231,79.7773,0.006413
56.340,79.7990,0.006366
56.448,79.8206,0.006366
56.557,79.8424,0.006356
56.666,79.8643,0.006356
56.777,79.8866,0.006356
56.887,79.9084,0.006356
56.997,79.9304,0.006356
57.107,79.9525,0.006394
57.217,79.9745,0.006394
57.326,79.9961,0.006422
57.435,80.0182,0.006422
57.546,80.0401,0.006403
57.655,80.0621,0.006403
57.765,80.0843,0.006403
57.874,80.1060,0.006403
57.984,80.1277,0.006403
58.093,80.1495,0.006403
58.201,80.1711,0.006403
58.309,80.1928,0.006422
58.418,80.2145,0.006422
58.526,80.2363,0.006375
58.636,80.2583,0.006375
58.746,80.2802,0.006253
58.857,80.3024,0.006253
58.967,80.3245,0.006253
59.075,80.3460,0.006234
59.185,80.3679,0.006234
59.293,80.3899,0.006262
59.402,80.4115,0.006262
59.510,80.4334,0.006262
59.619,80.4549,0.006187
59.728,80.4766,0.006187
59.839,80.4990,0.006140
59.949,80.5209,0.006140
60.057,80.5424,0.006140
60.166,80.5643,0.006140
60.276,80.5862,0.006083
60.386,80.6084,0.006083
60.494,80.6297,0.006083
60.602,80.6514,0.006017
60.711,80.6733,0.006017
60.820,80.6952,0.005961
60.929,80.7168,0.005961
61.039,80.7389,0.005895
61.149,80.7608,0.005895
61.258,80.7827,0.005838
61.367,80.8045,0.005838
61.477,80.8266,0.005838
61.587,80.8484,0.005725
61.696,80.8702,0.005725
61.806,80.8924,0.005650
61.916,80.9143,0.005650
62.026,80.9362,0.005631
62.136,80.9583,0.005631
62.244,80.9797,0.005631
62.352,81.0014,0.005556
62.460,81.0229,0.005556
62.569,81.0449,0.005424
62.678,81.0667,0.005424
62.788,81.0885,0.005321
62.897,81.1103,0.005321
63.004,81.1319,0.005255
63.113,81.1536,0.005255
63.221,81.1754,0.005255
63.331,81.1972,0.005132
63.441,81.2191,0.005132
63.548,81.2408,0.004991
63.659,81.2628,0.004991
63.768,81.2846,0.004953
63.878,81.3065,0.004953
63.988,81.3287,0.004953
64.098,81.3507,0.004897
64.208,81.3725,0.004897
64.315,81.3942,0.004718
64.427,81.4163,0.004718
64.536,81.4383,0.004595
64.645,81.4601,0.004595
64.756,81.4823,0.004492
64.864,81.5037,0.004492
64.973,81.5254,0.004492
65.082,81.5475,0.004360
65.190,81.5690,0.004360
65.299,81.5908,0.004266
65.409,81.6129,0.004266
65.519,81.6347,0.004181
65.629,81.6568,0.004181
65.738,81.6785,0.004181
65.846,81.7004,0.004096
65.957,81.7224,0.004096
66.065,81.7440,0.003936
66.175,81.7659,0.003936
66.282,81.7874,0.003786
66.391,81.8093,0.003786
66.500,81.8310,0.003786
66.610,81.8529,0.003729
66.721,81.8752,0.003729
66.829,81.8968,0.003607
66.937,81.9185,0.003607
67.048,81.9405,0.003465
67.156,81.9623,0.003465
67.265,81.9840,0.003343
67.375,82.0060,0.003343
67.483,82.0276,0.003343
67.590,82.0489,0.003230
67.700,82.0709,0.003230
67.809,82.0927,0.003060
67.919,82.1149,0.003060
68.029,82.1368,0.002900
68.139,82.1588,0.002900
68.246,82.1802,0.002825
68.355,82.2020,0.002825
68.466,82.2241,0.002825
68.576,82.2460,0.002656
68.684,82.2678,0.002656
68.795,82.2899,0.002505
68.904,82.3120,0.002505
69.015,82.3341,0.002505
69.125,82.3559,0.002364
69.234,82.3779,0.002364
69.343,82.3996,0.002204
69.452,82.4215,0.002204
69.562,82.4437,0.002091
69.671,82.4653,0.002091
69.781,82.4872,0.001987
69.890,82.5091,0.001987
70.001,82.5313,0.001836
70.111,82.5532,0.001836
70.221,82.5751,0.001836
70.330,82.5956,0.001676
70.439,82.6079,0.001676
70.548,82.6113,0.001789
70.657,82.6113,0.001789
70.766,82.6113,0.002185
70.876,82.6113,0.002185
70.983,82.6113,0.002185
71.093,82.6113,0.002505
71.200,82.6113,0.002505
71.311,82.6113,0.002618
71.419,82.6113,0.002618
71.529,82.6113,0.002665
71.640,82.6113,0.002665
71.750,82.6113,0.002693
71.860,82.6113,0.002693
71.968,82.6113,0.002693
72.077,82.6113,0.002740
72.186,82.6113,0.002740
72.297,82.6113,0.002731
72.407,82.6113,0.002731
72.517,82.6113,0.002684
72.626,82.6113,0.002684
72.738,82.6113,0.002684
72.846,82.6113,0.002703
72.956,82.6113,0.002703
73.066,82.6113,0.002778
73.177,82.6113,0.002778
73.288,82.6113,0.002806
73.397,82.6113,0.002806
73.506,82.6113,0.002797
73.616,82.6113,0.002797
73.724,82.6113,0.002797
73.833,82.6113,0.002759
73.941,82.6113,0.002759
74.049,82.6113,0.002769
74.160,82.6113,0.002769
74.268,82.6113,0.002853
74.379,82.6113,0.002853
74.486,82.6113,0.002853
74.594,82.6113,0.002882
74.703,82.6113,0.002882
74.813,82.6113,0.002882
74.923,82.6113,0.002882
75.032,82.6113,0.002872
75.143,82.6113,0.002872
75.252,82.6108,0.002882
75.361,82.6032,0.002882
75.469,82.5871,0.002882
75.579,82.5650,0.003230
75.689,82.5431,0.003230
75.800,82.5210,0.003823
75.909,82.4990,0.003823
76.017,82.4774,0.004059
76.127,82.4554,0.004059
76.235,82.4340,0.004059
76.346,82.4117,0.004190
76.454,82.3900,0.004190
76.563,82.3681,0.004303
76.672,82.3464,0.004303
76.781,82.3246,0.004369
76.891,82.3027,0.004369
77.002,82.2805,0.004558
77.111,82.2587,0.004558
77.222,82.2366,0.004558
77.331,82.2146,0.004652
77.441,82.1927,0.004652
77.552,82.1706,0.004793
77.662,82.1485,0.004793
77.773,82.1262,0.004878
77.882,82.1044,0.004878
77.992,82.0824,0.004887
78.104,82.0602,0.004887
78.213,82.0383,0.004887
78.322,82.0166,0.005000
78.432,81.9946,0.005000
78.541,81.9725,0.005132
78.653,81.9503,0.005132
78.762,81.9285,0.005273
78.870,81.9068,0.005273
78.980,81.8849,0.005273
79.089,81.8630,0.005330
79.196,81.8417,0.005330
79.304,81.8200,0.005349
79.415,81.7980,0.005349
79.525,81.7760,0.005434
79.634,81.7541,0.005434
79.744,81.7322,0.005434
79.853,81.7104,0.005518
79.962,81.6883,0.005518
80.071,81.6667,0.005603
80.181,81.6448,0.005603
80.291,81.6228,0.005725
80.401,81.6008,0.005725
80.510,81.5789,0.005791
80.619,81.5572,0.005791
80.727,81.5356,0.005791
80.835,81.5139,0.005829
80.945,81.4920,0.005829
81.054,81.4701,0.005895
81.163,81.4482,0.005895
81.272,81.4265,0.006008
81.381,81.4046,0.006008
81.490,81.3829,0.006008
81.600,81.3610,0.006121
81.710,81.3389,0.006121
81.819,81.3172,0.006234
81.928,81.2951,0.006234
82.037,81.2734,0.006253
82.146,81.2517,0.006253
82.254,81.2301,0.006253
82.364,81.2082,0.006253
82.473,81.1862,0.006253
82.581,81.1648,0.006300
82.690,81.1428,0.006300
82.799,81.1211,0.006366
82.910,81.0990,0.006366
83.020,81.0770,0.006403
83.129,81.0551,0.006403
83.239,81.0331,0.006460
83.349,81.0111,0.006460
83.458,80.9892,0.006460
83.568,80.9675,0.006620
83.675,80.9460,0.006620
83.784,80.9241,0.006677
83.895,80.9020,0.006677
84.003,80.8805,0.006667
84.112,80.8587,0.006667
84.222,80.8366,0.006667
84.331,80.8147,0.006705
84.441,80.7927,0.006705
84.550,80.7710,0.006724
84.658,80.7494,0.006724
84.768,80.7272,0.006790
84.877,80.7055,0.006790
84.987,80.6837,0.006790
85.096,80.6617,0.006846
85.204,80.6399,0.006846
85.313,80.6183,0.006855
85.423,80.5964,0.006855
85.531,80.5748,0.006950
85.640,80.5531,0.006950
85.748,80.5313,0.007006
85.859,80.5092,0.007006
85.969,80.4872,0.007006
86.079,80.4652,0.006959
86.190,80.4428,0.006959
86.300,80.4210,0.006987
86.410,80.3989,0.006987
86.520,80.3769,0.007053
86.630,80.3549,0.007053
86.740,80.3330,0.007072
86.849,80.3111,0.007072
86.959,80.2891,0.007072
87.069,80.2670,0.007081
87.180,80.2450,0.007081
87.291,80.2228,0.007100
87.400,80.2011,0.007100
87.510,80.1789,0.007081
87.620,80.1571,0.007081
87.729,80.1350,0.007081
87.839,80.1131,0.007044
87.949,80.0911,0.007044
88.058,80.0694,0.007072
88.169,80.0472,0.007072
88.279,80.0253,0.007138
88.387,80.0037,0.007138
88.496,79.9817,0.007119
88.603,79.9603,0.007119
88.714,79.9383,0.007119
88.823,79.9162,0.007081
88.932,79.8947,0.007081
89.042,79.8727,0.007053
89.151,79.8508,0.007053
89.259,79.8290,0.007034
89.369,79.8071,0.007034
89.477,79.7856,0.007034
89.587,79.7634,0.007016
89.696,79.7416,0.007016
89.805,79.7199,0.006950
89.914,79.6982,0.006950
90.023,79.6764,0.006940
90.132,79.6547,0.006940
90.242,79.6325,0.006940
90.350,79.6110,0.006921
90.460,79.5891,0.006921
90.569,79.5712,0.006903
90.679,79.5623,0.006903
90.787,79.5613,0.006761
90.897,79.5613,0.006761
91.005,79.5613,0.006620
91.115,79.5613,0.006620
91.223,79.5613,0.006620
91.332,79.5622,0.006629
91.442,79.5708,0.006629
91.551,79.5886,0.006545
91.660,79.6104,0.006545
91.769,79.6320,0.006432
91.879,79.6542,0.006432
91.989,79.6760,0.006432
92.098,79.6980,0.006413
92.207,79.7197,0.006413
92.315,79.7415,0.006356
92.425,79.7633,0.006356
92.535,79.7854,0.006385
92.643,79.8070,0.006385
92.753,79.8288,0.006432
92.860,79.8504,0.006432
92.969,79.8721,0.006432
93.078,79.8940,0.006394
93.187,79.9157,0.006394
93.296,79.9374,0.006422
93.406,79.9594,0.006422
93.516,79.9815,0.006413
93.626,80.0036,0.006413
93.735,80.0254,0.006413
93.845,80.0472,0.006394
93.952,80.0689,0.006394
94.062,80.0906,0.006403
94.172,80.1128,0.006403
94.281,80.1345,0.006385
94.391,80.1566,0.006385
94.501,80.1785,0.006375
94.612,80.2006,0.006375
94.721,80.2226,0.006375
94.830,80.2443,0.006328
94.940,80.2664,0.006328
95.050,80.2882,0.006290
95.158,80.3099,0.006290
95.267,80.3318,0.006290
95.376,80.3535,0.006300
95.486,80.3754,0.006300
95.595,80.3973,0.006300
95.704,80.4190,0.006300
95.812,80.4407,0.006272
95.921,80.4627,0.006272
96.030,80.4843,0.006196
96.140,80.5062,0.006196
96.251,80.5284,0.006159
96.360,80.5502,0.006159
96.469,80.5722,0.006159
96.577,80.5938,0.006130
96.686,80.6154,0.006130
96.794,80.6371,0.006036
96.905,80.6594,0.006036
97.014,80.6810,0.006027
97.123,80.7028,0.006027
97.232,80.7246,0.006027
97.338,80.7460,0.005999
97.446,80.7675,0.005999
97.554,80.7890,0.005876
97.663,80.8109,0.005876
97.774,80.8330,0.005754
97.883,80.8548,0.005754
97.992,80.8768,0.005754
98.103,80.8988,0.005612
98.213,80.9210,0.005612
98.323,80.9429,0.005537
98.433,80.9649,0.005537
98.542,80.9867,0.005518
98.650,81.0081,0.005518
98.758,81.0300,0.005434
98.866,81.0514,0.005434
98.975,81.0734,0.005434
99.085,81.0952,0.005321
99.194,81.1170,0.005321
99.303,81.1389,0.005236
99.411,81.1604,0.005236
99.521,81.1826,0.005113
99.630,81.2042,0.005113
99.740,81.2263,0.005113
99.850,81.2482,0.005019
99.958,81.2700,0.005019
100.068,81.2918,0.004953
100.177,81.3136,0.004953
100.286,81.3354,0.004878
100.394,81.3573,0.004878
100.505,81.3792,0.004746
100.613,81.4008,0.004746
100.722,81.4225,0.004746
100.831,81.4443,0.004605
100.942,81.4665,0.004605
101.050,81.4882,0.004511
101.159,81.5102,0.004511
101.267,81.5316,0.004388
101.377,81.5537,0.004388
101.486,81.5754,0.004388
101.596,81.5975,0.004256
101.705,81.6195,0.004256
101.812,81.6407,0.004134
101.923,81.6629,0.004134
102.032,81.6846,0.004021
102.140,81.7063,0.004021
102.249,81.7282,0.004021
102.358,81.7499,0.003870
102.467,81.7716,0.003870
102.577,81.7937,0.003748
102.687,81.8157,0.003748
102.796,81.8374,0.003720
102.904,81.8591,0.003720
103.013,81.8809,0.003625
103.122,81.9027,0.003625
103.231,81.9243,0.003625
103.339,81.9460,0.003447
103.450,81.9681,0.003447
103.560,81.9902,0.003277
103.669,82.0121,0.003277
103.778,82.0338,0.003221
103.888,82.0558,0.003221
103.995,82.0773,0.003221
104.106,82.0993,0.003155
104.214,82.1210,0.003155
104.323,82.1428,0.002947
104.434,82.1650,0.002947
104.543,82.1869,0.002797
104.654,82.2091,0.002797
104.764,82.2310,0.002693
104.873,82.2531,0.002693
104.981,82.2744,0.002693
105.089,82.2960,0.002514
105.198,82.3181,0.002514
105.307,82.3395,0.002382
105.417,82.3616,0.002382
105.526,82.3833,0.002241
105.636,82.4053,0.002241
105.746,82.4276,0.002241
105.857,82.4495,0.002138
105.966,82.4714,0.002138
106.075,82.4932,0.002015
106.183,82.5148,0.002015
106.292,82.5365,0.001846
106.402,82.5533,0.001846
106.510,82.5608,0.001968
106.620,82.5613,0.001968
106.729,82.5613,0.001968
106.837,82.5613,0.002354
106.945,82.5613,0.002354
107.054,82.5613,0.002637
107.163,82.5613,0.002637
107.273,82.5613,0.002656
107.383,82.5613,0.002656
107.493,82.5613,0.002665
107.602,82.5613,0.002665
107.712,82.5613,0.002665
107.821,82.5613,0.002740
107.929,82.5613,0.002740
108.037,82.5613,0.002787
108.147,82.5613,0.002787
108.257,82.5613,0.002806
108.364,82.5613,0.002806
108.474,82.5613,0.002806
108.582,82.5613,0.002825
108.691,82.5613,0.002825
108.801,82.5613,0.002910
108.909,82.5613,0.002910
109.019,82.5613,0.002947
109.130,82.5613,0.002947
109.240,82.5613,0.002947
109.350,82.5613,0.002957
109.461,82.5613,0.002957
109.572,82.5613,0.002929
109.683,82.5613,0.002929
109.791,82.5613,0.002929
109.902,82.5613,0.002929
110.012,82.5613,0.002966
110.121,82.5613,0.002966
110.232,82.5613,0.002966
110.342,82.5613,0.002966
110.453,82.5613,0.002966
110.561,82.5613,0.002976
110.671,82.5613,0.002976
110.781,82.5613,0.002929
110.890,82.5613,0.002929
110.999,82.5613,0.002957
111.110,82.5613,0.002957
111.218,82.5599,0.002957
111.327,82.5504,0.003023
111.437,82.5318,0.003023
111.545,82.5101,0.003475
111.655,82.4881,0.003475
111.766,82.4658,0.004030
111.874,82.4443,0.004030
111.982,82.4225,0.004030
112.093,82.4006,0.004162
112.202,82.3787,0.004162
112.310,82.3571,0.004303
112.418,82.3356,0.004303
112.528,82.3134,0.004398
112.637,82.2917,0.004398
112.746,82.2698,0.004398
112.857,82.2476,0.004492
112.965,82.2261,0.004492
113.074,82.2042,0.004595
113.184,82.1824,0.004595
113.294,82.1603,0.004699
113.402,82.1386,0.004699
113.512,82.1168,0.004812
113.622,82.0948,0.004812
113.731,82.0728,0.004812
113.841,82.0511,0.004897
113.951,82.0291,0.004897
114.061,82.0071,0.005029
114.171,81.9847,0.005029
114.281,81.9630,0.005029
114.390,81.9412,0.005113
114.498,81.9197,0.005170
114.607,81.8978,0.005170
114.716,81.8758,0.005170
114.824,81.8544,0.005236
114.935,81.8322,0.005236
115.042,81.8107,0.005339
115.154,81.7882,0.005339
115.262,81.7668,0.005405
115.371,81.7451,0.005405
115.479,81.7233,0.005405
115.587,81.7017,0.005481
115.697,81.6799,0.005481
115.805,81.6581,0.005603
115.915,81.6361,0.005603
116.024,81.6142,0.005707
116.134,81.5922,0.005707
116.243,81.5707,0.005707
116.351,81.5490,0.005829
116.460,81.5272,0.005829
116.570,81.5052,0.005848
116.679,81.4832,0.005848
116.789,81.4613,0.005933
116.899,81.4394,0.005933
117.009,81.4174,0.006083
117.116,81.3957,0.006083
117.226,81.3741,0.006083
117.335,81.3521,0.006112
117.444,81.3304,0.006112
117.553,81.3085,0.006159
117.662,81.2868,0.006159
117.770,81.2651,0.006215
117.880,81.2430,0.006215
117.989,81.2215,0.006215
118.097,81.1996,0.006272
118.206,81.1781,0.006272
118.315,81.1561,0.006338
118.425,81.1341,0.006338
118.534,81.1123,0.006413
118.644,81.0905,0.006413
118.754,81.0685,0.006479
118.863,81.0465,0.006479
118.972,81.0248,0.006479
119.081,81.0029,0.006507
119.190,80.9811,0.006507
119.299,80.9595,0.006554
119.407,80.9377,0.006554
119.516,80.9160,0.006611
119.625,80.8942,0.006611
119.735,80.8722,0.006611
119.843,80.8505,0.006686
119.952,80.8288,0.006686
120.062,80.8067,0.006724
120.170,80.7851,0.006724
120.280,80.7632,0.006724
120.388,80.7415,0.006752
120.499,80.7194,0.006855
120.606,80.6980,0.006855
120.716,80.6760,0.006855
120.826,80.6539,0.006903
120.935,80.6322,0.006903
121.044,80.6104,0.006855
121.153,80.5887,0.006855
121.263,80.5667,0.006865
121.370,80.5450,0.006865
121.481,80.5230,0.006865
121.592,80.5009,0.006940
121.701,80.4789,0.006940
121.810,80.4572,0.006968
121.919,80.4355,0.006968
122.029,80.4134,0.006968
122.137,80.3917,0.006968
122.247,80.3698,0.006968
122.357,80.3477,0.006959
122.466,80.3260,0.006959
122.574,80.3044,0.007025
122.682,80.2827,0.007025
122.792,80.2607,0.007044
122.903,80.2387,0.007044
123.013,80.2164,0.007025
123.123,80.1947,0.007025
123.232,80.1728,0.007025
123.343,80.1508,0.007025
123.452,80.1288,0.007025
123.563,80.1066,0.007091
123.673,80.0847,0.007091
123.783,80.0626,0.007044
123.893,80.0405,0.007044
124.002,80.0188,0.007006
124.110,79.9970,0.007006
124.218,79.9756,0.007006
124.328,79.9534,0.007063
124.438,79.9316,0.007063
124.547,79.9099,0.006997
124.654,79.8883,0.006997
124.762,79.8668,0.007016
124.872,79.8448,0.007016
124.979,79.8233,0.007016
125.088,79.8016,0.007025
125.198,79.7797,0.007025
125.308,79.7577,0.006987
125.416,79.7360,0.006987
125.524,79.7142,0.006940
125.633,79.6926,0.006940
125.744,79.6705,0.006940
125.854,79.6485,0.006893
125.963,79.6265,0.006893
126.071,79.6049,0.006931
126.180,79.5832,0.006931
126.291,79.5612,0.006921
126.398,79.5396,0.006921
126.507,79.5215,0.006818
126.617,79.5124,0.006818
126.727,79.5113,0.006818
126.836,79.5113,0.006677
126.946,79.5113,0.006677
127.055,79.5113,0.006545
127.163,79.5113,0.006545
127.272,79.5113,0.006535
127.380,79.5113,0.006535
127.488,79.5132,0.006535
127.596,79.5232,0.006554
127.706,79.5422,0.006554
127.816,79.5645,0.006394
127.925,79.5862,0.006394
128.035,79.6080,0.006253
128.144,79.6300,0.006253
128.254,79.6519,0.006300
128.362,79.6735,0.006300
128.471,79.6952,0.006300
128.579,79.7169,0.006290
128.687,79.7386,0.006290
128.797,79.7607,0.006253
128.906,79.7824,0.006253
129.016,79.8044,0.006272
129.124,79.8259,0.006272
129.234,79.8478,0.006272
129.342,79.8694,0.006300
129.450,79.8911,0.006300
129.560,79.9131,0.006356
129.671,79.9355,0.006356
129.779,79.9568,0.006366
129.887,79.9785,0.006366
129.996,80.0003,0.006366
130.103,80.0217,0.006347
130.214,80.0440,0.006347
130.322,80.0654,0.006347
130.430,80.0871,0.006347
130.540,80.1091,0.006347
130.649,80.1308,0.006347
130.759,80.1530,0.006366
130.869,80.1748,0.006366
130.977,80.1964,0.006366
131.086,80.2182,0.006366
131.195,80.2402,0.006366
131.305,80.2623,0.006385
131.415,80.2841,0.006385
131.523,80.3057,0.006328
131.633,80.3277,0.006328
131.743,80.3497,0.006328
131.852,80.3715,0.006272
131.960,80.3930,0.006272
132.068,80.4148,0.006253
132.178,80.4368,0.006253
132.286,80.4582,0.006215
132.395,80.4802,0.006215
132.506,80.5022,0.006140
132.615,80.5240,0.006140
132.724,80.5458,0.006140
132.832,80.5675,0.006055
132.941,80.5892,0.006055
133.050,80.6110,0.006008
133.159,80.6330,0.006008
133.267,80.6544,0.005951
133.378,80.6767,0.005951
133.488,80.6988,0.005951
133.596,80.7203,0.005904
133.706,80.7422,0.005904
133.814,80.7639,0.005848
133.925,80.7861,0.005848
134.033,80.8077,0.005820
134.140,80.8291,0.005820
134.251,80.8513,0.005820
134.360,80.8731,0.005725
134.470,80.8953,0.005725
134.579,80.9169,0.005584
134.689,80.9389,0.005584
134.798,80.9606,0.005518
134.908,80.9825,0.005518
135.017,81.0045,0.005471
135.126,81.0262,0.005471
135.236,81.0482,0.005471
135.345,81.0703,0.005396
135.453,81.0916,0.005396
135.562,81.1134,0.005330
135.671,81.1354,0.005330
135.781,81.1572,0.005245
135.890,81.1790,0.005245
135.999,81.2009,0.005245
136.107,81.2225,0.005104
136.219,81.2448,0.005104
136.328,81.2666,0.004991
136.437,81.2887,0.004991
136.546,81.3101,0.004878
136.654,81.3318,0.004878
136.763,81.3538,0.004774
136.872,81.3755,0.004774
136.980,81.3972,0.004774
137.091,81.4192,0.004671
137.201,81.4411,0.004671
137.310,81.4632,0.004548
137.420,81.4850,0.004548
137.529,81.5067,0.004464
137.639,81.5289,0.004464
137.749,81.5507,0.004369
137.859,81.5729,0.004369
137.968,81.5946,0.004369
138.077,81.6164,0.004200
138.186,81.6384,0.004200
138.296,81.6603,0.004096
138.405,81.6821,0.004096
138.512,81.7034,0.003964
138.622,81.7254,0.003964
138.731,81.7474,0.003964
138.840,81.7689,0.003795
138.948,81.7906,0.003795
139.056,81.8122,0.003738
139.164,81.8339,0.003738
139.274,81.8560,0.003673
139.383,81.8775,0.003673
139.493,81.8995,0.003673
139.601,81.9214,0.003541
139.710,81.9429,0.003541
139.819,81.9649,0.003409
139.928,81.9867,0.003409
140.037,82.0085,0.003258
140.147,82.0303,0.003258
140.256,82.0523,0.003108
140.365,82.0741,0.003108
140.473,82.0957,0.003108
140.583,82.1177,0.002976
140.693,82.1397,0.002976
140.802,82.1614,0.002891
140.910,82.1830,0.002891
141.017,82.2045,0.002759
141.127,82.2263,0.002759
141.235,82.2480,0.002759
141.343,82.2697,0.002580
141.453,82.2915,0.002580
141.560,82.3131,0.002439
141.670,82.3351,0.002439
141.779,82.3568,0.002298
141.890,82.3790,0.002298
142.000,82.4009,0.002194
142.107,82.4226,0.002194
142.216,82.4442,0.002194
142.325,82.4660,0.002006
142.435,82.4879,0.002006
142.544,82.5040,0.001827
142.654,82.5109,0.001827
142.764,82.5113,0.001827
142.873,82.5113,0.002138
142.982,82.5113,0.002138
143.091,82.5113,0.002561
143.200,82.5113,0.002561
143.308,82.5113,0.002684
143.419,82.5113,0.002684
143.528,82.5113,0.002759
143.636,82.5113,0.002759
143.747,82.5113,0.002759
143.854,82.5113,0.002882
143.964,82.5113,0.002882
144.075,82.5113,0.002910
144.184,82.5113,0.002910
144.294,82.5113,0.002834
144.406,82.5113,0.002834
144.511,82.5113,0.002863
144.621,82.5113,0.002863
144.731,82.5113,0.002863
144.842,82.5113,0.002957
144.953,82.5113,0.002957
145.063,82.5113,0.002957
145.171,82.5113,0.002957
145.281,82.5113,0.002938
145.391,82.5113,0.002938
145.500,82.5113,0.002938
145.606,82.5113,0.002938
145.717,82.5113,0.002938
145.825,82.5113,0.002929
145.936,82.5113,0.002929
146.045,82.5113,0.002985
146.155,82.5113,0.002985
146.265,82.5113,0.003004
146.374,82.5113,0.003004
146.482,82.5113,0.003004
146.591,82.5113,0.002966
146.700,82.5113,0.002966
146.808,82.5113,0.003013
146.918,82.5113,0.003013
147.027,82.5113,0.003060
147.137,82.5113,0.003060
147.245,82.5113,0.003060
147.355,82.5073,0.003079
147.463,82.4948,0.003079
147.572,82.4740,0.003277
147.680,82.4524,0.003277
147.790,82.4306,0.003795
147.898,82.4089,0.003795
148.008,82.3869,0.004200
148.118,82.3647,0.004200
148.228,82.3429,0.004200
148.338,82.3208,0.004322
148.447,82.2990,0.004322
148.556,82.2773,0.004407
148.663,82.2558,0.004407
148.772,82.2340,0.004520
148.882,82.2119,0.004520
148.989,82.1905,0.004520
149.099,82.1686,0.004624
149.208,82.1466,0.004624
149.319,82.1246,0.004699
149.427,82.1030,0.004699
149.537,82.0811,0.004803
149.647,82.0590,0.004803
149.756,82.0373,0.004803
149.864,82.0157,0.004925
149.973,81.9939,0.004925
150.081,81.9722,0.005038
150.191,81.9500,0.005038
150.300,81.9284,0.005113
150.409,81.9066,0.005113
150.518,81.8847,0.005198
150.628,81.8628,0.005198
150.738,81.8410,0.005198
150.846,81.8193,0.005302
150.953,81.7978,0.005302
151.059,81.7766,0.005396
151.169,81.7544,0.005396
151.279,81.7327,0.005481
151.389,81.7107,0.005481
151.497,81.6888,0.005481
151.607,81.6672,0.005490
151.715,81.6454,0.005490
151.824,81.6238,0.005565
151.933,81.6017,0.005565
152.042,81.5800,0.005678
152.151,81.5582,0.005678
152.259,81.5365,0.005773
152.370,81.5145,0.005773
152.478,81.4928,0.005773
152.586,81.4712,0.005848
152.696,81.4493,0.005848
152.806,81.4272,0.005942
152.915,81.4054,0.005942
153.025,81.3836,0.006064
153.134,81.3616,0.006064
153.243,81.3397,0.006102
153.352,81.3181,0.006102
153.461,81.2962,0.006102
153.569,81.2745,0.006168
153.677,81.2531,0.006168
153.787,81.2310,0.006215
153.896,81.2092,0.006215
154.005,81.1874,0.006290
154.115,81.1654,0.006290
154.222,81.1441,0.006290
154.332,81.1221,0.006375
154.441,81.1003,0.006375
154.550,81.0785,0.006375
154.658,81.0569,0.006441
154.767,81.0349,0.006564
154.877,81.0131,0.006564
154.986,80.9910,0.006564
155.096,80.9693,0.006526
155.205,80.9472,0.006526
155.315,80.9254,0.006526
155.425,80.9036,0.006526
155.534,80.8816,0.006648
155.642,80.8601,0.006648
155.752,80.8381,0.006695
155.862,80.8162,0.006695
155.970,80.7946,0.006695
156.080,80.7725,0.006714
156.188,80.7510,0.006714
156.298,80.7290,0.006761
156.407,80.7069,0.006761
156.516,80.6853,0.006827
156.626,80.6632,0.006827
156.734,80.6415,0.006827
156.843,80.6199,0.006884
156.953,80.5979,0.006884
157.062,80.5760,0.006940
157.172,80.5541,0.006940
157.281,80.5321,0.006931
157.388,80.5109,0.006931
157.496,80.4892,0.006931
157.605,80.4674,0.006931
157.715,80.4456,0.006931
157.825,80.4234,0.006968
157.935,80.4015,0.006968
158.042,80.3800,0.006987
158.151,80.3581,0.006987
158.261,80.3364,0.007063
158.367,80.3151,0.007063
158.477,80.2930,0.007063
158.587,80.2711,0.007072
158.697,80.2491,0.007072
158.805,80.2273,0.007044
158.916,80.2052,0.007044
159.026,80.1834,0.007063
159.135,80.1614,0.007063
159.246,80.1395,0.007025
159.355,80.1172,0.007025
159.465,80.0956,0.007025
159.574,80.0736,0.007081
159.683,80.0519,0.007081
159.792,80.0301,0.007138
159.901,80.0084,0.007138
160.010,79.9864,0.007100
160.120,79.9645,0.007100
160.229,79.9427,0.007100
160.337,79.9211,0.007034
160.446,79.8994,0.007034
160.555,79.8774,0.007044
160.665,79.8553,0.007044
160.774,79.8338,0.007081
160.884,79.8118,0.007081
160.994,79.7899,0.007081
161.102,79.7682,0.007006
161.210,79.7465,0.007006
161.320,79.7245,0.006950
161.430,79.7025,0.006950
161.539,79.6807,0.006978
161.648,79.6588,0.006978
161.757,79.6372,0.006921
161.867,79.6150,0.006921
161.975,79.5937,0.006921
162.085,79.5716,0.006846
162.194,79.5497,0.006846
162.302,79.5280,0.006808
162.411,79.5061,0.006808
162.522,79.4844,0.006808
162.632,79.4684,0.006808
162.740,79.4616,0.006808
162.848,79.4613,0.006620
162.958,79.4613,0.006620
163.067,79.4613,0.006479
163.178,79.4613,0.006479
163.287,79.4613,0.006479
163.398,79.4614,0.006469
163.508,79.4679,0.006432
163.618,79.4834,0.006432
163.728,79.5052,0.006432
163.838,79.5273,0.006300
163.946,79.5489,0.006300
164.055,79.5707,0.006253
164.164,79.5925,0.006253
164.274,79.6145,0.006290
164.383,79.6362,0.006290
164.491,79.6579,0.006290
164.600,79.6797,0.006253
164.709,79.7014,0.006253
164.819,79.7234,0.006281
164.929,79.7457,0.006281
165.038,79.7673,0.006300
165.146,79.7890,0.006300
165.256,79.8108,0.006309
165.364,79.8328,0.006309
165.473,79.8542,0.006309
165.583,79.8762,0.006309
165.693,79.8984,0.006309
165.801,79.9198,0.006281
165.911,79.9420,0.006281
166.020,79.9637,0.006281
166.127,79.9852,0.006328
166.238,80.0073,0.006328
166.348,80.0295,0.006413
166.456,80.0511,0.006413
166.565,80.0726,0.006385
166.674,80.0945,0.006385
166.782,80.1162,0.006356
166.893,80.1385,0.006356
167.000,80.1597,0.006385
167.111,80.1818,0.006385
167.219,80.2036,0.006385
167.329,80.2257,0.006385
167.438,80.2474,0.006385
167.547,80.2691,0.006347
167.656,80.2909,0.006347
167.766,80.3129,0.006309
167.874,80.3344,0.006309
167.982,80.3561,0.006309
168.091,80.3780,0.006262
168.199,80.3994,0.006262
168.308,80.4211,0.006196
168.417,80.4430,0.006196
168.526,80.4649,0.006130
168.636,80.4870,0.006130
168.744,80.5085,0.006130
168.853,80.5304,0.006112
168.961,80.5519,0.006112
169.071,80.5739,0.006055
169.179,80.5956,0.006055
169.289,80.6175,0.005970
169.398,80.6394,0.005970
169.508,80.6611,0.005961
169.618,80.6833,0.005961
169.727,80.7052,0.005961
169.835,80.7267,0.005876
169.945,80.7488,0.005876
170.053,80.7703,0.005876
170.161,80.7920,0.005867
170.270,80.8137,0.005848
170.380,80.8357,0.005848
170.490,80.8576,0.005848
170.600,80.8797,0.005716
170.710,80.9016,0.005716
170.819,80.9234,0.005622
170.928,80.9453,0.005622
171.036,80.9670,0.005528
171.145,80.9887,0.005528
171.254,81.0105,0.005462
171.363,81.0322,0.005462
171.471,81.0539,0.005462
171.581,81.0759,0.005358
171.691,81.0978,0.005358
171.800,81.1196,0.005236
171.909,81.1413,0.005236
172.017,81.1633,0.005208
172.128,81.1851,0.005208
172.236,81.2068,0.005208
172.345,81.2287,0.005142
172.454,81.2507,0.005142
172.563,81.2722,0.004972
172.672,81.2940,0.004972
172.781,81.3157,0.004972
172.891,81.3377,0.004831
172.999,81.3594,0.004831
173.107,81.3811,0.004737
173.217,81.4029,0.004737
173.325,81.4247,0.004624
173.434,81.4467,0.004624
173.545,81.4686,0.004539
173.654,81.4905,0.004539
173.763,81.5123,0.004398
173.873,81.5341,0.004398
173.981,81.5560,0.004398
174.091,81.5778,0.004275
174.200,81.5996,0.004275
174.310,81.6217,0.004219
174.418,81.6433,0.004219
174.527,81.6652,0.004049
174.634,81.6865,0.004049
174.743,81.7083,0.003908
174.851,81.7298,0.003908
174.959,81.7514,0.003908
175.070,81.7736,0.003814
175.177,81.7951,0.003814
175.287,81.8170,0.003748
175.396,81.8388,0.003748
175.505,81.8607,0.003682
175.615,81.8828,0.003682
175.725,81.9046,0.003682
175.835,81.9267,0.003512
175.945,81.9487,0.003512
176.055,81.9707,0.003399
176.165,81.9925,0.003399
176.274,82.0143,0.003286
176.382,82.0362,0.003286
176.492,82.0579,0.003286
176.601,82.0798,0.003155
176.711,82.1018,0.003155
176.821,82.1239,0.002995
176.932,82.1459,0.002995
177.041,82.1678,0.002995
177.150,82.1896,0.002825
177.258,82.2110,0.002712
177.365,82.2326,0.002712
177.474,82.2545,0.002712
177.585,82.2765,0.002618
177.694,82.2985,0.002618
177.803,82.3202,0.002552
177.911,82.3418,0.002552
178.022,82.3641,0.002411
178.131,82.3860,0.002411
178.240,82.4076,0.002411
178.349,82.4293,0.002194
178.458,82.4487,0.002194
178.567,82.4592,0.002053
178.677,82.4613,0.002053
178.786,82.4613,0.002307
178.895,82.4613,0.002307
179.002,82.4613,0.002740
179.111,82.4613,0.002740
179.221,82.4613,0.002740
179.331,82.4613,0.002900
179.443,82.4613,0.002900
179.553,82.4613,0.002900
179.663,82.4613,0.002900
179.771,82.4613,0.002919
179.879,82.4613,0.002919
179.989,82.4613,0.002919
180.098,82.4613,0.002929
180.208,82.4613,0.002929
180.317,82.4613,0.002947
180.426,82.4613,0.002947
180.536,82.4613,0.003013
180.646,82.4613,0.003013
180.756,82.4613,0.003013
180.866,82.4613,0.003023
180.977,82.4613,0.003023
181.087,82.4613,0.002966
181.197,82.4613,0.002966
181.306,82.4613,0.002957
181.417,82.4613,0.002957
181.527,82.4613,0.002995
181.637,82.4613,0.002995
181.748,82.4613,0.003032
181.857,82.4613,0.003032
181.967,82.4613,0.003032
182.077,82.4613,0.003070
182.187,82.4613,0.003070
182.297,82.4613,0.003051
182.408,82.4613,0.003051
182.519,82.4613,0.003060
182.626,82.4613,0.003060
182.737,82.4613,0.003060
182.846,82.4613,0.003098
182.956,82.4613,0.003098
183.066,82.4613,0.003108
183.178,82.4613,0.003108
183.287,82.4613,0.003108
183.396,82.4581,0.003108
183.506,82.4458,0.003221
183.616,82.4254,0.003221
183.725,82.4035,0.003221
183.834,82.3819,0.003701
183.942,82.3601,0.003701
184.052,82.3382,0.004200
184.163,82.3160,0.004200
184.271,82.2943,0.004313
184.380,82.2726,0.004313
184.488,82.2509,0.004313
184.597,82.2293,0.004379
184.706,82.2072,0.004379
184.815,82.1856,0.004520
184.924,82.1639,0.004520
185.033,82.1421,0.004624
185.142,82.1201,0.004624
185.254,82.0978,0.004765
185.363,82.0761,0.004765
185.473,82.0540,0.004765
185.580,82.0326,0.004878
185.688,82.0111,0.004878
185.797,81.9892,0.004934
185.906,81.9673,0.004934
186.017,81.9454,0.005047
186.126,81.9233,0.005047
186.234,81.9017,0.005047
186.343,81.8798,0.005113
186.452,81.8582,0.005113
186.561,81.8364,0.005170
186.670,81.8145,0.005170
186.779,81.7927,0.005283
186.889,81.7709,0.005283
186.999,81.7489,0.005339
187.109,81.7269,0.005339
187.219,81.7048,0.005339
187.328,81.6831,0.005443
187.436,81.6615,0.005443
187.546,81.6394,0.005575
187.656,81.6175,0.005575
187.766,81.5955,0.005641
187.874,81.5736,0.005641
187.983,81.5521,0.005641
188.091,81.5304,0.005773
188.201,81.5085,0.005773
188.309,81.4867,0.005867
188.419,81.4647,0.005867
188.528,81.4431,0.005914
188.637,81.4213,0.005914
188.745,81.3997,0.005989
188.855,81.3776,0.005989
188.964,81.3558,0.005989
189.073,81.3341,0.006064
189.183,81.3120,0.006064
189.293,81.2899,0.006140
189.400,81.2686,0.006140
189.509,81.2468,0.006215
189.619,81.2249,0.006215
189.727,81.2032,0.006215
189.837,81.1812,0.006253
189.947,81.1593,0.006253
190.057,81.1372,0.006262
190.166,81.1154,0.006262
190.275,81.0937,0.006338
190.384,81.0718,0.006338
190.494,81.0499,0.006338
190.604,81.0277,0.006451
190.714,81.0057,0.006451
190.823,80.9838,0.006526
190.933,80.9619,0.006526
191.043,80.9401,0.006611
191.152,80.9182,0.006611
191.260,80.8968,0.006639
191.370,80.8746,0.006639
191.479,80.8529,0.006639
191.588,80.8312,0.006667
191.696,80.8095,0.006667
191.807,80.7870,0.006724
191.916,80.7656,0.006724
192.025,80.7436,0.006761
192.134,80.7219,0.006761
192.242,80.7003,0.006761
192.351,80.6785,0.006808
192.459,80.6568,0.006808
192.568,80.6350,0.006855
192.678,80.6130,0.006855
192.788,80.5910,0.006921
192.896,80.5693,0.006921
193.006,80.5474,0.006959
193.117,80.5252,0.006959
193.226,80.5034,0.006959
193.336,80.4814,0.007025
193.442,80.4601,0.007025
193.552,80.4381,0.007006
193.661,80.4164,0.007006
193.769,80.3950,0.006987
193.878,80.3730,0.006987
193.985,80.3516,0.006987
194.095,80.3296,0.007006
194.204,80.3078,0.007006
194.313,80.2861,0.006987
194.423,80.2640,0.006987
194.533,80.2420,0.007016
194.640,80.2206,0.007016
194.750,80.1986,0.007034
194.859,80.1769,0.007034
194.967,80.1552,0.007034
195.078,80.1330,0.007053
195.188,80.1111,0.007053
195.296,80.0895,0.007063
195.405,80.0675,0.007063
195.514,80.0458,0.007053
195.623,80.0241,0.007053
195.731,80.0024,0.007053
195.840,79.9805,0.007044
195.951,79.9585,0.007044
196.059,79.9370,0.007072
196.168,79.9151,0.007072
196.276,79.8934,0.007081
196.386,79.8713,0.007081
196.496,79.8495,0.007081
196.606,79.8274,0.007034
196.715,79.8055,0.007034
196.823,79.7842,0.007006
196.930,79.7626,0.007006
197.038,79.7410,0.006968
197.147,79.7193,0.006968
197.256,79.6973,0.006968
197.365,79.6756,0.006921
197.475,79.6537,0.006921
197.585,79.6315,0.006865
197.696,79.6095,0.006865
197.805,79.5878,0.006855
197.912,79.5664,0.006855
198.020,79.5448,0.006884
198.129,79.5228,0.006884
198.239,79.5008,0.006837
198.348,79.4791,0.006837
198.457,79.4572,0.006837
198.567,79.4354,0.006771
198.675,79.4192,0.006771
198.783,79.4118,0.006601
198.893,79.4113,0.006601
199.001,79.4139,0.006432
199.112,79.4255,0.006432
199.223,79.4457,0.006432
199.332,79.4675,0.006281
199.441,79.4893,0.006281
199.549,79.5112,0.006225
199.658,79.5328,0.006225
199.766,79.5543,0.006300
199.877,79.5764,0.006300
199.984,79.5979,0.006300
200.093,79.6199,0.006309
200.202,79.6415,0.006309
200.313,79.6637,0.006319
200.422,79.6856,0.006319
200.531,79.7074,0.006290
200.640,79.7291,0.006290
200.749,79.7510,0.006225
200.857,79.7726,0.006225
200.965,79.7941,0.006225
201.075,79.8163,0.006272
201.184,79.8379,0.006272
201.294,79.8599,0.006309
201.403,79.8818,0.006309
201.513,79.9038,0.006309
201.623,79.9257,0.006309
201.731,79.9474,0.006309
201.840,79.9692,0.006328
201.948,79.9908,0.006328
202.059,80.0131,0.006328
202.169,80.0349,0.006328
202.277,80.0565,0.006356
202.386,80.0782,0.006356
202.495,80.1000,0.006394
202.602,80.1216,0.006394
202.712,80.1434,0.006394
202.821,80.1654,0.006403
202.929,80.1870,0.006403
203.039,80.2088,0.006347
203.148,80.2306,0.006347
203.256,80.2522,0.006309
203.366,80.2742,0.006309
203.476,80.2964,0.006309
203.585,80.3182,0.006290
203.696,80.3403,0.006290
203.805,80.3621,0.006262
203.914,80.3839,0.006262
204.024,80.4059,0.006253
204.131,80.4275,0.006253
204.240,80.4490,0.006253
204.348,80.4707,0.006215
204.458,80.4927,0.006215
204.566,80.5143,0.006159
204.674,80.5361,0.006159
204.781,80.5574,0.006121
204.889,80.5793,0.006121
204.999,80.6008,0.006121
205.108,80.6227,0.006055
205.218,80.6449,0.006055
205.326,80.6663,0.005999
205.436,80.6883,0.005999
205.546,80.7102,0.005980
205.653,80.7316,0.005980
205.763,80.7538,0.005923
205.874,80.7758,0.005923
205.980,80.7973,0.005923
206.090,80.8190,0.005810
206.200,80.8410,0.005810
206.310,80.8630,0.005716
206.416,80.8842,0.005716
206.525,80.9061,0.005716
206.634,80.9279,0.005641
206.743,80.9497,0.005641
206.852,80.9717,0.005537
206.960,80.9931,0.005537
207.070,81.0151,0.005443
207.180,81.0370,0.005443
207.288,81.0587,0.005358
207.397,81.0804,0.005358
207.506,81.1023,0.005264
207.615,81.1240,0.005264
207.724,81.1459,0.005264
207.833,81.1676,0.005170
207.942,81.1893,0.005170
208.051,81.2113,0.005104
208.159,81.2327,0.005104
208.269,81.2548,0.005066
208.376,81.2764,0.005066
208.485,81.2980,0.005066
208.595,81.3202,0.004944
208.704,81.3419,0.004944
208.813,81.3637,0.004812
208.924,81.3860,0.004812
209.031,81.4072,0.004699
209.141,81.4293,0.004699
209.250,81.4510,0.004548
209.359,81.4730,0.004548
209.467,81.4947,0.004548
209.577,81.5165,0.004454
209.685,81.5381,0.004454
209.795,81.5600,0.004369
209.904,81.5819,0.004369
210.013,81.6037,0.004369
210.122,81.6255,0.004228
210.229,81.6469,0.004228
210.340,81.6689,0.004049
210.450,81.6911,0.004049
210.558,81.7126,0.003899
210.666,81.7344,0.003899
210.775,81.7560,0.003851
210.883,81.7777,0.003851
210.990,81.7990,0.003851
211.099,81.8209,0.003701
211.209,81.8428,0.003701
211.319,81.8648,0.003541
211.429,81.8872,0.003541
211.537,81.9084,0.003512
211.645,81.9303,0.003512
211.753,81.9516,0.003512
211.863,81.9737,0.003390
211.971,81.9952,0.003390
212.081,82.0172,0.003305
212.190,82.0390,0.003305
212.299,82.0610,0.003173
212.409,82.0831,0.003173
212.520,82.1050,0.003032
212.629,82.1268,0.003032
212.740,82.1490,0.003032
212.850,82.1710,0.002938
212.960,82.1929,0.002938
213.068,82.2146,0.002769
213.178,82.2367,0.002769
213.289,82.2589,0.002618
213.399,82.2810,0.002618
213.509,82.3029,0.002411
213.619,82.3248,0.002411
213.728,82.3466,0.002411
213.837,82.3684,0.002326
213.945,82.3898,0.002326
214.053,82.4049,0.002222
214.161,82.4111,0.002222
214.270,82.4113,0.002430
214.380,82.4113,0.002430
214.488,82.4113,0.002430
