Elapsed Time (s),Position (mm),Force (N)
-0.013,73.3003,-0.091989
0.017,73.3003,-0.091989
0.048,73.3003,-0.091989
0.079,73.3003,-0.091989
0.110,73.3003,-0.084546
0.141,73.3003,-0.084546
0.173,73.3003,-0.084546
0.204,73.3003,-0.084546
0.235,73.3003,-0.084546
0.267,73.3003,-0.084546
0.298,73.3003,-0.084546
0.329,73.3003,-0.084546
0.360,73.3003,-0.084546
0.391,73.3003,-0.079935
0.422,73.3003,-0.079935
0.454,73.3003,-0.079935
0.479,73.3003,-0.079935
0.517,73.3003,-0.079935
0.547,73.3003,-0.079935
0.578,73.3003,-0.079935
0.609,73.3003,-0.076538
0.640,73.3003,-0.076538
0.672,73.3003,-0.076538
0.702,73.3003,-0.076538
0.734,73.3003,-0.076538
0.765,73.3003,-0.076538
0.795,73.3003,-0.076538
0.827,73.3003,-0.076538
0.857,73.3003,-0.073838
0.888,73.3003,-0.073838
0.919,73.3003,-0.073838
0.950,73.3003,-0.073838
0.981,73.3003,-0.073838
1.012,73.3003,-0.073838
1.043,73.3003,-0.073838
1.074,73.3003,-0.073838
1.105,73.3003,-0.071664
1.136,73.3003,-0.071664
1.166,73.3003,-0.071664
1.199,73.3003,-0.071664
1.230,73.3003,-0.071664
1.262,73.3003,-0.071664
1.294,73.3003,-0.071664
1.324,73.3003,-0.071664
1.356,73.3003,-0.069745
1.387,73.3003,-0.069745
1.418,73.3003,-0.069745
1.449,73.3003,-0.069745
1.480,73.3003,-0.069745
1.511,73.3003,-0.069745
1.543,73.3003,-0.069745
1.574,73.3003,-0.069745
1.605,73.3003,-0.069745
1.635,73.3003,-0.068098
1.666,73.3003,-0.068098
1.696,73.3003,-0.068098
1.727,73.3003,-0.068098
1.758,73.3003,-0.068098
1.789,73.3003,-0.068098
1.821,73.3003,-0.068098
1.851,73.3003,-0.066715
1.883,73.3003,-0.066715
1.913,73.3003,-0.066715
1.943,73.3003,-0.066715
1.974,73.3003,-0.066715
2.005,73.3003,-0.066715
2.036,73.3003,-0.066715
2.067,73.3003,-0.066715
2.099,73.3003,-0.065369
2.129,73.3003,-0.065369
2.161,73.3003,-0.065369
2.192,73.3003,-0.065369
2.223,73.3003,-0.065369
2.254,73.3003,-0.065369
2.285,73.3003,-0.065369
2.316,73.3003,-0.065369
2.347,73.3003,-0.064155
2.381,73.3003,-0.064155
2.410,73.3003,-0.064155
2.441,73.3003,-0.064155
2.472,73.3003,-0.064155
2.504,73.3003,-0.064155
2.535,73.3003,-0.064155
2.567,73.3003,-0.064155
2.598,73.3003,-0.064155
2.628,73.3003,-0.063111
2.659,73.3003,-0.063111
2.690,73.3003,-0.063111
2.720,73.3003,-0.063111
2.751,73.3003,-0.063111
2.782,73.3003,-0.063111
2.813,73.3003,-0.063111
2.844,73.3003,-0.062170
2.876,73.3003,-0.062170
2.907,73.3003,-0.062170
2.937,73.3003,-0.062170
2.968,73.3003,-0.062170
2.999,73.3003,-0.062170
3.030,73.3003,-0.062170
3.062,73.3003,-0.062170
3.092,73.3003,-0.062170
3.123,73.3003,-0.061342
3.154,73.3003,-0.061342
3.186,73.3003,-0.061342
3.216,73.3003,-0.061342
3.249,73.3003,-0.061342
3.281,73.3003,-0.061342
3.309,73.3003,-0.061342
3.340,73.3003,-0.060542
3.371,73.3003,-0.060542
3.404,73.3003,-0.060542
3.433,73.3003,-0.060542
3.467,73.3003,-0.060542
3.495,73.3003,-0.060542
3.526,73.3003,-0.060542
3.557,73.3003,-0.060542
3.588,73.3003,-0.060542
3.619,73.3003,-0.060542
3.649,73.3003,-0.059789
3.680,73.3003,-0.059789
3.711,73.3003,-0.059789
3.742,73.3003,-0.059789
3.773,73.3003,-0.059789
3.804,73.3003,-0.059789
3.836,73.3003,-0.059789
3.867,73.3003,-0.059140
3.899,73.3003,-0.059140
3.929,73.3003,-0.059140
3.960,73.3003,-0.059140
3.991,73.3003,-0.059140
4.022,73.3003,-0.059140
4.054,73.3003,-0.059140
4.085,73.3003,-0.059140
4.117,73.3003,-0.058566
4.147,73.3001,-0.058566
4.178,73.2992,-0.058566
4.210,73.2975,-0.058566
4.241,73.2951,-0.058566
4.273,73.2919,-0.058566
4.304,73.2881,-0.058566
4.336,73.2833,-0.058566
4.366,73.2781,-0.056571
4.398,73.2718,-0.056571
4.430,73.2647,-0.056571
4.462,73.2572,-0.056571
4.493,73.2485,-0.056571
4.524,73.2397,-0.056571
4.556,73.2295,-0.056571
4.586,73.2193,-0.056571
4.618,73.2079,-0.041224
4.649,73.1959,-0.041224
4.680,73.1833,-0.041224
4.711,73.1700,-0.041224
4.741,73.1565,-0.041224
4.772,73.1413,-0.041224
4.803,73.1260,-0.041224
4.834,73.1092,-0.041224
4.864,73.0928,-0.012797
4.896,73.0744,-0.012797
4.927,73.0560,-0.012797
4.962,73.0342,-0.012797
4.990,73.0166,-0.012797
5.021,72.9950,-0.012797
5.052,72.9745,-0.012797
5.086,72.9497,-0.012797
5.113,72.9297,0.015884
5.148,72.9023,0.015884
5.174,72.8826,0.015884
5.204,72.8582,0.015884
5.236,72.8326,0.015884
5.266,72.8061,0.015884
5.297,72.7792,0.015884
5.328,72.7512,0.015884
5.359,72.7228,0.042334
5.390,72.6934,0.042334
5.421,72.6633,0.042334
5.452,72.6327,0.042334
5.483,72.6012,0.042334
5.514,72.5688,0.042334
5.544,72.5360,0.042334
5.576,72.5027,0.042334
5.607,72.4683,0.067778
5.637,72.4338,0.067778
5.668,72.3982,0.067778
5.700,72.3606,0.067778
5.730,72.3238,0.067778
5.762,72.2843,0.067778
5.792,72.2466,0.067778
5.824,72.2063,0.067778
5.854,72.1676,0.067778
5.885,72.1252,0.094981
5.916,72.0842,0.094981
5.948,72.0404,0.094981
5.979,71.9973,0.094981
6.010,71.9544,0.094981
6.040,71.9108,0.094981
6.071,71.8656,0.094981
6.102,71.8186,0.113048
6.133,71.7727,0.113048
6.163,71.7262,0.113048
6.195,71.6755,0.113048
6.225,71.6295,0.113048
6.256,71.5795,0.113048
6.287,71.5292,0.113048
6.318,71.4790,0.113048
6.348,71.4275,0.113048
6.380,71.3750,0.113048
6.410,71.3222,0.104796
6.441,71.2680,0.104796
6.472,71.2145,0.104796
6.503,71.1583,0.104796
6.534,71.1015,0.104796
6.565,71.0442,0.104796
6.597,70.9847,0.104796
6.628,70.9273,0.052713
6.659,70.8674,0.052713
6.690,70.8067,0.052713
6.722,70.7462,0.052713
6.752,70.6863,0.052713
6.783,70.6282,0.052713
6.814,70.5700,0.052713
6.845,70.5120,0.052713
6.876,70.4541,0.010652
6.908,70.3972,0.010652
6.942,70.3343,0.010652
6.969,70.2879,0.010652
7.001,70.2314,0.010652
7.032,70.1803,0.010652
7.062,70.1272,0.010652
7.093,70.0765,0.007942
7.124,70.0244,0.007942
7.156,69.9727,0.007942
7.185,69.9262,0.007942
7.216,69.8762,0.007942
7.247,69.8292,0.007942
7.278,69.7803,0.007942
7.310,69.7338,0.007942
7.341,69.6863,0.007942
7.372,69.6418,0.006841
7.404,69.5951,0.006841
7.435,69.5522,0.006841
7.466,69.5079,0.006841
7.498,69.4647,0.006841
7.530,69.4214,0.006841
7.560,69.3823,0.006841
7.591,69.3419,0.006841
7.622,69.3022,0.006352
7.654,69.2630,0.006352
7.685,69.2241,0.006352
7.716,69.1872,0.006352
7.748,69.1501,0.006352
7.779,69.1140,0.006352
7.809,69.0794,0.006352
7.840,69.0460,0.006352
7.871,69.0115,0.006107
7.903,68.9786,0.006107
7.934,68.9464,0.006107
7.964,68.9150,0.006107
7.995,68.8841,0.006107
8.027,68.8537,0.006107
8.058,68.8248,0.006107
8.089,68.7958,0.006107
8.121,68.7675,0.005928
8.151,68.7402,0.005928
8.183,68.7141,0.005928
8.214,68.6883,0.005928
8.245,68.6632,0.005928
8.276,68.6389,0.005928
8.306,68.6158,0.005928
8.338,68.5929,0.005928
8.369,68.5707,0.005900
8.401,68.5496,0.005900
8.431,68.5288,0.005900
8.463,68.5089,0.005900
8.495,68.4891,0.005900
8.526,68.4710,0.005900
8.557,68.4531,0.005900
8.588,68.4363,0.005900
8.620,68.4196,0.005881
8.651,68.4045,0.005881
8.681,68.3904,0.005881
8.712,68.3767,0.005881
8.743,68.3635,0.005881
8.773,68.3513,0.005881
8.804,68.3395,0.005881
8.836,68.3281,0.005881
8.866,68.3181,0.005881
8.897,68.3086,0.005768
8.927,68.3000,0.005768
8.959,68.2916,0.005768
8.990,68.2845,0.005768
9.020,68.2776,0.005768
9.052,68.2718,0.005768
9.083,68.2665,0.005768
9.113,68.2621,0.005636
9.145,68.2583,0.005636
9.175,68.2553,0.005636
9.207,68.2528,0.005636
9.238,68.2513,0.005636
9.269,68.2505,0.005636
9.300,68.2503,0.005636
9.334,68.2503,0.005636
9.362,68.2503,0.005542
9.393,68.2503,0.005542
9.424,68.2503,0.005542
9.454,68.2508,0.005542
9.485,68.2520,0.005542
9.516,68.2539,0.005542
9.547,68.2564,0.005542
9.578,68.2598,0.005542
9.608,68.2637,0.005542
9.640,68.2686,0.005495
9.671,68.2742,0.005495
9.701,68.2802,0.005495
9.733,68.2874,0.005495
9.762,68.2947,0.005495
9.793,68.3031,0.005495
9.824,68.3122,0.005495
9.855,68.3222,0.005364
9.887,68.3328,0.005364
9.919,68.3446,0.005364
9.950,68.3568,0.005364
9.981,68.3697,0.005364
10.012,68.3832,0.005364
10.044,68.3976,0.005364
10.075,68.4131,0.005364
10.106,68.4287,0.005157
10.137,68.4451,0.005157
10.169,68.4630,0.005157
10.199,68.4804,0.005157
10.231,68.4991,0.005157
10.262,68.5182,0.005157
10.293,68.5387,0.005157
10.323,68.5584,0.005157
10.357,68.5822,0.005157
10.385,68.6024,0.005157
10.415,68.6254,0.004902
10.447,68.6493,0.004902
10.477,68.6738,0.004902
10.509,68.6988,0.004902
10.544,68.7283,0.004902
10.571,68.7513,0.004902
10.602,68.7787,0.004902
10.633,68.8073,0.004686
10.664,68.8356,0.004686
10.695,68.8653,0.004686
10.726,68.8959,0.004686
10.757,68.9270,0.004686
10.789,68.9599,0.004686
10.819,68.9910,0.004686
10.845,69.0182,0.004686
10.881,69.0576,0.004451
10.912,69.0933,0.004451
10.943,69.1279,0.004451
10.974,69.1645,0.004451
11.005,69.2004,0.004451
11.036,69.2381,0.004451
11.067,69.2769,0.004451
11.097,69.3151,0.004451
11.128,69.3548,0.004093
11.158,69.3933,0.004093
11.189,69.4345,0.004093
11.220,69.4762,0.004093
11.251,69.5191,0.004093
11.283,69.5631,0.004093
11.313,69.6069,0.004093
11.345,69.6526,0.004093
11.375,69.6963,0.003698
11.406,69.7435,0.003698
11.438,69.7916,0.003698
11.469,69.8392,0.003698
11.500,69.8870,0.003698
11.532,69.9376,0.003698
11.563,69.9878,0.003698
11.592,70.0373,0.003698
11.622,70.0853,0.003256
11.653,70.1389,0.003256
11.688,70.1964,0.003256
11.716,70.2451,0.003256
11.747,70.3009,0.003256
11.777,70.3533,0.003256
11.808,70.4095,0.003256
11.839,70.4654,0.003256
11.872,70.5257,0.002635
11.901,70.5798,0.002635
11.932,70.6399,0.002635
11.964,70.6991,0.002635
11.996,70.7616,0.002635
12.026,70.8191,0.002635
12.059,70.8834,0.002635
12.088,70.9376,0.002635
12.122,70.9994,0.001760
12.151,71.0541,0.001760
12.181,71.1093,0.001760
12.215,71.1692,0.001760
12.244,71.2201,0.001760
12.275,71.2754,0.001760
12.306,71.3286,0.001760
12.338,71.3821,0.001760
12.369,71.4324,0.000790
12.400,71.4846,0.000790
12.431,71.5345,0.000790
12.462,71.5852,0.000790
12.493,71.6330,0.000790
12.524,71.6816,0.000790
12.555,71.7276,0.000790
12.585,71.7748,0.000790
12.616,71.8195,-0.000546
12.647,71.8649,-0.000546
12.677,71.9090,-0.000546
12.708,71.9528,-0.000546
12.740,71.9971,-0.000546
12.771,72.0390,-0.000546
12.803,72.0813,-0.000546
12.834,72.1241,-0.000546
12.865,72.1627,-0.000546
12.896,72.2025,-0.003256
12.927,72.2409,-0.003256
12.958,72.2796,-0.003256
12.989,72.3160,-0.003256
13.020,72.3537,-0.003256
13.052,72.3889,-0.003256
13.083,72.4246,-0.003256
13.114,72.4591,-0.009381
13.145,72.4926,-0.009381
13.176,72.5253,-0.009381
13.207,72.5581,-0.009381
13.237,72.5874,-0.009381
13.268,72.6189,-0.009381
13.301,72.6496,-0.009381
13.331,72.6786,-0.009381
13.363,72.7082,-0.022386
13.393,72.7347,-0.022386
13.425,72.7621,-0.022386
13.456,72.7887,-0.022386
13.487,72.8139,-0.022386
13.518,72.8395,-0.022386
13.549,72.8631,-0.022386
13.580,72.8870,-0.022386
13.611,72.9093,-0.043096
13.643,72.9319,-0.043096
13.673,72.9522,-0.043096
13.703,72.9722,-0.043096
13.734,72.9921,-0.043096
13.766,73.0117,-0.043096
13.797,73.0297,-0.043096
13.828,73.0477,-0.043096
13.859,73.0643,-0.066611
13.890,73.0804,-0.066611
13.921,73.0954,-0.066611
13.951,73.1100,-0.066611
13.982,73.1240,-0.066611
14.013,73.1367,-0.066611
14.043,73.1494,-0.066611
14.074,73.1608,-0.066611
14.105,73.1720,-0.086635
14.136,73.1821,-0.086635
14.166,73.1917,-0.086635
14.197,73.2005,-0.086635
14.228,73.2087,-0.086635
14.259,73.2159,-0.086635
14.290,73.2227,-0.086635
14.320,73.2285,-0.086635
14.351,73.2337,-0.099554
14.386,73.2389,-0.099554
14.412,73.2419,-0.099554
14.443,73.2451,-0.099554
14.474,73.2475,-0.099554
14.506,73.2492,-0.099554
14.537,73.2501,-0.099554
14.568,73.2504,-0.099554
14.600,73.2504,-0.099554
14.631,73.2504,-0.099554
14.662,73.2504,-0.102368
14.694,73.2504,-0.102368
14.724,73.2504,-0.102368
14.755,73.2504,-0.102368
14.785,73.2504,-0.102368
14.815,73.2504,-0.102368
14.847,73.2504,-0.102368
14.878,73.2504,-0.095217
14.909,73.2504,-0.095217
14.940,73.2504,-0.095217
14.972,73.2504,-0.095217
15.003,73.2504,-0.095217
15.034,73.2504,-0.095217
15.065,73.2504,-0.095217
15.096,73.2504,-0.095217
15.127,73.2504,-0.086503
15.160,73.2504,-0.086503
15.189,73.2504,-0.086503
15.221,73.2504,-0.086503
15.252,73.2504,-0.086503
15.283,73.2504,-0.086503
15.313,73.2504,-0.086503
15.344,73.2504,-0.086503
15.375,73.2504,-0.081234
15.406,73.2504,-0.081234
15.438,73.2504,-0.081234
15.470,73.2504,-0.081234
15.500,73.2504,-0.081234
15.530,73.2504,-0.081234
15.562,73.2504,-0.081234
15.593,73.2504,-0.081234
15.623,73.2504,-0.077498
15.654,73.2504,-0.077498
15.685,73.2504,-0.077498
15.717,73.2504,-0.077498
15.747,73.2504,-0.077498
15.780,73.2504,-0.077498
15.809,73.2504,-0.077498
15.840,73.2504,-0.077498
15.871,73.2504,-0.074647
15.902,73.2504,-0.074647
15.934,73.2504,-0.074647
15.965,73.2504,-0.074647
15.996,73.2504,-0.074647
16.028,73.2504,-0.074647
16.060,73.2504,-0.074647
16.092,73.2504,-0.074647
16.123,73.2504,-0.072266
16.154,73.2504,-0.072266
16.185,73.2504,-0.072266
16.216,73.2504,-0.072266
16.247,73.2504,-0.072266
16.279,73.2504,-0.072266
16.309,73.2504,-0.072266
16.341,73.2504,-0.072266
16.372,73.2504,-0.070253
16.402,73.2504,-0.070253
16.433,73.2504,-0.070253
16.464,73.2504,-0.070253
16.495,73.2504,-0.070253
16.526,73.2504,-0.070253
16.557,73.2504,-0.070253
16.588,73.2504,-0.070253
16.618,73.2504,-0.068578
16.649,73.2504,-0.068578
16.680,73.2504,-0.068578
16.711,73.2504,-0.068578
16.742,73.2504,-0.068578
16.773,73.2504,-0.068578
16.804,73.2504,-0.068578
16.834,73.2504,-0.068578
16.865,73.2504,-0.067072
16.895,73.2504,-0.067072
16.926,73.2504,-0.067072
16.957,73.2504,-0.067072
16.988,73.2504,-0.067072
17.018,73.2504,-0.067072
17.050,73.2504,-0.067072
17.081,73.2504,-0.067072
17.112,73.2504,-0.065736
17.143,73.2504,-0.065736
17.174,73.2504,-0.065736
17.205,73.2504,-0.065736
17.235,73.2504,-0.065736
17.266,73.2504,-0.065736
17.297,73.2504,-0.065736
17.329,73.2504,-0.065736
17.360,73.2504,-0.065736
17.392,73.2504,-0.064597
17.423,73.2504,-0.064597
17.453,73.2504,-0.064597
17.485,73.2504,-0.064597
17.516,73.2504,-0.064597
17.548,73.2504,-0.064597
17.578,73.2504,-0.064597
17.609,73.2504,-0.064597
17.640,73.2504,-0.063572
17.672,73.2504,-0.063572
17.701,73.2504,-0.063572
17.733,73.2504,-0.063572
17.764,73.2504,-0.063572
17.796,73.2504,-0.063572
17.826,73.2504,-0.063572
17.857,73.2504,-0.063572
17.889,73.2504,-0.062556
17.920,73.2504,-0.062556
17.951,73.2504,-0.062556
17.982,73.2504,-0.062556
18.012,73.2504,-0.062556
18.043,73.2504,-0.062556
18.074,73.2504,-0.062556
18.106,73.2504,-0.062556
18.136,73.2504,-0.061633
18.167,73.2504,-0.061633
18.198,73.2504,-0.061633
18.229,73.2504,-0.061633
18.260,73.2504,-0.061633
18.291,73.2504,-0.061633
18.322,73.2504,-0.061633
18.353,73.2504,-0.061633
18.385,73.2504,-0.060805
18.416,73.2504,-0.060805
18.447,73.2504,-0.060805
18.478,73.2504,-0.060805
18.509,73.2504,-0.060805
18.539,73.2504,-0.060805
18.570,73.2504,-0.060805
18.601,73.2504,-0.060805
18.631,73.2504,-0.060015
18.663,73.2504,-0.060015
18.694,73.2504,-0.060015
18.725,73.2504,-0.060015
18.756,73.2504,-0.060015
18.787,73.2504,-0.060015
18.817,73.2504,-0.060015
18.848,73.2504,-0.060015
18.878,73.2504,-0.060015
18.909,73.2504,-0.059272
18.941,73.2504,-0.059272
18.974,73.2504,-0.059272
19.003,73.2504,-0.059272
19.035,73.2504,-0.059272
19.065,73.2504,-0.059272
19.096,73.2504,-0.059272
19.127,73.2504,-0.058669
19.158,73.2500,-0.058669
19.190,73.2490,-0.058669
19.227,73.2468,-0.058669
19.267,73.2432,-0.058669
19.299,73.2394,-0.058669
19.329,73.2352,-0.058669
19.359,73.2303,-0.058669
19.390,73.2246,-0.056778
19.422,73.2179,-0.056778
19.454,73.2104,-0.056778
19.484,73.2026,-0.056778
19.515,73.1938,-0.056778
19.546,73.1845,-0.056778
19.579,73.1736,-0.056778
19.608,73.1637,-0.041770
19.639,73.1518,-0.041770
19.670,73.1397,-0.041770
19.702,73.1260,-0.041770
19.733,73.1123,-0.041770
19.764,73.0977,-0.041770
19.795,73.0821,-0.041770
19.831,73.0637,-0.041770
19.856,73.0502,-0.041770
19.887,73.0326,-0.013578
19.918,73.0147,-0.013578
19.949,72.9961,-0.013578
19.981,72.9760,-0.013578
20.012,72.9549,-0.013578
20.043,72.9342,-0.013578
20.074,72.9124,-0.013578
20.105,72.8897,0.015197
20.137,72.8659,0.015197
20.168,72.8414,0.015197
20.200,72.8159,0.015197
20.231,72.7908,0.015197
20.262,72.7641,0.015197
20.293,72.7373,0.015197
20.324,72.7094,0.015197
20.355,72.6811,0.041873
20.387,72.6514,0.041873
20.417,72.6222,0.041873
20.448,72.5915,0.041873
20.478,72.5612,0.041873
20.509,72.5292,0.041873
20.540,72.4958,0.041873
20.571,72.4632,0.041873
20.602,72.4283,0.067599
20.633,72.3938,0.067599
20.664,72.3573,0.067599
20.697,72.3203,0.067599
20.728,72.2817,0.067599
20.759,72.2445,0.067599
20.791,72.2042,0.067599
20.821,72.1664,0.067599
20.852,72.1253,0.096600
20.883,72.0854,0.096600
20.914,72.0443,0.096600
20.945,72.0014,0.096600
20.976,71.9593,0.096600
21.007,71.9146,0.096600
21.038,71.8717,0.096600
21.069,71.8267,0.096600
21.099,71.7813,0.096600
21.130,71.7339,0.096600
21.162,71.6864,0.121319
21.194,71.6373,0.121319
21.224,71.5894,0.121319
21.255,71.5390,0.121319
21.286,71.4896,0.121319
21.318,71.4370,0.121319
21.348,71.3864,0.121319
21.379,71.3326,0.116454
21.411,71.2786,0.116454
21.441,71.2255,0.116454
21.473,71.1711,0.116454
21.503,71.1164,0.116454
21.534,71.0605,0.116454
21.564,71.0044,0.116454
21.596,70.9477,0.116454
21.626,70.8894,0.059046
21.657,70.8307,0.059046
21.688,70.7707,0.059046
21.719,70.7090,0.059046
21.750,70.6497,0.059046
21.781,70.5900,0.059046
21.812,70.5339,0.059046
21.843,70.4751,0.059046
21.873,70.4191,0.012035
21.905,70.3601,0.012035
21.937,70.3044,0.012035
21.968,70.2472,0.012035
22.000,70.1935,0.012035
22.031,70.1387,0.012035
22.061,70.0886,0.012035
22.091,70.0391,0.012035
22.123,69.9858,0.007979
22.154,69.9352,0.007979
22.186,69.8840,0.007979
22.216,69.8359,0.007979
22.247,69.7864,0.007979
22.279,69.7388,0.007979
22.309,69.6921,0.007979
22.341,69.6446,0.007979
22.371,69.6006,0.007979
22.402,69.5551,0.006784
22.433,69.5125,0.006784
22.464,69.4674,0.006784
22.496,69.4252,0.006784
22.527,69.3814,0.006784
22.559,69.3399,0.006784
22.591,69.2983,0.006784
22.621,69.2605,0.006784
22.652,69.2214,0.006333
22.684,69.1821,0.006333
22.714,69.1457,0.006333
22.745,69.1088,0.006333
22.778,69.0713,0.006333
22.809,69.0358,0.006333
22.839,69.0022,0.006333
22.871,68.9673,0.006135
22.902,68.9345,0.006135
22.932,68.9035,0.006135
22.963,68.8715,0.006135
22.994,68.8406,0.006135
23.026,68.8094,0.006135
23.057,68.7799,0.006135
23.088,68.7510,0.006135
23.119,68.7235,0.006135
23.150,68.6963,0.006135
23.181,68.6693,0.006003
23.212,68.6437,0.006003
23.243,68.6189,0.006003
23.274,68.5944,0.006003
23.306,68.5708,0.006003
23.336,68.5484,0.006003
23.366,68.5265,0.005919
23.398,68.5047,0.005919
23.429,68.4835,0.005919
23.460,68.4637,0.005919
23.493,68.4436,0.005919
23.522,68.4263,0.005919
23.552,68.4087,0.005919
23.583,68.3921,0.005919
23.614,68.3755,0.005919
23.645,68.3596,0.005815
23.678,68.3445,0.005815
23.707,68.3308,0.005815
23.738,68.3176,0.005815
23.770,68.3045,0.005815
23.801,68.2928,0.005815
23.832,68.2816,0.005815
23.862,68.2714,0.005815
23.893,68.2615,0.005749
23.925,68.2520,0.005749
23.955,68.2440,0.005749
23.986,68.2363,0.005749
24.017,68.2295,0.005749
24.048,68.2234,0.005749
24.079,68.2180,0.005749
24.110,68.2133,0.005665
24.143,68.2092,0.005665
24.172,68.2061,0.005665
24.205,68.2035,0.005665
24.235,68.2017,0.005665
24.265,68.2007,0.005665
24.296,68.2004,0.005665
24.327,68.2004,0.005665
24.358,68.2004,0.005665
24.392,68.2004,0.005514
24.420,68.2004,0.005514
24.451,68.2005,0.005514
24.482,68.2011,0.005514
24.512,68.2026,0.005514
24.544,68.2047,0.005514
24.575,68.2076,0.005514
24.606,68.2113,0.005514
24.638,68.2156,0.005420
24.669,68.2208,0.005420
24.700,68.2265,0.005420
24.730,68.2331,0.005420
24.762,68.2404,0.005420
24.792,68.2482,0.005420
24.823,68.2569,0.005420
24.854,68.2662,0.005364
24.884,68.2760,0.005364
24.915,68.2871,0.005364
24.946,68.2986,0.005364
24.978,68.3111,0.005364
25.011,68.3254,0.005364
25.040,68.3380,0.005364
25.070,68.3522,0.005364
25.102,68.3675,0.005147
25.133,68.3842,0.005147
25.163,68.4003,0.005147
25.194,68.4174,0.005147
25.225,68.4358,0.005147
25.257,68.4549,0.005147
25.288,68.4748,0.005147
25.319,68.4949,0.005147
25.350,68.5164,0.004902
25.381,68.5381,0.004902
25.413,68.5615,0.004902
25.443,68.5833,0.004902
25.474,68.6084,0.004902
25.505,68.6321,0.004902
25.536,68.6583,0.004902
25.567,68.6839,0.004902
25.598,68.7107,0.004752
25.629,68.7380,0.004752
25.660,68.7664,0.004752
25.691,68.7965,0.004752
25.722,68.8253,0.004752
25.754,68.8569,0.004752
25.784,68.8877,0.004752
25.815,68.9197,0.004752
25.846,68.9516,0.004752
25.877,68.9851,0.004488
25.907,69.0184,0.004488
25.939,69.0538,0.004488
25.969,69.0881,0.004488
26.000,69.1251,0.004488
26.030,69.1615,0.004488
26.061,69.1992,0.004488
26.092,69.2376,0.004103
26.124,69.2775,0.004103
26.155,69.3182,0.004103
26.187,69.3592,0.004103
26.218,69.4007,0.004103
26.249,69.4435,0.004103
26.280,69.4855,0.004103
26.310,69.5298,0.004103
26.342,69.5737,0.004103
26.372,69.6173,0.004103
26.403,69.6637,0.003679
26.433,69.7077,0.003679
26.464,69.7570,0.003679
26.495,69.8037,0.003679
26.526,69.8533,0.003679
26.558,69.9025,0.003679
26.588,69.9518,0.003679
26.619,70.0019,0.003190
26.649,70.0534,0.003190
26.680,70.1042,0.003190
26.712,70.1586,0.003190
26.742,70.2131,0.003190
26.773,70.2659,0.003190
26.804,70.3214,0.003190
26.837,70.3800,0.003190
26.866,70.4339,0.002588
26.897,70.4907,0.002588
26.927,70.5478,0.002588
26.958,70.6062,0.002588
26.989,70.6658,0.002588
27.021,70.7266,0.002588
27.051,70.7854,0.002588
27.081,70.8434,0.002588
27.113,70.9013,0.001816
27.144,70.9604,0.001816
27.176,71.0174,0.001816
27.206,71.0741,0.001816
27.238,71.1303,0.001816
27.270,71.1860,0.001816
27.300,71.2381,0.001816
27.331,71.2914,0.001816
27.361,71.3420,0.000885
27.393,71.3957,0.000885
27.423,71.4457,0.000885
27.454,71.4946,0.000885
27.486,71.5447,0.000885
27.517,71.5943,0.000885
27.548,71.6423,0.000885
27.579,71.6906,0.000885
27.610,71.7363,-0.000518
27.641,71.7827,-0.000518
27.672,71.8274,-0.000518
27.703,71.8706,-0.000518
27.733,71.9135,-0.000518
27.765,71.9570,-0.000518
27.796,72.0004,-0.000518
27.828,72.0427,-0.000518
27.859,72.0838,-0.003218
27.890,72.1232,-0.003218
27.921,72.1622,-0.003218
27.951,72.2006,-0.003218
27.987,72.2433,-0.003218
28.018,72.2805,-0.003218
28.044,72.3111,-0.003218
28.076,72.3473,-0.003218
28.106,72.3817,-0.009174
28.137,72.4160,-0.009174
28.168,72.4490,-0.009174
28.199,72.4824,-0.009174
28.230,72.5133,-0.009174
28.261,72.5447,-0.009174
28.292,72.5750,-0.009174
28.323,72.6054,-0.009174
28.354,72.6342,-0.021943
28.385,72.6630,-0.021943
28.416,72.6906,-0.021943
28.447,72.7173,-0.021943
28.478,72.7435,-0.021943
28.510,72.7698,-0.021943
28.541,72.7938,-0.021943
28.573,72.8186,-0.021943
28.602,72.8408,-0.042532
28.633,72.8633,-0.042532
28.665,72.8853,-0.042532
28.696,72.9067,-0.042532
28.727,72.9266,-0.042532
28.758,72.9461,-0.042532
28.789,72.9653,-0.042532
28.824,72.9859,-0.042532
28.852,73.0012,-0.066103
28.883,73.0181,-0.066103
28.915,73.0344,-0.066103
28.947,73.0502,-0.066103
28.978,73.0646,-0.066103
29.010,73.0786,-0.066103
29.041,73.0920,-0.066103
29.072,73.1039,-0.066103
29.102,73.1153,-0.086475
29.133,73.1257,-0.086475
29.165,73.1360,-0.086475
29.195,73.1452,-0.086475
29.228,73.1542,-0.086475
29.258,73.1619,-0.086475
29.289,73.1690,-0.086475
29.320,73.1754,-0.086475
29.351,73.1810,-0.086475
29.381,73.1859,-0.086475
29.412,73.1902,-0.099959
29.444,73.1937,-0.099959
29.475,73.1965,-0.099959
29.507,73.1985,-0.099959
29.537,73.1997,-0.099959
29.569,73.2004,-0.099959
29.599,73.2004,-0.099959
29.631,73.2004,-0.103497
29.664,73.2004,-0.103497
29.694,73.2004,-0.103497
29.723,73.2004,-0.103497
29.758,73.2004,-0.103497
29.788,73.2004,-0.103497
29.820,73.2004,-0.103497
29.851,73.2004,-0.103497
29.883,73.2004,-0.103497
29.914,73.2004,-0.096684
29.944,73.2004,-0.096684
29.976,73.2004,-0.096684
30.006,73.2004,-0.096684
30.037,73.2004,-0.096684
30.068,73.2004,-0.096684
30.099,73.2004,-0.096684
30.130,73.2004,-0.096684
30.162,73.2004,-0.087698
30.192,73.2004,-0.087698
30.223,73.2004,-0.087698
30.255,73.2004,-0.087698
30.284,73.2004,-0.087698
30.316,73.2004,-0.087698
30.347,73.2004,-0.087698
30.378,73.2004,-0.082118
30.410,73.2004,-0.082118
30.441,73.2004,-0.082118
30.472,73.2004,-0.082118
30.504,73.2004,-0.082118
30.534,73.2004,-0.082118
30.565,73.2004,-0.082118
30.597,73.2004,-0.082118
30.628,73.2004,-0.082118
30.659,73.2004,-0.078270
30.690,73.2004,-0.078270
30.722,73.2004,-0.078270
30.752,73.2004,-0.078270
30.783,73.2004,-0.078270
30.813,73.2004,-0.078270
30.844,73.2004,-0.078270
30.875,73.2004,-0.075381
30.905,73.2004,-0.075381
30.936,73.2004,-0.075381
30.967,73.2004,-0.075381
30.998,73.2004,-0.075381
31.029,73.2004,-0.075381
31.060,73.2004,-0.075381
31.090,73.2004,-0.075381
31.121,73.2004,-0.072981
31.152,73.2004,-0.072981
31.183,73.2004,-0.072981
31.213,73.2004,-0.072981
31.244,73.2004,-0.072981
31.276,73.2004,-0.072981
31.307,73.2004,-0.072981
31.337,73.2004,-0.072981
31.369,73.2004,-0.070911
31.400,73.2004,-0.070911
31.431,73.2004,-0.070911
31.461,73.2004,-0.070911
31.492,73.2004,-0.070911
31.522,73.2004,-0.070911
31.553,73.2004,-0.070911
31.584,73.2004,-0.070911
31.615,73.2004,-0.069133
31.646,73.2004,-0.069133
31.677,73.2004,-0.069133
31.707,73.2004,-0.069133
31.738,73.2004,-0.069133
31.769,73.2004,-0.069133
31.799,73.2004,-0.069133
31.831,73.2004,-0.069133
31.862,73.2004,-0.067609
31.893,73.2004,-0.067609
31.924,73.2004,-0.067609
31.955,73.2004,-0.067609
31.986,73.2004,-0.067609
32.016,73.2004,-0.067609
32.048,73.2004,-0.067609
32.079,73.2004,-0.067609
32.110,73.2004,-0.066244
32.140,73.2004,-0.066244
32.170,73.2004,-0.066244
32.201,73.2004,-0.066244
32.233,73.2004,-0.066244
32.264,73.2004,-0.066244
32.296,73.2004,-0.066244
32.327,73.2004,-0.066244
32.356,73.2004,-0.064964
32.389,73.2004,-0.064964
32.420,73.2004,-0.064964
32.452,73.2004,-0.064964
32.483,73.2004,-0.064964
32.515,73.2004,-0.064964
32.547,73.2004,-0.064964
32.577,73.2004,-0.064964
32.609,73.2004,-0.063864
32.639,73.2004,-0.063864
32.670,73.2004,-0.063864
32.701,73.2004,-0.063864
32.731,73.2004,-0.063864
32.762,73.2004,-0.063864
32.792,73.2004,-0.063864
32.822,73.2004,-0.063864
32.854,73.2004,-0.063864
32.884,73.2004,-0.062951
32.915,73.2004,-0.062951
32.946,73.2004,-0.062951
32.977,73.2004,-0.062951
33.008,73.2004,-0.062951
33.039,73.2004,-0.062951
33.070,73.2004,-0.062951
33.101,73.2004,-0.062951
33.133,73.2004,-0.062066
33.163,73.2004,-0.062066
33.195,73.2004,-0.062066
33.225,73.2004,-0.062066
33.256,73.2004,-0.062066
33.288,73.2004,-0.062066
33.318,73.2004,-0.062066
33.349,73.2004,-0.062066
33.381,73.2004,-0.061238
33.412,73.2004,-0.061238
33.444,73.2004,-0.061238
33.475,73.2004,-0.061238
33.507,73.2004,-0.061238
33.538,73.2004,-0.061238
33.569,73.2004,-0.061238
33.600,73.2004,-0.061238
33.631,73.2004,-0.060485
33.662,73.2004,-0.060485
33.693,73.2004,-0.060485
33.724,73.2004,-0.060485
33.756,73.2004,-0.060485
33.787,73.2004,-0.060485
33.818,73.2004,-0.060485
33.849,73.2004,-0.060485
33.880,73.2004,-0.059723
33.911,73.2004,-0.059723
33.942,73.2004,-0.059723
33.973,73.2004,-0.059723
34.004,73.2004,-0.059723
34.035,73.2004,-0.059723
34.066,73.2004,-0.059723
34.097,73.2004,-0.059723
34.128,73.2004,-0.059102
34.159,73.2004,-0.059102
34.191,73.2004,-0.059102
34.222,73.2004,-0.059102
34.252,73.2004,-0.059102
34.284,73.2002,-0.059102
34.315,73.1996,-0.059102
34.345,73.1981,-0.059102
34.376,73.1960,-0.059102
34.407,73.1931,-0.058538
34.439,73.1895,-0.058538
34.470,73.1851,-0.058538
34.501,73.1799,-0.058538
34.531,73.1743,-0.058538
34.563,73.1676,-0.058538
34.594,73.1603,-0.058538
34.625,73.1524,-0.051791
34.655,73.1439,-0.051791
34.686,73.1343,-0.051791
34.723,73.1220,-0.051791
34.763,73.1076,-0.051791
34.795,73.0956,-0.051791
34.825,73.0830,-0.051791
34.856,73.0698,-0.051791
34.887,73.0556,-0.030280
34.917,73.0412,-0.030280
34.948,73.0256,-0.030280
34.980,73.0089,-0.030280
35.011,72.9915,-0.030280
35.042,72.9737,-0.030280
35.073,72.9557,-0.030280
35.103,72.9366,-0.000725
35.135,72.9162,-0.000725
35.164,72.8968,-0.000725
35.196,72.8752,-0.000725
35.227,72.8532,-0.000725
35.258,72.8294,-0.000725
35.288,72.8073,-0.000725
35.319,72.7829,-0.000725
35.349,72.7585,0.027100
35.382,72.7314,0.027100
35.413,72.7049,0.027100
35.445,72.6770,0.027100
35.475,72.6496,0.027100
35.507,72.6202,0.027100
35.537,72.5914,0.027100
35.569,72.5600,0.027100
35.600,72.5301,0.052713
35.632,72.4975,0.052713
35.662,72.4653,0.052713
35.694,72.4319,0.052713
35.725,72.3976,0.052713
35.756,72.3630,0.052713
35.787,72.3275,0.052713
35.818,72.2926,0.052713
35.849,72.2553,0.052713
35.880,72.2172,0.078608
35.911,72.1800,0.078608
35.942,72.1401,0.078608
35.973,72.1010,0.078608
36.005,72.0592,0.078608
36.035,72.0195,0.078608
36.067,71.9755,0.078608
36.093,71.9409,0.078608
36.131,71.8884,0.105323
36.160,71.8453,0.105323
36.191,71.8015,0.105323
36.222,71.7564,0.105323
36.252,71.7111,0.105323
36.284,71.6630,0.105323
36.315,71.6156,0.105323
36.346,71.5662,0.105323
36.377,71.5176,0.114224
36.407,71.4694,0.114224
36.439,71.4165,0.114224
36.469,71.3669,0.114224
36.500,71.3141,0.114224
36.532,71.2618,0.114224
36.563,71.2074,0.114224
36.595,71.1532,0.114224
36.626,71.0966,0.114224
36.657,71.0422,0.093344
36.687,70.9872,0.093344
36.718,70.9286,0.093344
36.749,70.8718,0.093344
36.781,70.8122,0.093344
36.811,70.7545,0.093344
36.841,70.6960,0.093344
36.872,70.6354,0.043285
36.904,70.5732,0.043285
36.936,70.5135,0.043285
36.967,70.4542,0.043285
36.998,70.3978,0.043285
37.028,70.3409,0.043285
37.061,70.2835,0.043285
37.093,70.2252,0.043285
37.124,70.1711,0.008751
37.154,70.1186,0.008751
37.186,70.0649,0.008751
37.217,70.0112,0.008751
37.249,69.9574,0.008751
37.282,69.9035,0.008751
37.313,69.8542,0.008751
37.344,69.8031,0.008751
37.375,69.7557,0.007142
37.406,69.7079,0.007142
37.437,69.6607,0.007142
37.471,69.6095,0.007142
37.499,69.5682,0.007142
37.530,69.5232,0.007142
37.561,69.4784,0.007142
37.592,69.4341,0.007142
37.622,69.3936,0.006474
37.652,69.3518,0.006474
37.683,69.3111,0.006474
37.714,69.2702,0.006474
37.745,69.2308,0.006474
37.775,69.1923,0.006474
37.806,69.1535,0.006474
37.837,69.1152,0.006474
37.869,69.0776,0.006145
37.900,69.0406,0.006145
37.931,69.0064,0.006145
37.962,68.9701,0.006145
37.993,68.9368,0.006145
38.023,68.9038,0.006145
38.055,68.8712,0.006145
38.086,68.8381,0.006145
38.118,68.8070,0.005966
38.148,68.7763,0.005966
38.179,68.7467,0.005966
38.211,68.7168,0.005966
38.241,68.6888,0.005966
38.272,68.6616,0.005966
38.302,68.6354,0.005966
38.334,68.6088,0.005966
38.364,68.5838,0.005881
38.395,68.5597,0.005881
38.425,68.5362,0.005881
38.456,68.5129,0.005881
38.486,68.4907,0.005881
38.517,68.4692,0.005881
38.548,68.4479,0.005881
38.579,68.4275,0.005881
38.610,68.4077,0.005806
38.640,68.3886,0.005806
38.671,68.3708,0.005806
38.703,68.3527,0.005806
38.733,68.3362,0.005806
38.765,68.3198,0.005806
38.795,68.3052,0.005806
38.824,68.2914,0.005806
38.856,68.2765,0.005712
38.888,68.2632,0.005712
38.920,68.2507,0.005712
38.952,68.2381,0.005712
38.981,68.2281,0.005712
39.013,68.2174,0.005712
39.044,68.2079,0.005712
39.077,68.1984,0.005712
39.106,68.1911,0.005636
39.137,68.1839,0.005636
39.168,68.1773,0.005636
39.199,68.1713,0.005636
39.230,68.1661,0.005636
39.260,68.1618,0.005636
39.291,68.1581,0.005636
39.322,68.1551,0.005636
39.353,68.1529,0.005636
39.384,68.1513,0.005552
39.416,68.1504,0.005552
39.447,68.1503,0.005552
39.478,68.1503,0.005552
39.510,68.1503,0.005552
39.541,68.1503,0.005552
39.571,68.1503,0.005552
39.603,68.1503,0.005458
39.634,68.1503,0.005458
39.665,68.1503,0.005458
39.696,68.1503,0.005458
39.726,68.1503,0.005458
39.757,68.1503,0.005458
39.788,68.1503,0.005458
39.819,68.1503,0.005458
39.850,68.1503,0.005458
39.880,68.1503,0.005439
39.912,68.1503,0.005439
39.943,68.1503,0.005439
39.974,68.1503,0.005439
40.005,68.1503,0.005439
40.037,68.1503,0.005439
40.068,68.1504,0.005439
40.099,68.1514,0.005411
40.130,68.1530,0.005411
40.160,68.1552,0.005411
40.191,68.1582,0.005411
40.222,68.1620,0.005411
40.253,68.1664,0.005411
40.284,68.1716,0.005411
40.314,68.1773,0.005411
40.345,68.1840,0.005204
40.377,68.1916,0.005204
40.407,68.1996,0.005204
40.438,68.2085,0.005204
40.470,68.2182,0.005204
40.500,68.2281,0.005204
40.532,68.2396,0.005204
40.562,68.2511,0.005204
40.593,68.2635,0.005034
40.624,68.2769,0.005034
40.654,68.2905,0.005034
40.686,68.3049,0.005034
40.716,68.3204,0.005034
40.748,68.3365,0.005034
40.779,68.3538,0.005034
40.810,68.3710,0.005034
40.841,68.3896,0.005034
40.872,68.4081,0.004902
40.903,68.4286,0.004902
40.933,68.4487,0.004902
40.965,68.4700,0.004902
40.996,68.4922,0.004902
41.027,68.5148,0.004902
41.057,68.5372,0.004902
41.088,68.5610,0.004902
41.124,68.5898,0.004686
41.165,68.6237,0.004686
41.196,68.6502,0.004686
41.226,68.6775,0.004686
41.258,68.7065,0.004686
41.288,68.7343,0.004686
41.320,68.7648,0.004686
41.351,68.7944,0.004686
41.382,68.8261,0.004470
41.413,68.8573,0.004470
41.444,68.8899,0.004470
41.474,68.9222,0.004470
41.506,68.9580,0.004470
41.538,68.9927,0.004470
41.570,69.0297,0.004470
41.602,69.0675,0.004178
41.633,69.1034,0.004178
41.665,69.1420,0.004178
41.695,69.1795,0.004178
41.726,69.2186,0.004178
41.756,69.2565,0.004178
41.787,69.2970,0.004178
41.818,69.3391,0.004178
41.850,69.3816,0.004178
41.881,69.4251,0.004178
41.913,69.4692,0.003820
41.943,69.5124,0.003820
41.974,69.5576,0.003820
42.007,69.6047,0.003820
42.038,69.6521,0.003820
42.068,69.6981,0.003820
42.099,69.7454,0.003820
42.130,69.7942,0.003435
42.162,69.8444,0.003435
42.194,69.8968,0.003435
42.226,69.9482,0.003435
42.258,70.0014,0.003435
42.288,70.0530,0.003435
42.320,70.1069,0.003435
42.350,70.1584,0.003435
42.381,70.2143,0.002917
42.412,70.2702,0.002917
42.443,70.3246,0.002917
42.473,70.3796,0.002917
42.504,70.4373,0.002917
42.536,70.4981,0.002917
42.567,70.5554,0.002917
42.598,70.6163,0.002917
42.628,70.6738,0.002202
42.659,70.7342,0.002202
42.690,70.7917,0.002202
42.721,70.8511,0.002202
42.752,70.9063,0.002202
42.783,70.9658,0.002202
42.813,71.0181,0.002202
42.844,71.0737,0.002202
42.875,71.1289,0.001364
42.906,71.1831,0.001364
42.937,71.2362,0.001364
42.968,71.2892,0.001364
43.000,71.3416,0.001364
43.031,71.3920,0.001364
43.062,71.4435,0.001364
43.093,71.4926,0.001364
43.124,71.5406,0.000207
43.156,71.5896,0.000207
43.187,71.6373,0.000207
43.218,71.6839,0.000207
43.250,71.7303,0.000207
43.281,71.7767,0.000207
43.312,71.8206,0.000207
43.343,71.8644,0.000207
43.373,71.9061,-0.001797
43.404,71.9486,-0.001797
43.435,71.9889,-0.001797
43.465,72.0301,-0.001797
43.497,72.0698,-0.001797
43.528,72.1101,-0.001797
43.559,72.1483,-0.001797
43.590,72.1862,-0.001797
43.620,72.2222,-0.001797
43.651,72.2584,-0.005919
43.682,72.2935,-0.005919
43.713,72.3292,-0.005919
43.744,72.3630,-0.005919
43.779,72.4009,-0.005919
43.806,72.4291,-0.005919
43.838,72.4623,-0.005919
43.868,72.4923,-0.015328
43.899,72.5236,-0.015328
43.930,72.5530,-0.015328
43.961,72.5821,-0.015328
43.992,72.6106,-0.015328
44.023,72.6389,-0.015328
44.054,72.6650,-0.015328
44.085,72.6915,-0.032755
44.116,72.7168,-0.032755
44.148,72.7420,-0.032755
44.176,72.7639,-0.032755
44.211,72.7900,-0.032755
44.241,72.8125,-0.032755
44.272,72.8341,-0.032755
44.303,72.8548,-0.032755
44.334,72.8751,-0.032755
44.366,72.8956,-0.055781
44.396,72.9141,-0.055781
44.426,72.9316,-0.055781
44.457,72.9488,-0.055781
44.488,72.9657,-0.055781
44.519,72.9816,-0.055781
44.551,72.9975,-0.055781
44.580,73.0112,-0.055781
44.612,73.0254,-0.078185
44.643,73.0385,-0.078185
44.674,73.0513,-0.078185
44.706,73.0627,-0.078185
44.736,73.0737,-0.078185
44.768,73.0839,-0.078185
44.799,73.0936,-0.078185
44.830,73.1021,-0.078185
44.861,73.1105,-0.078185
44.893,73.1176,-0.095141
44.924,73.1242,-0.095141
44.955,73.1300,-0.095141
44.985,73.1350,-0.095141
45.017,73.1395,-0.095141
45.048,73.1429,-0.095141
45.079,73.1459,-0.095141
45.110,73.1480,-0.095141
45.142,73.1495,-0.103554
45.172,73.1501,-0.103554
45.204,73.1503,-0.103554
45.235,73.1503,-0.103554
45.266,73.1503,-0.103554
45.297,73.1503,-0.103554
45.329,73.1503,-0.103554
45.360,73.1503,-0.103554
45.391,73.1503,-0.100373
45.422,73.1503,-0.100373
45.453,73.1503,-0.100373
45.483,73.1503,-0.100373
45.514,73.1503,-0.100373
45.546,73.1503,-0.100373
45.577,73.1503,-0.100373
45.608,73.1503,-0.100373
45.639,73.1503,-0.091142
45.670,73.1503,-0.091142
45.702,73.1503,-0.091142
45.733,73.1503,-0.091142
45.763,73.1503,-0.091142
45.795,73.1503,-0.091142
45.826,73.1503,-0.091142
45.857,73.1503,-0.084198
45.888,73.1503,-0.084198
45.919,73.1503,-0.084198
45.950,73.1503,-0.084198
45.980,73.1503,-0.084198
46.011,73.1503,-0.084198
46.042,73.1503,-0.084198
46.073,73.1503,-0.084198
46.104,73.1503,-0.079813
46.135,73.1503,-0.079813
46.165,73.1503,-0.079813
46.196,73.1503,-0.079813
46.228,73.1503,-0.079813
46.258,73.1503,-0.079813
46.289,73.1503,-0.079813
46.319,73.1503,-0.079813
46.351,73.1503,-0.076529
46.382,73.1503,-0.076529
46.413,73.1503,-0.076529
46.444,73.1503,-0.076529
46.476,73.1503,-0.076529
46.508,73.1503,-0.076529
46.539,73.1503,-0.076529
46.569,73.1503,-0.076529
46.601,73.1503,-0.073828
46.632,73.1503,-0.073828
46.663,73.1503,-0.073828
46.694,73.1503,-0.073828
46.725,73.1503,-0.073828
46.756,73.1503,-0.073828
46.787,73.1503,-0.073828
46.818,73.1503,-0.073828
46.850,73.1503,-0.071636
46.881,73.1503,-0.071636
46.912,73.1503,-0.071636
46.943,73.1503,-0.071636
46.974,73.1503,-0.071636
47.005,73.1503,-0.071636
47.036,73.1503,-0.071636
47.067,73.1503,-0.071636
47.098,73.1503,-0.071636
47.129,73.1503,-0.069801
47.161,73.1503,-0.069801
47.191,73.1503,-0.069801
47.222,73.1503,-0.069801
47.253,73.1503,-0.069801
47.284,73.1503,-0.069801
47.315,73.1503,-0.069801
47.347,73.1503,-0.069801
47.378,73.1503,-0.069801
47.408,73.1503,-0.068183
47.440,73.1503,-0.068183
47.471,73.1503,-0.068183
47.502,73.1503,-0.068183
47.534,73.1503,-0.068183
47.566,73.1503,-0.068183
47.597,73.1503,-0.068183
47.628,73.1503,-0.066752
47.660,73.1503,-0.066752
47.690,73.1503,-0.066752
47.723,73.1503,-0.066752
47.751,73.1503,-0.066752
47.782,73.1503,-0.066752
47.813,73.1503,-0.066752
47.844,73.1503,-0.066752
47.874,73.1503,-0.065463
47.905,73.1503,-0.065463
47.937,73.1503,-0.065463
47.967,73.1503,-0.065463
47.998,73.1503,-0.065463
48.029,73.1503,-0.065463
48.060,73.1503,-0.065463
48.091,73.1503,-0.065463
48.122,73.1503,-0.064315
48.155,73.1503,-0.064315
48.184,73.1503,-0.064315
48.214,73.1503,-0.064315
48.245,73.1503,-0.064315
48.275,73.1503,-0.064315
48.306,73.1503,-0.064315
48.337,73.1503,-0.064315
48.368,73.1503,-0.063299
48.399,73.1503,-0.063299
48.431,73.1503,-0.063299
48.462,73.1503,-0.063299
48.493,73.1503,-0.063299
48.524,73.1503,-0.063299
48.555,73.1503,-0.063299
48.586,73.1503,-0.063299
48.618,73.1503,-0.062349
48.648,73.1503,-0.062349
48.680,73.1503,-0.062349
48.711,73.1503,-0.062349
48.741,73.1503,-0.062349
48.773,73.1503,-0.062349
48.804,73.1503,-0.062349
48.836,73.1503,-0.062349
48.867,73.1503,-0.061492
48.898,73.1503,-0.061492
48.930,73.1503,-0.061492
48.960,73.1503,-0.061492
48.991,73.1503,-0.061492
49.023,73.1503,-0.061492
49.053,73.1503,-0.061492
49.089,73.1503,-0.061492
49.114,73.1503,-0.061492
49.146,73.1503,-0.060777
49.177,73.1503,-0.060777
49.211,73.1503,-0.060777
49.241,73.1503,-0.060777
49.272,73.1503,-0.060777
49.303,73.1503,-0.060777
49.333,73.1503,-0.060777
49.365,73.1503,-0.059987
49.400,73.1503,-0.059987
49.428,73.1503,-0.059987
49.458,73.1503,-0.059987
49.490,73.1503,-0.059987
49.521,73.1503,-0.059987
49.552,73.1503,-0.059987
49.583,73.1503,-0.059281
49.614,73.1503,-0.059281
49.645,73.1503,-0.059281
49.676,73.1503,-0.059281
49.707,73.1503,-0.059281
49.738,73.1503,-0.059281
49.768,73.1499,-0.059281
49.799,73.1488,-0.059281
49.831,73.1468,-0.059281
49.861,73.1442,-0.058735
49.892,73.1408,-0.058735
49.924,73.1369,-0.058735
49.954,73.1322,-0.058735
49.985,73.1267,-0.058735
50.015,73.1205,-0.058735
50.047,73.1134,-0.058735
50.077,73.1061,-0.058735
50.109,73.0974,-0.058735
50.140,73.0884,-0.058735
50.172,73.0781,-0.049871
50.203,73.0675,-0.049871
50.234,73.0558,-0.049871
50.266,73.0439,-0.049871
50.296,73.0310,-0.049871
50.328,73.0173,-0.049871
50.361,73.0022,-0.026300
50.391,72.9879,-0.026300
50.423,72.9712,-0.026300
50.454,72.9548,-0.026300
50.484,72.9383,-0.026300
50.515,72.9202,-0.026300
50.550,72.8984,-0.026300
50.576,72.8821,-0.026300
50.608,72.8623,-0.026300
50.638,72.8418,0.003209
50.669,72.8205,0.003209
50.699,72.7985,0.003209
50.730,72.7760,0.003209
50.761,72.7524,0.003209
50.793,72.7273,0.003209
50.824,72.7017,0.003209
50.856,72.6753,0.030779
50.887,72.6487,0.030779
50.918,72.6211,0.030779
50.949,72.5932,0.030779
50.981,72.5626,0.030779
51.012,72.5336,0.030779
51.043,72.5031,0.030779
51.075,72.4717,0.030779
51.106,72.4387,0.056439
51.136,72.4069,0.056439
51.167,72.3751,0.056439
51.197,72.3415,0.056439
51.228,72.3075,0.056439
51.258,72.2718,0.056439
51.290,72.2358,0.056439
51.320,72.1993,0.056439
51.351,72.1624,0.083718
51.382,72.1242,0.083718
51.413,72.0853,0.083718
51.443,72.0462,0.083718
51.474,72.0052,0.083718
51.510,71.9588,0.083718
51.537,71.9212,0.083718
51.568,71.8791,0.083718
51.598,71.8369,0.113848
51.630,71.7900,0.113848
51.661,71.7472,0.113848
51.693,71.6994,0.113848
51.724,71.6528,0.113848
51.754,71.6064,0.113848
51.786,71.5585,0.113848
51.819,71.5072,0.113848
51.848,71.4608,0.124434
51.881,71.4075,0.124434
51.912,71.3584,0.124434
51.945,71.3021,0.124434
51.974,71.2527,0.124434
52.007,71.1976,0.124434
52.037,71.1451,0.124434
52.069,71.0880,0.124434
52.099,71.0350,0.099545
52.130,70.9801,0.099545
52.160,70.9249,0.099545
52.196,70.8584,0.099545
52.223,70.8078,0.099545
52.254,70.7494,0.099545
52.284,70.6915,0.099545
52.315,70.6310,0.099545
52.346,70.5712,0.044583
52.377,70.5107,0.044583
52.408,70.4539,0.044583
52.439,70.3956,0.044583
52.469,70.3396,0.044583
52.501,70.2796,0.044583
52.531,70.2255,0.044583
52.561,70.1711,0.044583
52.592,70.1193,0.008563
52.622,70.0649,0.008563
52.654,70.0111,0.008563
52.685,69.9598,0.008563
52.715,69.9084,0.008563
52.746,69.8589,0.008563
52.776,69.8078,0.008563
52.807,69.7600,0.008563
52.838,69.7107,0.008563
52.868,69.6650,0.008563
52.899,69.6160,0.007085
52.931,69.5698,0.007085
52.965,69.5179,0.007085
52.993,69.4782,0.007085
53.024,69.4325,0.007085
53.056,69.3896,0.007085
53.086,69.3468,0.007085
53.118,69.3038,0.006446
53.150,69.2616,0.006446
53.181,69.2201,0.006446
53.212,69.1799,0.006446
53.243,69.1410,0.006446
53.274,69.1031,0.006446
53.305,69.0643,0.006446
53.337,69.0269,0.006446
53.367,68.9919,0.006446
53.397,68.9565,0.006135
53.428,68.9218,0.006135
53.460,68.8857,0.006135
53.491,68.8532,0.006135
53.521,68.8205,0.006135
53.552,68.7892,0.006135
53.586,68.7543,0.006135
53.614,68.7271,0.006013
53.645,68.6966,0.006013
53.676,68.6686,0.006013
53.710,68.6366,0.006013
53.738,68.6116,0.006013
53.769,68.5855,0.006013
53.801,68.5584,0.006013
53.833,68.5325,0.006013
53.863,68.5077,0.005947
53.894,68.4844,0.005947
53.925,68.4608,0.005947
53.957,68.4380,0.005947
53.988,68.4160,0.005947
54.019,68.3943,0.005947
54.051,68.3740,0.005947
54.081,68.3546,0.005947
54.113,68.3354,0.005853
54.144,68.3172,0.005853
54.175,68.2998,0.005853
54.206,68.2830,0.005853
54.237,68.2673,0.005853
54.268,68.2517,0.005853
54.299,68.2374,0.005853
54.330,68.2237,0.005853
54.361,68.2108,0.005730
54.392,68.1984,0.005730
54.422,68.1872,0.005730
54.453,68.1763,0.005730
54.485,68.1660,0.005730
54.516,68.1565,0.005730
54.548,68.1474,0.005730
54.579,68.1395,0.005730
54.611,68.1322,0.005674
54.641,68.1260,0.005674
54.672,68.1201,0.005674
54.703,68.1152,0.005674
54.734,68.1108,0.005674
54.765,68.1073,0.005674
54.797,68.1042,0.005674
54.828,68.1023,0.005674
54.861,68.1009,0.005674
54.890,68.1003,0.005599
54.921,68.1003,0.005599
54.952,68.1003,0.005599
54.983,68.1003,0.005599
55.014,68.1003,0.005599
55.044,68.1003,0.005599
55.075,68.1003,0.005599
55.106,68.1003,0.005599
55.137,68.1003,0.005533
55.170,68.1003,0.005533
55.199,68.1003,0.005533
55.229,68.1003,0.005533
55.260,68.1003,0.005533
55.291,68.1003,0.005533
55.322,68.1003,0.005533
55.353,68.1003,0.005533
55.384,68.1009,0.005552
55.415,68.1023,0.005552
55.446,68.1044,0.005552
55.478,68.1072,0.005552
55.509,68.1109,0.005552
55.541,68.1152,0.005552
55.571,68.1200,0.005552
55.601,68.1257,0.005552
55.632,68.1322,0.005392
55.663,68.1395,0.005392
55.695,68.1473,0.005392
55.725,68.1561,0.005392
55.757,68.1654,0.005392
55.788,68.1758,0.005392
55.820,68.1867,0.005392
55.850,68.1981,0.005392
55.882,68.2107,0.005166
55.913,68.2239,0.005166
55.945,68.2376,0.005166
55.977,68.2530,0.005166
56.008,68.2678,0.005166
56.039,68.2841,0.005166
56.070,68.3006,0.005166
56.100,68.3174,0.005166
56.132,68.3365,0.005025
56.162,68.3548,0.005025
56.193,68.3744,0.005025
56.224,68.3950,0.005025
56.256,68.4160,0.005025
56.286,68.4375,0.005025
56.317,68.4602,0.005025
56.349,68.4840,0.005025
56.379,68.5078,0.004818
56.410,68.5319,0.004818
56.441,68.5572,0.004818
56.473,68.5842,0.004818
56.503,68.6103,0.004818
56.534,68.6378,0.004818
56.565,68.6666,0.004818
56.597,68.6961,0.004818
56.628,68.7267,0.004583
56.660,68.7574,0.004583
56.690,68.7877,0.004583
56.720,68.8194,0.004583
56.751,68.8516,0.004583
56.782,68.8853,0.004583
56.813,68.9195,0.004583
56.844,68.9549,0.004338
56.875,68.9900,0.004338
56.907,69.0271,0.004338
56.938,69.0647,0.004338
56.969,69.1030,0.004338
57.000,69.1403,0.004338
57.032,69.1818,0.004338
57.063,69.2211,0.004338
57.093,69.2611,0.004338
57.122,69.2997,0.003990
57.155,69.3446,0.003990
57.186,69.3880,0.003990
57.217,69.4304,0.003990
57.248,69.4754,0.003990
57.279,69.5213,0.003990
57.310,69.5666,0.003990
57.341,69.6137,0.003585
57.372,69.6605,0.003585
57.405,69.7112,0.003585
57.435,69.7572,0.003585
57.466,69.8073,0.003585
57.499,69.8612,0.003585
57.526,69.9062,0.003585
57.558,69.9578,0.003585
57.590,70.0122,0.003115
57.620,70.0643,0.003115
57.647,70.1108,0.003115
57.683,70.1741,0.003115
57.714,70.2286,0.003115
57.745,70.2852,0.003115
57.776,70.3420,0.003115
57.807,70.3998,0.003115
57.837,70.4565,0.002437
57.868,70.5156,0.002437
57.899,70.5743,0.002437
57.931,70.6367,0.002437
57.962,70.6979,0.002437
57.993,70.7546,0.002437
58.024,70.8139,0.002437
58.054,70.8695,0.002437
58.085,70.9263,0.002437
58.118,70.9842,0.001581
58.148,71.0379,0.001581
58.179,71.0922,0.001581
58.211,71.1482,0.001581
58.242,71.2017,0.001581
58.273,71.2544,0.001581
58.304,71.3045,0.001581
58.335,71.3548,0.001581
58.366,71.4050,0.001581
58.398,71.4554,0.000555
58.429,71.5047,0.000555
58.461,71.5532,0.000555
58.491,71.6007,0.000555
58.523,71.6473,0.000555
58.553,71.6917,0.000555
58.584,71.7378,0.000555
58.615,71.7804,0.000555
58.646,71.8245,-0.001242
58.676,71.8659,-0.001242
58.707,71.9087,-0.001242
58.738,71.9491,-0.001242
58.769,71.9901,-0.001242
58.801,72.0305,-0.001242
58.832,72.0704,-0.001242
58.864,72.1088,-0.004940
58.896,72.1477,-0.004940
58.928,72.1867,-0.004940
58.957,72.2200,-0.004940
58.989,72.2557,-0.004940
59.020,72.2914,-0.004940
59.052,72.3264,-0.004940
59.082,72.3584,-0.004940
59.113,72.3910,-0.013371
59.144,72.4226,-0.013371
59.175,72.4530,-0.013371
59.206,72.4835,-0.013371
59.237,72.5135,-0.013371
59.267,72.5422,-0.013371
59.298,72.5700,-0.013371
59.329,72.5971,-0.013371
59.361,72.6243,-0.013371
59.392,72.6501,-0.029800
59.423,72.6754,-0.029800
59.454,72.7006,-0.029800
59.485,72.7242,-0.029800
59.516,72.7471,-0.029800
59.547,72.7695,-0.029800
59.578,72.7908,-0.029800
59.609,72.8122,-0.029800
59.640,72.8318,-0.052562
59.671,72.8514,-0.052562
59.701,72.8694,-0.052562
59.733,72.8877,-0.052562
59.763,72.9042,-0.052562
59.794,72.9211,-0.052562
59.824,72.9364,-0.052562
59.855,72.9517,-0.052562
59.886,72.9657,-0.075437
59.917,72.9796,-0.075437
59.948,72.9923,-0.075437
59.980,73.0052,-0.075437
60.011,73.0162,-0.075437
60.042,73.0270,-0.075437
60.074,73.0370,-0.075437
60.104,73.0462,-0.075437
60.135,73.0545,-0.093513
60.166,73.0625,-0.093513
60.197,73.0693,-0.093513
60.227,73.0757,-0.093513
60.258,73.0814,-0.093513
60.289,73.0861,-0.093513
60.320,73.0902,-0.093513
60.351,73.0937,-0.093513
60.382,73.0964,-0.103704
60.412,73.0984,-0.103704
60.444,73.0998,-0.103704
60.475,73.1003,-0.103704
60.505,73.1003,-0.103704
60.536,73.1003,-0.103704
60.567,73.1003,-0.103704
60.598,73.1003,-0.103704
60.630,73.1003,-0.102481
60.661,73.1003,-0.102481
60.692,73.1003,-0.102481
60.723,73.1003,-0.102481
60.754,73.1003,-0.102481
60.786,73.1003,-0.102481
60.816,73.1003,-0.102481
60.848,73.1003,-0.102481
60.879,73.1003,-0.102481
60.910,73.1003,-0.093617
60.941,73.1003,-0.093617
60.972,73.1003,-0.093617
61.003,73.1003,-0.093617
61.037,73.1003,-0.093617
61.065,73.1003,-0.093617
61.096,73.1003,-0.093617
61.127,73.1003,-0.085788
61.159,73.1003,-0.085788
61.190,73.1003,-0.085788
61.223,73.1003,-0.085788
61.253,73.1003,-0.085788
61.284,73.1003,-0.085788
61.315,73.1003,-0.085788
61.347,73.1003,-0.085788
61.377,73.1003,-0.080970
61.408,73.1003,-0.080970
61.439,73.1003,-0.080970
61.469,73.1003,-0.080970
61.500,73.1003,-0.080970
61.531,73.1003,-0.080970
61.562,73.1003,-0.080970
61.592,73.1003,-0.080970
61.623,73.1003,-0.077545
61.654,73.1003,-0.077545
61.685,73.1003,-0.077545
61.718,73.1003,-0.077545
61.747,73.1003,-0.077545
61.778,73.1003,-0.077545
61.809,73.1003,-0.077545
61.842,73.1003,-0.077545
61.872,73.1003,-0.074760
61.903,73.1003,-0.074760
61.935,73.1003,-0.074760
61.966,73.1003,-0.074760
61.997,73.1003,-0.074760
62.028,73.1003,-0.074760
62.058,73.1003,-0.074760
62.091,73.1003,-0.074760
62.121,73.1003,-0.072464
62.151,73.1003,-0.072464
62.182,73.1003,-0.072464
62.213,73.1003,-0.072464
62.244,73.1003,-0.072464
62.276,73.1003,-0.072464
62.306,73.1003,-0.072464
62.336,73.1003,-0.070573
62.368,73.1003,-0.070573
62.400,73.1003,-0.070573
62.431,73.1003,-0.070573
62.462,73.1003,-0.070573
62.491,73.1003,-0.070573
62.525,73.1003,-0.070573
62.556,73.1003,-0.070573
62.586,73.1003,-0.068841
62.617,73.1003,-0.068841
62.648,73.1003,-0.068841
62.679,73.1003,-0.068841
62.711,73.1003,-0.068841
62.741,73.1003,-0.068841
62.773,73.1003,-0.068841
62.804,73.1003,-0.068841
62.835,73.1003,-0.068841
62.866,73.1003,-0.067345
62.898,73.1003,-0.067345
62.929,73.1003,-0.067345
62.960,73.1003,-0.067345
62.992,73.1003,-0.067345
63.022,73.1003,-0.067345
63.055,73.1003,-0.067345
63.085,73.1003,-0.067345
63.116,73.1003,-0.066084
63.147,73.1003,-0.066084
63.179,73.1003,-0.066084
63.208,73.1003,-0.066084
63.239,73.1003,-0.066084
63.271,73.1003,-0.066084
63.301,73.1003,-0.066084
63.332,73.1003,-0.066084
63.363,73.1003,-0.064936
63.395,73.1003,-0.064936
63.426,73.1003,-0.064936
63.457,73.1003,-0.064936
63.488,73.1003,-0.064936
63.519,73.1003,-0.064936
63.550,73.1003,-0.064936
63.581,73.1003,-0.064936
63.612,73.1003,-0.063920
63.643,73.1003,-0.063920
63.674,73.1003,-0.063920
63.704,73.1003,-0.063920
63.736,73.1003,-0.063920
63.767,73.1003,-0.063920
63.798,73.1003,-0.063920
63.828,73.1003,-0.063920
63.860,73.1003,-0.063920
63.892,73.1003,-0.062904
63.922,73.1003,-0.062904
63.953,73.1003,-0.062904
63.984,73.1003,-0.062904
64.014,73.1003,-0.062904
64.045,73.1003,-0.062904
64.076,73.1003,-0.062904
64.107,73.1003,-0.062904
64.139,73.1003,-0.062029
64.169,73.1003,-0.062029
64.200,73.1003,-0.062029
64.232,73.1003,-0.062029
64.263,73.1003,-0.062029
64.294,73.1003,-0.062029
64.324,73.1003,-0.062029
64.355,73.1003,-0.062029
64.385,73.1003,-0.061238
64.417,73.1003,-0.061238
64.448,73.1003,-0.061238
64.479,73.1003,-0.061238
64.511,73.1003,-0.061238
64.543,73.1003,-0.061238
64.573,73.1003,-0.061238
64.604,73.1003,-0.061238
64.635,73.1003,-0.061238
64.666,73.1003,-0.060420
64.697,73.1003,-0.060420
64.728,73.1003,-0.060420
64.758,73.1003,-0.060420
64.791,73.1003,-0.060420
64.821,73.1003,-0.060420
64.852,73.1003,-0.060420
64.884,73.1003,-0.059770
64.915,73.1003,-0.059770
64.946,73.1003,-0.059770
64.977,73.1003,-0.059770
65.008,73.1003,-0.059770
65.040,73.1003,-0.059770
65.070,73.1003,-0.059770
65.101,73.0999,-0.059770
65.132,73.0988,-0.059187
65.163,73.0971,-0.059187
65.193,73.0946,-0.059187
65.225,73.0912,-0.059187
65.256,73.0874,-0.059187
65.287,73.0825,-0.059187
65.318,73.0771,-0.059187
65.349,73.0709,-0.059187
65.379,73.0643,-0.055056
65.410,73.0565,-0.055056
65.442,73.0483,-0.055056
65.473,73.0393,-0.055056
65.503,73.0297,-0.055056
65.534,73.0189,-0.055056
65.565,73.0074,-0.055056
65.602,72.9934,-0.055056
65.628,72.9828,-0.036444
65.658,72.9694,-0.036444
65.690,72.9552,-0.036444
65.720,72.9408,-0.036444
65.751,72.9250,-0.036444
65.782,72.9089,-0.036444
65.812,72.8923,-0.036444
65.843,72.8746,-0.036444
65.876,72.8552,-0.036444
65.905,72.8370,-0.006869
65.937,72.8161,-0.006869
65.968,72.7957,-0.006869
65.999,72.7742,-0.006869
66.030,72.7518,-0.006869
66.061,72.7291,-0.006869
66.093,72.7046,-0.006869
66.123,72.6817,0.021369
66.154,72.6560,0.021369
66.185,72.6296,0.021369
66.217,72.6034,0.021369
66.247,72.5767,0.021369
66.278,72.5486,0.021369
66.308,72.5201,0.021369
66.339,72.4916,0.021369
66.370,72.4614,0.047246
66.401,72.4307,0.047246
66.432,72.3986,0.047246
66.464,72.3653,0.047246
66.496,72.3317,0.047246
66.526,72.2985,0.047246
66.558,72.2635,0.047246
66.589,72.2277,0.047246
66.620,72.1919,0.072793
66.651,72.1547,0.072793
66.682,72.1169,0.072793
66.713,72.0792,0.072793
66.744,72.0394,0.072793
66.775,72.0013,0.072793
66.806,71.9600,0.072793
66.837,71.9190,0.072793
66.869,71.8765,0.100128
66.901,71.8325,0.100128
66.931,71.7906,0.100128
66.962,71.7451,0.100128
66.994,71.7002,0.100128
67.025,71.6537,0.100128
67.056,71.6083,0.100128
67.088,71.5595,0.100128
67.118,71.5138,0.114949
67.148,71.4659,0.114949
67.179,71.4180,0.114949
67.210,71.3680,0.114949
67.242,71.3166,0.114949
67.273,71.2639,0.114949
67.302,71.2148,0.114949
67.333,71.1625,0.114949
67.364,71.1096,0.114949
67.395,71.0558,0.103045
67.425,71.0019,0.103045
67.455,70.9475,0.103045
67.486,70.8925,0.103045
67.518,70.8336,0.103045
67.549,70.7765,0.103045
67.579,70.7187,0.103045
67.610,70.6599,0.050558
67.641,70.5997,0.050558
67.672,70.5391,0.050558
67.703,70.4803,0.050558
67.733,70.4222,0.050558
67.764,70.3647,0.050558
67.795,70.3072,0.050558
67.827,70.2491,0.050558
67.857,70.1942,0.009250
67.888,70.1376,0.009250
67.918,70.0850,0.009250
67.950,70.0296,0.009250
67.980,69.9781,0.009250
68.011,69.9253,0.009250
68.042,69.8732,0.009250
68.072,69.8231,0.009250
68.103,69.7729,0.007368
68.134,69.7226,0.007368
68.166,69.6734,0.007368
68.198,69.6235,0.007368
68.228,69.5769,0.007368
68.260,69.5287,0.007368
68.292,69.4820,0.007368
68.322,69.4379,0.007368
68.353,69.3935,0.006540
68.383,69.3501,0.006540
68.413,69.3089,0.006540
68.445,69.2651,0.006540
68.475,69.2255,0.006540
68.506,69.1836,0.006540
68.537,69.1443,0.006540
68.567,69.1046,0.006540
68.598,69.0664,0.006182
68.629,69.0281,0.006182
68.660,68.9909,0.006182
68.691,68.9539,0.006182
68.722,68.9177,0.006182
68.755,68.8815,0.006182
68.785,68.8479,0.006182
68.816,68.8138,0.006182
68.847,68.7810,0.006069
68.878,68.7478,0.006069
68.909,68.7168,0.006069
68.940,68.6868,0.006069
68.970,68.6571,0.006069
69.002,68.6274,0.006069
69.032,68.5996,0.006069
69.063,68.5711,0.006069
69.094,68.5438,0.006069
69.125,68.5180,0.006032
69.158,68.4902,0.006032
69.187,68.4671,0.006032
69.218,68.4426,0.006032
69.249,68.4193,0.006032
69.281,68.3955,0.006032
69.312,68.3736,0.006032
69.343,68.3519,0.006032
69.375,68.3312,0.005919
69.406,68.3117,0.005919
69.437,68.2926,0.005919
69.468,68.2740,0.005919
69.498,68.2567,0.005919
69.530,68.2393,0.005919
69.561,68.2231,0.005919
69.593,68.2072,0.005919
69.624,68.1923,0.005768
69.655,68.1784,0.005768
69.686,68.1649,0.005768
69.716,68.1526,0.005768
69.747,68.1408,0.005768
69.779,68.1293,0.005768
69.810,68.1193,0.005768
69.839,68.1101,0.005768
69.870,68.1011,0.005740
69.905,68.0917,0.005740
69.931,68.0855,0.005740
69.963,68.0786,0.005740
69.993,68.0726,0.005740
70.024,68.0673,0.005740
70.055,68.0626,0.005740
70.086,68.0589,0.005740
70.117,68.0556,0.005740
70.148,68.0533,0.005730
70.179,68.0515,0.005730
70.210,68.0505,0.005730
70.241,68.0503,0.005730
70.272,68.0503,0.005730
70.303,68.0503,0.005730
70.334,68.0503,0.005730
70.365,68.0503,0.005599
70.395,68.0507,0.005599
70.426,68.0517,0.005599
70.457,68.0535,0.005599
70.488,68.0561,0.005599
70.519,68.0593,0.005599
70.550,68.0633,0.005599
70.580,68.0679,0.005599
70.612,68.0736,0.005448
70.643,68.0798,0.005448
70.675,68.0866,0.005448
70.706,68.0946,0.005448
70.738,68.1031,0.005448
70.769,68.1122,0.005448
70.800,68.1221,0.005448
70.831,68.1328,0.005448
70.862,68.1439,0.005326
70.893,68.1563,0.005326
70.925,68.1690,0.005326
70.956,68.1828,0.005326
70.986,68.1965,0.005326
71.019,68.2124,0.005326
71.049,68.2275,0.005326
71.080,68.2445,0.005326
71.111,68.2611,0.005157
71.142,68.2796,0.005157
71.173,68.2977,0.005157
71.203,68.3166,0.005157
71.235,68.3372,0.005157
71.266,68.3581,0.005157
71.297,68.3796,0.005157
71.328,68.4018,0.005157
71.359,68.4250,0.004912
71.391,68.4488,0.004912
71.420,68.4728,0.004912
71.451,68.4973,0.004912
71.482,68.5238,0.004912
71.516,68.5522,0.004912
71.545,68.5788,0.004912
71.578,68.6080,0.004912
71.609,68.6371,0.004658
71.640,68.6664,0.004658
71.671,68.6976,0.004658
71.703,68.7287,0.004658
71.735,68.7621,0.004658
71.765,68.7926,0.004658
71.796,68.8266,0.004658
71.827,68.8599,0.004658
71.858,68.8943,0.004423
71.888,68.9300,0.004423
71.919,68.9653,0.004423
71.949,69.0019,0.004423
71.980,69.0391,0.004423
72.012,69.0785,0.004423
72.042,69.1164,0.004423
72.073,69.1565,0.004423
72.104,69.1968,0.004093
72.136,69.2386,0.004093
72.167,69.2801,0.004093
72.198,69.3227,0.004093
72.228,69.3657,0.004093
72.259,69.4091,0.004093
72.289,69.4529,0.004093
72.320,69.4990,0.004093
72.352,69.5449,0.004093
72.382,69.5914,0.003679
72.413,69.6399,0.003679
72.445,69.6884,0.003679
72.476,69.7386,0.003679
72.507,69.7891,0.003679
72.538,69.8382,0.003679
72.577,69.9037,0.003679
72.617,69.9696,0.003180
72.648,70.0236,0.003180
72.678,70.0763,0.003180
72.710,70.1333,0.003180
72.741,70.1880,0.003180
72.772,70.2456,0.003180
72.803,70.3006,0.003180
72.834,70.3590,0.003180
72.865,70.4170,0.002522
72.896,70.4777,0.002522
72.927,70.5361,0.002522
72.958,70.5961,0.002522
72.989,70.6548,0.002522
73.020,70.7142,0.002522
73.051,70.7721,0.002522
73.082,70.8290,0.002522
73.113,70.8860,0.001769
73.144,70.9409,0.001769
73.174,70.9966,0.001769
73.206,71.0508,0.001769
73.236,71.1040,0.001769
73.268,71.1575,0.001769
73.299,71.2102,0.001769
73.330,71.2605,0.001769
73.360,71.3098,0.001769
73.391,71.3595,0.000753
73.422,71.4086,0.000753
73.453,71.4576,0.000753
73.483,71.5035,0.000753
73.514,71.5502,0.000753
73.545,71.5971,0.000753
73.577,71.6446,0.000753
73.608,71.6885,-0.000941
73.639,71.7332,-0.000941
73.669,71.7755,-0.000941
73.701,71.8196,-0.000941
73.732,71.8607,-0.000941
73.763,71.9017,-0.000941
73.794,71.9428,-0.000941
73.826,71.9835,-0.000941
73.857,72.0224,-0.004432
73.887,72.0606,-0.004432
73.919,72.0992,-0.004432
73.950,72.1359,-0.004432
73.982,72.1723,-0.004432
74.012,72.2076,-0.004432
74.043,72.2419,-0.004432
74.074,72.2764,-0.004432
74.105,72.3088,-0.012298
74.136,72.3419,-0.012298
74.167,72.3725,-0.012298
74.199,72.4051,-0.012298
74.229,72.4348,-0.012298
74.262,72.4660,-0.012298
74.293,72.4942,-0.012298
74.324,72.5226,-0.012298
74.354,72.5494,-0.027561
74.385,72.5763,-0.027561
74.415,72.6008,-0.027561
74.447,72.6269,-0.027561
74.479,72.6521,-0.027561
74.510,72.6756,-0.027561
74.542,72.6997,-0.027561
74.572,72.7214,-0.027561
74.604,72.7435,-0.049655
74.635,72.7643,-0.049655
74.666,72.7843,-0.049655
74.698,72.8042,-0.049655
74.728,72.8222,-0.049655
74.760,72.8408,-0.049655
74.791,72.8574,-0.049655
74.822,72.8742,-0.049655
74.853,72.8897,-0.072812
74.883,72.9046,-0.072812
74.914,72.9187,-0.072812
74.946,72.9321,-0.072812
74.976,72.9445,-0.072812
75.010,72.9577,-0.072812
75.037,72.9676,-0.072812
75.068,72.9780,-0.072812
75.099,72.9882,-0.091528
75.129,72.9970,-0.091528
75.160,73.0055,-0.091528
75.192,73.0132,-0.091528
75.223,73.0203,-0.091528
75.254,73.0266,-0.091528
75.285,73.0321,-0.091528
75.317,73.0369,-0.091528
75.347,73.0410,-0.091528
75.379,73.0442,-0.102697
75.410,73.0470,-0.102697
75.441,73.0488,-0.102697
75.472,73.0499,-0.102697
75.503,73.0503,-0.102697
75.534,73.0503,-0.102697
75.565,73.0503,-0.102697
75.596,73.0503,-0.102782
75.628,73.0503,-0.102782
75.658,73.0503,-0.102782
75.688,73.0503,-0.102782
75.720,73.0503,-0.102782
75.755,73.0503,-0.102782
75.782,73.0503,-0.102782
75.814,73.0503,-0.102782
75.844,73.0503,-0.094181
75.875,73.0503,-0.094181
75.906,73.0503,-0.094181
75.936,73.0503,-0.094181
75.967,73.0503,-0.094181
75.998,73.0503,-0.094181
76.029,73.0503,-0.094181
76.060,73.0503,-0.094181
76.090,73.0503,-0.094181
76.121,73.0503,-0.085901
76.152,73.0503,-0.085901
76.181,73.0503,-0.085901
76.213,73.0503,-0.085901
76.244,73.0503,-0.085901
76.274,73.0503,-0.085901
76.305,73.0503,-0.085901
76.335,73.0503,-0.085901
76.366,73.0503,-0.081027
76.397,73.0503,-0.081027
76.428,73.0503,-0.081027
76.461,73.0503,-0.081027
76.491,73.0503,-0.081027
76.520,73.0503,-0.081027
76.552,73.0503,-0.081027
76.583,73.0503,-0.081027
76.614,73.0503,-0.077489
76.645,73.0503,-0.077489
76.676,73.0503,-0.077489
76.707,73.0503,-0.077489
76.738,73.0503,-0.077489
76.769,73.0503,-0.077489
76.799,73.0503,-0.077489
76.830,73.0503,-0.077489
76.861,73.0503,-0.077489
76.892,73.0503,-0.074619
76.924,73.0503,-0.074619
76.955,73.0503,-0.074619
76.986,73.0503,-0.074619
77.018,73.0503,-0.074619
77.049,73.0503,-0.074619
77.079,73.0503,-0.074619
77.111,73.0503,-0.072323
77.142,73.0503,-0.072323
77.173,73.0503,-0.072323
77.204,73.0503,-0.072323
77.235,73.0503,-0.072323
77.266,73.0503,-0.072323
77.298,73.0503,-0.072323
77.330,73.0503,-0.072323
77.361,73.0503,-0.070450
77.391,73.0503,-0.070450
77.421,73.0503,-0.070450
77.453,73.0503,-0.070450
77.484,73.0503,-0.070450
77.515,73.0503,-0.070450
77.546,73.0503,-0.070450
77.576,73.0503,-0.070450
77.608,73.0503,-0.068738
77.638,73.0503,-0.068738
77.670,73.0503,-0.068738
77.700,73.0503,-0.068738
77.732,73.0503,-0.068738
77.763,73.0503,-0.068738
77.794,73.0503,-0.068738
77.825,73.0503,-0.068738
77.857,73.0503,-0.067242
77.887,73.0503,-0.067242
77.918,73.0503,-0.067242
77.949,73.0503,-0.067242
77.980,73.0503,-0.067242
78.011,73.0503,-0.067242
78.042,73.0503,-0.067242
78.074,73.0503,-0.067242
78.104,73.0503,-0.067242
78.136,73.0503,-0.065943
78.166,73.0503,-0.065943
78.198,73.0503,-0.065943
78.230,73.0503,-0.065943
78.260,73.0503,-0.065943
78.290,73.0503,-0.065943
78.321,73.0503,-0.065943
78.351,73.0503,-0.064729
78.383,73.0503,-0.064729
78.413,73.0503,-0.064729
78.444,73.0503,-0.064729
78.474,73.0503,-0.064729
78.506,73.0503,-0.064729
78.536,73.0503,-0.064729
78.568,73.0503,-0.064729
78.598,73.0503,-0.064729
78.630,73.0503,-0.064729
78.661,73.0503,-0.063685
78.693,73.0503,-0.063685
78.724,73.0503,-0.063685
78.755,73.0503,-0.063685
78.785,73.0503,-0.063685
78.816,73.0503,-0.063685
78.847,73.0503,-0.063685
78.878,73.0503,-0.063685
78.908,73.0503,-0.062725
78.939,73.0503,-0.062725
78.970,73.0503,-0.062725
79.001,73.0503,-0.062725
79.032,73.0503,-0.062725
79.064,73.0503,-0.062725
79.095,73.0503,-0.062725
79.127,73.0503,-0.061822
79.158,73.0503,-0.061822
79.189,73.0503,-0.061822
79.219,73.0503,-0.061822
79.250,73.0503,-0.061822
79.281,73.0503,-0.061822
79.312,73.0503,-0.061822
79.343,73.0503,-0.061822
79.374,73.0503,-0.060994
79.404,73.0503,-0.060994
79.435,73.0503,-0.060994
79.466,73.0503,-0.060994
79.497,73.0503,-0.060994
79.528,73.0503,-0.060994
79.558,73.0503,-0.060994
79.589,73.0503,-0.060994
79.619,73.0503,-0.060994
79.650,73.0503,-0.060241
79.681,73.0503,-0.060241
79.712,73.0503,-0.060241
79.744,73.0503,-0.060241
79.775,73.0503,-0.060241
79.805,73.0503,-0.060241
79.836,73.0503,-0.060241
79.868,73.0503,-0.059639
79.899,73.0503,-0.059639
79.930,73.0503,-0.059639
79.962,73.0503,-0.059639
79.992,73.0503,-0.059639
80.023,73.0502,-0.059639
80.054,73.0496,-0.059639
80.086,73.0482,-0.059639
80.116,73.0460,-0.059639
80.148,73.0431,-0.059046
80.178,73.0395,-0.059046
80.210,73.0352,-0.059046
80.239,73.0302,-0.059046
80.271,73.0246,-0.059046
80.302,73.0181,-0.059046
80.332,73.0109,-0.059046
80.363,73.0030,-0.051462
80.394,72.9942,-0.051462
80.425,72.9848,-0.051462
80.457,72.9748,-0.051462
80.488,72.9636,-0.051462
80.520,72.9520,-0.051462
80.550,72.9399,-0.051462
80.581,72.9264,-0.051462
80.612,72.9128,-0.029048
80.643,72.8981,-0.029048
80.675,72.8829,-0.029048
80.706,72.8664,-0.029048
80.738,72.8496,-0.029048
80.769,72.8320,-0.029048
80.799,72.8147,-0.029048
80.831,72.7951,-0.029048
80.861,72.7762,0.000527
80.894,72.7545,0.000527
80.922,72.7352,0.000527
80.954,72.7133,0.000527
80.984,72.6910,0.000527
81.015,72.6678,0.000527
81.047,72.6425,0.000527
81.079,72.6173,0.000527
81.110,72.5927,0.028191
81.141,72.5660,0.028191
81.172,72.5390,0.028191
81.202,72.5118,0.028191
81.233,72.4840,0.028191
81.266,72.4528,0.028191
81.296,72.4241,0.028191
81.328,72.3926,0.028191
81.358,72.3622,0.053908
81.389,72.3297,0.053908
81.420,72.2979,0.053908
81.451,72.2637,0.053908
81.482,72.2299,0.053908
81.513,72.1945,0.053908
81.544,72.1592,0.053908
81.576,72.1217,0.053908
81.607,72.0850,0.080679
81.638,72.0466,0.080679
81.669,72.0080,0.080679
81.700,71.9689,0.080679
81.731,71.9297,0.080679
81.762,71.8876,0.080679
81.793,71.8459,0.080679
81.824,71.8039,0.080679
81.856,71.7610,0.110460
81.887,71.7163,0.110460
81.918,71.6720,0.110460
81.948,71.6274,0.110460
81.980,71.5807,0.110460
82.012,71.5332,0.110460
82.043,71.4859,0.110460
82.074,71.4375,0.110460
82.106,71.3850,0.122119
82.136,71.3400,0.122119
82.167,71.2894,0.122119
82.197,71.2384,0.122119
82.228,71.1877,0.122119
82.260,71.1350,0.122119
82.291,71.0818,0.122119
82.322,71.0276,0.122119
82.359,70.9625,0.101540
82.399,70.8901,0.101540
82.431,70.8320,0.101540
82.463,70.7735,0.101540
82.494,70.7152,0.101540
82.524,70.6576,0.101540
82.555,70.5984,0.101540
82.585,70.5396,0.101540
82.616,70.4810,0.101540
82.647,70.4201,0.047265
82.678,70.3615,0.047265
82.709,70.3027,0.047265
82.741,70.2438,0.047265
82.772,70.1866,0.047265
82.804,70.1293,0.047265
82.834,70.0758,0.047265
82.865,70.0209,0.047265
82.896,69.9665,0.008695
82.929,69.9098,0.008695
82.959,69.8593,0.008695
82.991,69.8078,0.008695
83.020,69.7585,0.008695
83.052,69.7075,0.008695
83.082,69.6595,0.008695
83.113,69.6111,0.008695
83.144,69.5620,0.007189
83.175,69.5144,0.007189
83.207,69.4679,0.007189
83.237,69.4211,0.007189
83.270,69.3757,0.007189
83.302,69.3286,0.007189
83.332,69.2867,0.007189
83.363,69.2430,0.007189
83.394,69.2014,0.006596
83.426,69.1587,0.006596
83.456,69.1197,0.006596
83.488,69.0781,0.006596
83.518,69.0405,0.006596
83.549,69.0016,0.006596
83.580,68.9636,0.006596
83.611,68.9266,0.006596
83.642,68.8897,0.006295
83.673,68.8546,0.006295
83.704,68.8195,0.006295
83.735,68.7855,0.006295
83.767,68.7512,0.006295
83.798,68.7178,0.006295
83.830,68.6852,0.006295
83.860,68.6549,0.006295
83.891,68.6249,0.006116
83.922,68.5950,0.006116
83.953,68.5665,0.006116
83.985,68.5368,0.006116
84.013,68.5118,0.006116
84.044,68.4851,0.006116
84.074,68.4599,0.006116
84.105,68.4339,0.006116
84.135,68.4101,0.006050
84.167,68.3857,0.006050
84.197,68.3627,0.006050
84.229,68.3396,0.006050
84.259,68.3182,0.006050
84.290,68.2970,0.006050
84.321,68.2770,0.006050
84.352,68.2570,0.006050
84.382,68.2382,0.006003
84.414,68.2200,0.006003
84.446,68.2021,0.006003
84.477,68.1851,0.006003
84.508,68.1694,0.006003
84.538,68.1540,0.006003
84.569,68.1395,0.006003
84.600,68.1256,0.006003
84.630,68.1129,0.006003
84.661,68.1002,0.005928
84.691,68.0891,0.005928
84.723,68.0778,0.005928
84.754,68.0677,0.005928
84.786,68.0577,0.005928
84.817,68.0489,0.005928
84.848,68.0407,0.005928
84.878,68.0337,0.005778
84.909,68.0271,0.005778
84.941,68.0213,0.005778
84.972,68.0161,0.005778
85.002,68.0116,0.005778
85.033,68.0080,0.005778
85.064,68.0050,0.005778
85.095,68.0028,0.005778
85.126,68.0012,0.005778
85.157,68.0004,0.005693
85.188,68.0003,0.005693
85.218,68.0003,0.005693
85.250,68.0003,0.005693
85.280,68.0003,0.005693
85.311,68.0003,0.005693
85.342,68.0003,0.005683
85.374,68.0003,0.005683
85.405,68.0003,0.005683
85.436,68.0003,0.005683
85.466,68.0003,0.005683
85.497,68.0003,0.005683
85.529,68.0003,0.005683
85.559,68.0003,0.005683
85.590,68.0003,0.005683
85.621,68.0003,0.005636
85.652,68.0003,0.005636
85.683,68.0003,0.005636
85.714,68.0003,0.005636
85.745,68.0003,0.005636
85.776,68.0004,0.005636
85.805,68.0012,0.005636
85.837,68.0028,0.005636
85.868,68.0050,0.005542
85.898,68.0080,0.005542
85.929,68.0116,0.005542
85.960,68.0162,0.005542
85.991,68.0214,0.005542
86.022,68.0271,0.005542
86.053,68.0337,0.005542
86.083,68.0407,0.005542
86.114,68.0488,0.005373
86.144,68.0575,0.005373
86.175,68.0669,0.005373
86.207,68.0773,0.005373
86.237,68.0879,0.005373
86.268,68.0995,0.005373
86.299,68.1118,0.005373
86.330,68.1251,0.005373
86.361,68.1391,0.005175
86.393,68.1540,0.005175
86.424,68.1695,0.005175
86.456,68.1859,0.005175
86.487,68.2027,0.005175
86.518,68.2201,0.005175
86.548,68.2377,0.005175
86.580,68.2574,0.005175
86.611,68.2769,0.005062
86.642,68.2971,0.005062
86.672,68.3179,0.005062
86.703,68.3400,0.005062
86.734,68.3623,0.005062
86.765,68.3858,0.005062
86.797,68.4101,0.005062
86.829,68.4360,0.005062
86.859,68.4607,0.004893
86.893,68.4893,0.004893
86.921,68.5148,0.004893
86.953,68.5433,0.004893
86.984,68.5705,0.004893
87.016,68.6015,0.004893
87.045,68.6292,0.004893
87.076,68.6595,0.004893
87.107,68.6917,0.004667
87.138,68.7229,0.004667
87.169,68.7571,0.004667
87.200,68.7895,0.004667
87.231,68.8246,0.004667
87.262,68.8586,0.004667
87.293,68.8950,0.004667
87.325,68.9321,0.004667
87.356,68.9702,0.004357
87.387,69.0081,0.004357
87.418,69.0456,0.004357
87.448,69.0842,0.004357
87.479,69.1245,0.004357
87.510,69.1649,0.004357
87.541,69.2061,0.004357
87.572,69.2481,0.004357
87.602,69.2902,0.003914
87.633,69.3334,0.003914
87.664,69.3785,0.003914
87.695,69.4237,0.003914
87.726,69.4694,0.003914
87.758,69.5186,0.003914
87.789,69.5642,0.003914
87.819,69.6118,0.003914
87.850,69.6606,0.003435
87.881,69.7095,0.003435
87.912,69.7601,0.003435
87.943,69.8108,0.003435
87.974,69.8629,0.003435
88.005,69.9150,0.003435
88.036,69.9679,0.003435
88.068,70.0230,0.003435
88.099,70.0777,0.002908
88.130,70.1340,0.002908
88.162,70.1908,0.002908
88.193,70.2481,0.002908
88.224,70.3075,0.002908
88.255,70.3641,0.002908
88.286,70.4246,0.002908
88.316,70.4810,0.002908
88.347,70.5422,0.002908
88.379,70.6016,0.002211
88.411,70.6622,0.002211
88.441,70.7188,0.002211
88.472,70.7770,0.002211
88.502,70.8316,0.002211
88.532,70.8861,0.002211
88.564,70.9420,0.002211
88.599,71.0040,0.002211
88.626,71.0505,0.001393
88.657,71.1028,0.001393
88.687,71.1532,0.001393
88.718,71.2051,0.001393
88.749,71.2552,0.001393
88.780,71.3050,0.001393
88.810,71.3519,0.001393
88.841,71.4014,0.001393
88.872,71.4497,0.001393
88.903,71.4978,0.000198
88.934,71.5438,0.000198
88.965,71.5888,0.000198
88.996,71.6336,0.000198
89.028,71.6788,0.000198
89.058,71.7209,0.000198
89.088,71.7636,0.000198
89.120,71.8057,-0.002127
89.150,71.8468,-0.002127
89.181,71.8873,-0.002127
89.212,71.9280,-0.002127
89.243,71.9658,-0.002127
89.274,72.0044,-0.002127
89.305,72.0417,-0.002127
89.336,72.0789,-0.002127
89.366,72.1148,-0.007029
89.398,72.1505,-0.007029
89.429,72.1851,-0.007029
89.459,72.2195,-0.007029
89.491,72.2541,-0.007029
89.522,72.2859,-0.007029
89.553,72.3174,-0.007029
89.585,72.3498,-0.007029
89.616,72.3801,-0.017737
89.647,72.4106,-0.017737
89.678,72.4385,-0.017737
89.709,72.4676,-0.017737
89.740,72.4946,-0.017737
89.772,72.5223,-0.017737
89.803,72.5476,-0.017737
89.834,72.5736,-0.017737
89.865,72.5974,-0.036660
89.896,72.6222,-0.036660
89.927,72.6447,-0.036660
89.958,72.6674,-0.036660
89.989,72.6891,-0.036660
90.019,72.7094,-0.036660
90.051,72.7299,-0.036660
90.082,72.7494,-0.036660
90.113,72.7681,-0.036660
90.143,72.7863,-0.060420
90.175,72.8036,-0.060420
90.206,72.8199,-0.060420
90.237,72.8360,-0.060420
90.268,72.8510,-0.060420
90.299,72.8653,-0.060420
90.330,72.8790,-0.060420
90.360,72.8914,-0.082316
90.391,72.9038,-0.082316
90.423,72.9159,-0.082316
90.452,72.9259,-0.082316
90.483,72.9360,-0.082316
90.513,72.9449,-0.082316
90.544,72.9534,-0.082316
90.575,72.9613,-0.082316
90.606,72.9686,-0.098152
90.636,72.9748,-0.098152
90.667,72.9805,-0.098152
90.697,72.9853,-0.098152
90.728,72.9897,-0.098152
90.759,72.9932,-0.098152
90.790,72.9961,-0.098152
90.821,72.9982,-0.098152
90.852,72.9996,-0.098152
90.883,73.0003,-0.105040
90.916,73.0003,-0.105040
90.946,73.0003,-0.105040
90.976,73.0003,-0.105040
91.008,73.0003,-0.105040
91.039,73.0003,-0.105040
91.070,73.0003,-0.105040
91.101,73.0003,-0.100185
91.133,73.0003,-0.100185
91.163,73.0003,-0.100185
91.195,73.0003,-0.100185
91.225,73.0003,-0.100185
91.256,73.0003,-0.100185
91.287,73.0003,-0.100185
91.318,73.0003,-0.100185
91.349,73.0003,-0.090502
91.381,73.0003,-0.090502
