Elapsed Time (s),Position (mm),Force (N)
-0.006,77.3003,-0.036011
0.024,77.3003,-0.036011
0.056,77.3003,-0.036011
0.088,77.3003,-0.036011
0.119,77.3003,-0.036011
0.150,77.3003,-0.033339
0.181,77.3003,-0.033339
0.213,77.3003,-0.033339
0.242,77.3003,-0.033339
0.273,77.3003,-0.033339
0.305,77.3003,-0.033339
0.336,77.3003,-0.033339
0.367,77.3003,-0.033339
0.398,77.3003,-0.033339
0.428,77.3003,-0.031381
0.460,77.3003,-0.031381
0.491,77.3003,-0.031381
0.523,77.3003,-0.031381
0.554,77.3003,-0.031381
0.585,77.3003,-0.031381
0.616,77.3003,-0.031381
0.647,77.3003,-0.031381
0.678,77.3003,-0.029942
0.709,77.3003,-0.029942
0.741,77.3003,-0.029942
0.772,77.3003,-0.029942
0.803,77.3003,-0.029942
0.836,77.3003,-0.029942
0.866,77.3003,-0.029942
0.897,77.3003,-0.028765
0.929,77.3003,-0.028765
0.959,77.3003,-0.028765
0.990,77.3003,-0.028765
1.021,77.3003,-0.028765
1.051,77.3003,-0.028765
1.083,77.3003,-0.028765
1.113,77.3003,-0.028765
1.145,77.3003,-0.028765
1.175,77.3003,-0.027712
1.207,77.3003,-0.027712
1.237,77.3003,-0.027712
1.268,77.3003,-0.027712
1.299,77.3003,-0.027712
1.329,77.3003,-0.027712
1.362,77.3003,-0.027712
1.391,77.3003,-0.027712
1.421,77.3003,-0.027712
1.452,77.3003,-0.026836
1.484,77.3003,-0.026836
1.515,77.3003,-0.026836
1.545,77.3003,-0.026836
1.576,77.3003,-0.026836
1.608,77.3003,-0.026836
1.638,77.3003,-0.026836
1.670,77.3003,-0.026112
1.701,77.3003,-0.026112
1.732,77.3003,-0.026112
1.764,77.3003,-0.026112
1.795,77.3003,-0.026112
1.826,77.3003,-0.026112
1.857,77.3003,-0.026112
1.888,77.3003,-0.025472
1.919,77.3003,-0.025472
1.950,77.3003,-0.025472
1.981,77.3003,-0.025472
2.013,77.3003,-0.025472
2.043,77.3003,-0.025472
2.074,77.3003,-0.025472
2.105,77.3003,-0.025472
2.135,77.3003,-0.024889
2.166,77.3003,-0.024889
2.197,77.3003,-0.024889
2.228,77.3003,-0.024889
2.259,77.3003,-0.024889
2.290,77.3003,-0.024889
2.322,77.3003,-0.024889
2.352,77.3003,-0.024889
2.383,77.3003,-0.024889
2.415,77.3003,-0.024889
2.445,77.3003,-0.024390
2.475,77.3003,-0.024390
2.505,77.3003,-0.024390
2.537,77.3003,-0.024390
2.568,77.3003,-0.024390
2.599,77.3003,-0.024390
2.630,77.3003,-0.023901
2.661,77.3003,-0.023901
2.693,77.3003,-0.023901
2.723,77.3003,-0.023901
2.753,77.3003,-0.023901
2.784,77.3003,-0.023901
2.818,77.3003,-0.023901
2.847,77.3003,-0.023901
2.879,77.3003,-0.023901
2.910,77.3003,-0.023449
2.941,77.3003,-0.023449
2.971,77.3003,-0.023449
3.005,77.3003,-0.023449
3.034,77.3003,-0.023449
3.064,77.3003,-0.023449
3.096,77.3003,-0.023449
3.127,77.3003,-0.023449
3.158,77.3003,-0.023063
3.189,77.3003,-0.023063
3.220,77.3003,-0.023063
3.251,77.3003,-0.023063
3.285,77.3003,-0.023063
3.313,77.3003,-0.023063
3.345,77.3003,-0.023063
3.376,77.3003,-0.023063
3.407,77.3003,-0.023063
3.438,77.3003,-0.022677
3.468,77.3003,-0.022677
3.502,77.3003,-0.022677
3.530,77.3003,-0.022677
3.560,77.3003,-0.022677
3.595,77.3003,-0.022677
3.622,77.3003,-0.022677
3.653,77.3003,-0.022367
3.684,77.3003,-0.022367
3.715,77.3003,-0.022367
3.747,77.3003,-0.022367
3.778,77.3003,-0.022367
3.809,77.3003,-0.022367
3.840,77.3003,-0.022367
3.871,77.3003,-0.022367
3.902,77.3003,-0.022047
3.932,77.3003,-0.022047
3.963,77.3003,-0.022047
3.994,77.3003,-0.022047
4.025,77.3003,-0.022047
4.056,77.3003,-0.022047
4.087,77.3003,-0.022047
4.118,77.3003,-0.022047
4.149,77.3003,-0.021727
4.181,77.3003,-0.021727
4.212,77.3002,-0.021727
4.244,77.2995,-0.021727
4.275,77.2980,-0.021727
4.306,77.2957,-0.021727
4.337,77.2928,-0.021727
4.368,77.2890,-0.021727
4.400,77.2846,-0.021247
4.430,77.2795,-0.021247
4.462,77.2735,-0.021247
4.496,77.2660,-0.021247
4.524,77.2594,-0.021247
4.556,77.2513,-0.021247
4.587,77.2423,-0.021247
4.618,77.2327,-0.021247
4.649,77.2226,-0.016392
4.679,77.2118,-0.016392
4.710,77.2004,-0.016392
4.741,77.1878,-0.016392
4.772,77.1748,-0.016392
4.802,77.1609,-0.016392
4.833,77.1465,-0.016392
4.864,77.1312,-0.016392
4.896,77.1148,-0.003952
4.926,77.0985,-0.003952
4.957,77.0807,-0.003952
4.988,77.0625,-0.003952
5.019,77.0437,-0.003952
5.050,77.0239,-0.003952
5.081,77.0034,-0.003952
5.113,76.9818,-0.003952
5.147,76.9577,0.013682
5.175,76.9368,0.013682
5.207,76.9138,0.013682
5.237,76.8894,0.013682
5.268,76.8651,0.013682
5.298,76.8398,0.013682
5.330,76.8138,0.013682
5.361,76.7860,0.013682
5.392,76.7591,0.034242
5.424,76.7292,0.034242
5.454,76.7013,0.034242
5.486,76.6700,0.034242
5.517,76.6397,0.034242
5.549,76.6056,0.034242
5.578,76.5777,0.034242
5.609,76.5437,0.034242
5.643,76.5070,0.058255
5.672,76.4760,0.058255
5.704,76.4385,0.058255
5.734,76.4050,0.058255
5.765,76.3694,0.058255
5.795,76.3317,0.058255
5.826,76.2946,0.058255
5.857,76.2564,0.058255
5.887,76.2180,0.088404
5.921,76.1735,0.088404
5.949,76.1369,0.088404
5.980,76.0948,0.088404
6.012,76.0522,0.088404
6.042,76.0097,0.088404
6.074,75.9652,0.088404
6.105,75.9205,0.088404
6.138,75.8728,0.115278
6.168,75.8279,0.115278
6.198,75.7829,0.115278
6.230,75.7345,0.115278
6.260,75.6877,0.115278
6.291,75.6390,0.115278
6.323,75.5874,0.115278
6.353,75.5390,0.115278
6.385,75.4870,0.115278
6.415,75.4369,0.081516
6.446,75.3834,0.081516
6.477,75.3310,0.081516
6.508,75.2755,0.081516
6.539,75.2232,0.081516
6.570,75.1668,0.081516
6.600,75.1136,0.081516
6.631,75.0569,0.081516
6.661,75.0008,0.024776
6.692,74.9420,0.024776
6.722,74.8827,0.024776
6.753,74.8245,0.024776
6.784,74.7627,0.024776
6.815,74.7049,0.024776
6.846,74.6454,0.024776
6.878,74.5853,0.024776
6.908,74.5292,0.011254
6.940,74.4694,0.011254
6.971,74.4142,0.011254
7.002,74.3584,0.011254
7.033,74.3032,0.011254
7.064,74.2480,0.011254
7.094,74.1968,0.011254
7.125,74.1426,0.011254
7.156,74.0916,0.010200
7.188,74.0389,0.010200
7.218,73.9892,0.010200
7.250,73.9376,0.010200
7.281,73.8885,0.010200
7.311,73.8417,0.010200
7.343,73.7930,0.010200
7.374,73.7461,0.010200
7.405,73.6991,0.010200
7.436,73.6536,0.009090
7.467,73.6094,0.009090
7.498,73.5646,0.009090
7.529,73.5215,0.009090
7.561,73.4769,0.009090
7.591,73.4364,0.009090
7.623,73.3945,0.009090
7.653,73.3554,0.008337
7.684,73.3156,0.008337
7.715,73.2761,0.008337
7.746,73.2378,0.008337
7.777,73.2009,0.008337
7.809,73.1633,0.008337
7.838,73.1291,0.008337
7.869,73.0927,0.008337
7.900,73.0590,0.007763
7.930,73.0264,0.007763
7.961,72.9931,0.007763
7.992,72.9605,0.007763
8.023,72.9286,0.007763
8.054,72.8970,0.007763
8.085,72.8674,0.007763
8.117,72.8369,0.007763
8.147,72.8091,0.007330
8.179,72.7797,0.007330
8.208,72.7540,0.007330
8.238,72.7278,0.007330
8.270,72.7012,0.007330
8.301,72.6755,0.007330
8.332,72.6513,0.007330
8.363,72.6273,0.007330
8.395,72.6042,0.006926
8.426,72.5815,0.006926
8.457,72.5604,0.006926
8.487,72.5396,0.006926
8.519,72.5195,0.006926
8.549,72.4999,0.006926
8.580,72.4814,0.006926
8.611,72.4634,0.006926
8.642,72.4461,0.006540
8.674,72.4293,0.006540
8.704,72.4142,0.006540
8.737,72.3977,0.006540
8.767,72.3844,0.006540
8.798,72.3703,0.006540
8.828,72.3580,0.006540
8.859,72.3460,0.006540
8.891,72.3343,0.006257
8.921,72.3235,0.006257
8.951,72.3140,0.006257
8.983,72.3047,0.006257
9.015,72.2960,0.006257
9.046,72.2882,0.006257
9.076,72.2811,0.006257
9.107,72.2750,0.006257
9.138,72.2692,0.006257
9.169,72.2645,0.006013
9.202,72.2600,0.006013
9.229,72.2570,0.006013
9.261,72.2542,0.006013
9.291,72.2522,0.006013
9.323,72.2508,0.006013
9.354,72.2503,0.006013
9.386,72.2503,0.006013
9.416,72.2503,0.005787
9.447,72.2503,0.005787
9.480,72.2503,0.005787
9.508,72.2503,0.005787
9.539,72.2503,0.005787
9.570,72.2503,0.005787
9.601,72.2503,0.005787
9.632,72.2503,0.005787
9.663,72.2503,0.005712
9.694,72.2503,0.005712
9.725,72.2503,0.005712
9.757,72.2503,0.005712
9.787,72.2503,0.005712
9.821,72.2503,0.005712
9.849,72.2503,0.005712
9.880,72.2503,0.005712
9.910,72.2503,0.005702
9.940,72.2503,0.005702
9.971,72.2503,0.005702
10.003,72.2507,0.005702
10.033,72.2518,0.005702
10.064,72.2537,0.005702
10.095,72.2563,0.005702
10.128,72.2598,0.005702
10.157,72.2636,0.005702
10.188,72.2683,0.005533
10.218,72.2738,0.005533
10.249,72.2801,0.005533
10.281,72.2871,0.005533
10.312,72.2950,0.005533
10.342,72.3031,0.005533
10.373,72.3121,0.005533
10.404,72.3218,0.005307
10.435,72.3323,0.005307
10.466,72.3439,0.005307
10.497,72.3554,0.005307
10.528,72.3685,0.005307
10.558,72.3814,0.005307
10.589,72.3960,0.005307
10.621,72.4110,0.005307
10.651,72.4265,0.005138
10.683,72.4432,0.005138
10.714,72.4603,0.005138
10.745,72.4778,0.005138
10.776,72.4962,0.005138
10.806,72.5153,0.005138
10.836,72.5349,0.005138
10.867,72.5551,0.005138
10.898,72.5769,0.004978
10.929,72.5996,0.004978
10.960,72.6216,0.004978
10.991,72.6457,0.004978
11.022,72.6697,0.004978
11.053,72.6947,0.004978
11.084,72.7202,0.004978
11.115,72.7473,0.004978
11.147,72.7756,0.004893
11.183,72.8083,0.004893
11.209,72.8320,0.004893
11.240,72.8608,0.004893
11.271,72.8917,0.004893
11.301,72.9214,0.004893
11.334,72.9552,0.004893
11.363,72.9863,0.004893
11.394,73.0177,0.004808
11.425,73.0515,0.004808
11.456,73.0860,0.004808
11.487,73.1221,0.004808
11.518,73.1581,0.004808
11.550,73.1958,0.004808
11.580,73.2315,0.004808
11.611,73.2707,0.004808
11.642,73.3089,0.004808
11.673,73.3485,0.004667
11.704,73.3889,0.004667
11.735,73.4294,0.004667
11.766,73.4727,0.004667
11.802,73.5220,0.004667
11.828,73.5588,0.004667
11.859,73.6015,0.004667
11.889,73.6460,0.004498
11.920,73.6910,0.004498
11.951,73.7369,0.004498
11.984,73.7864,0.004498
12.013,73.8305,0.004498
12.044,73.8783,0.004498
12.075,73.9275,0.004498
12.106,73.9784,0.004498
12.142,74.0375,0.004310
12.168,74.0802,0.004310
12.199,74.1312,0.004310
12.230,74.1840,0.004310
12.261,74.2373,0.004310
12.293,74.2936,0.004310
12.323,74.3462,0.004310
12.354,74.4010,0.004310
12.384,74.4577,0.004310
12.416,74.5155,0.004131
12.446,74.5713,0.004131
12.477,74.6295,0.004131
12.508,74.6911,0.004131
12.539,74.7488,0.004131
12.574,74.8181,0.004131
12.601,74.8680,0.004131
12.632,74.9274,0.004131
12.663,74.9844,0.003877
12.697,75.0476,0.003877
12.725,75.0989,0.003877
12.756,75.1536,0.003877
12.787,75.2093,0.003877
12.818,75.2624,0.003877
12.849,75.3171,0.003877
12.880,75.3687,0.003877
12.911,75.4200,0.003877
12.941,75.4696,0.003623
12.971,75.5205,0.003623
13.003,75.5702,0.003623
13.035,75.6216,0.003623
13.065,75.6678,0.003623
13.096,75.7166,0.003623
13.130,75.7670,0.003623
13.157,75.8075,0.003096
13.188,75.8539,0.003096
13.218,75.8968,0.003096
13.251,75.9445,0.003096
13.279,75.9818,0.003096
13.310,76.0245,0.003096
13.341,76.0659,0.003096
13.372,76.1070,0.003096
13.403,76.1478,0.003096
13.434,76.1875,0.001948
13.464,76.2260,0.001948
13.497,76.2668,0.001948
13.526,76.3015,0.001948
13.557,76.3383,0.001948
13.588,76.3740,0.001948
13.621,76.4123,0.001948
13.649,76.4426,0.001948
13.680,76.4772,-0.000056
13.711,76.5098,-0.000056
13.742,76.5433,-0.000056
13.772,76.5736,-0.000056
13.803,76.6052,-0.000056
13.834,76.6350,-0.000056
13.866,76.6661,-0.000056
13.895,76.6921,-0.000056
13.929,76.7244,-0.003416
13.957,76.7478,-0.003416
13.988,76.7744,-0.003416
14.019,76.8009,-0.003416
14.051,76.8257,-0.003416
14.082,76.8506,-0.003416
14.114,76.8747,-0.003416
14.145,76.8979,-0.003416
14.176,76.9208,-0.009240
14.211,76.9450,-0.009240
14.238,76.9632,-0.009240
14.269,76.9832,-0.009240
14.301,77.0032,-0.009240
14.335,77.0234,-0.009240
14.363,77.0394,-0.009240
14.394,77.0566,-0.018292
14.425,77.0731,-0.018292
14.457,77.0890,-0.018292
14.487,77.1039,-0.018292
14.513,77.1157,-0.018292
14.550,77.1315,-0.018292
14.580,77.1441,-0.018292
14.611,77.1565,-0.018292
14.644,77.1681,-0.028681
14.675,77.1787,-0.028681
14.706,77.1888,-0.028681
14.736,77.1975,-0.028681
14.768,77.2062,-0.028681
14.799,77.2139,-0.028681
14.830,77.2208,-0.028681
14.861,77.2269,-0.028681
14.892,77.2325,-0.036933
14.924,77.2373,-0.036933
14.954,77.2412,-0.036933
14.985,77.2445,-0.036933
15.016,77.2470,-0.036933
15.047,77.2489,-0.036933
15.078,77.2500,-0.036933
15.109,77.2504,-0.036933
15.140,77.2504,-0.040226
15.171,77.2504,-0.040226
15.202,77.2504,-0.040226
15.233,77.2504,-0.040226
15.264,77.2504,-0.040226
15.295,77.2504,-0.040226
15.326,77.2504,-0.040226
15.359,77.2504,-0.040226
15.388,77.2504,-0.038439
15.419,77.2504,-0.038439
15.450,77.2504,-0.038439
15.480,77.2504,-0.038439
15.512,77.2504,-0.038439
15.544,77.2504,-0.038439
15.573,77.2504,-0.038439
15.605,77.2504,-0.038439
15.636,77.2504,-0.038439
15.667,77.2504,-0.035117
15.699,77.2504,-0.035117
15.732,77.2504,-0.035117
15.762,77.2504,-0.035117
15.792,77.2504,-0.035117
15.823,77.2504,-0.035117
15.853,77.2504,-0.035117
15.885,77.2504,-0.032755
15.916,77.2504,-0.032755
15.946,77.2504,-0.032755
15.977,77.2504,-0.032755
16.009,77.2504,-0.032755
16.040,77.2504,-0.032755
16.070,77.2504,-0.032755
16.100,77.2504,-0.032755
16.132,77.2504,-0.032755
16.163,77.2504,-0.031071
16.195,77.2504,-0.031071
16.227,77.2504,-0.031071
16.256,77.2504,-0.031071
16.287,77.2504,-0.031071
16.318,77.2504,-0.031071
16.348,77.2504,-0.031071
16.382,77.2504,-0.031071
16.410,77.2504,-0.031071
16.441,77.2504,-0.029725
16.473,77.2504,-0.029725
16.504,77.2504,-0.029725
16.535,77.2504,-0.029725
16.566,77.2504,-0.029725
16.597,77.2504,-0.029725
16.629,77.2504,-0.029725
16.660,77.2504,-0.029725
16.691,77.2504,-0.028624
16.722,77.2504,-0.028624
16.757,77.2504,-0.028624
16.784,77.2504,-0.028624
16.815,77.2504,-0.028624
16.846,77.2504,-0.028624
16.878,77.2504,-0.028624
16.909,77.2504,-0.028624
16.940,77.2504,-0.027683
16.972,77.2504,-0.027683
17.003,77.2504,-0.027683
17.035,77.2504,-0.027683
17.065,77.2504,-0.027683
17.097,77.2504,-0.027683
17.128,77.2504,-0.027683
17.161,77.2504,-0.026818
17.190,77.2504,-0.026818
17.221,77.2504,-0.026818
17.252,77.2504,-0.026818
17.282,77.2504,-0.026818
17.313,77.2504,-0.026818
17.344,77.2504,-0.026818
17.375,77.2504,-0.026818
17.406,77.2504,-0.026093
17.437,77.2504,-0.026093
17.467,77.2504,-0.026093
17.498,77.2504,-0.026093
17.530,77.2504,-0.026093
17.560,77.2504,-0.026093
17.591,77.2504,-0.026093
17.622,77.2504,-0.026093
17.654,77.2504,-0.025434
17.685,77.2504,-0.025434
17.715,77.2504,-0.025434
17.746,77.2504,-0.025434
17.776,77.2504,-0.025434
17.808,77.2504,-0.025434
17.838,77.2504,-0.025434
17.868,77.2504,-0.025434
17.899,77.2504,-0.024842
17.931,77.2504,-0.024842
17.961,77.2504,-0.024842
17.992,77.2504,-0.024842
18.023,77.2504,-0.024842
18.053,77.2504,-0.024842
18.085,77.2504,-0.024842
18.117,77.2504,-0.024842
18.148,77.2504,-0.024842
18.179,77.2504,-0.024380
18.210,77.2504,-0.024380
18.241,77.2504,-0.024380
18.275,77.2504,-0.024380
18.304,77.2504,-0.024380
18.335,77.2504,-0.024380
18.366,77.2504,-0.024380
18.396,77.2504,-0.024380
18.427,77.2504,-0.023919
18.458,77.2504,-0.023919
18.488,77.2504,-0.023919
18.520,77.2504,-0.023919
18.552,77.2504,-0.023919
18.582,77.2504,-0.023919
18.614,77.2504,-0.023919
18.645,77.2504,-0.023487
18.676,77.2504,-0.023487
18.706,77.2504,-0.023487
18.737,77.2504,-0.023487
18.768,77.2504,-0.023487
18.802,77.2504,-0.023487
18.831,77.2504,-0.023487
18.862,77.2504,-0.023487
18.893,77.2504,-0.023487
18.923,77.2504,-0.023129
18.954,77.2504,-0.023129
18.986,77.2504,-0.023129
19.015,77.2504,-0.023129
19.047,77.2504,-0.023129
19.078,77.2504,-0.023129
19.109,77.2504,-0.023129
19.139,77.2504,-0.022781
19.171,77.2504,-0.022781
19.202,77.2504,-0.022781
19.234,77.2504,-0.022781
19.266,77.2504,-0.022781
19.295,77.2504,-0.022781
19.327,77.2504,-0.022781
19.358,77.2504,-0.022781
19.389,77.2504,-0.022423
19.420,77.2504,-0.022423
19.450,77.2499,-0.022423
19.481,77.2486,-0.022423
19.512,77.2466,-0.022423
19.544,77.2439,-0.022423
19.574,77.2406,-0.022423
19.606,77.2362,-0.022423
19.636,77.2315,-0.021887
19.670,77.2253,-0.021887
19.701,77.2190,-0.021887
19.729,77.2127,-0.021887
19.760,77.2047,-0.021887
19.791,77.1963,-0.021887
19.822,77.1871,-0.021887
19.853,77.1768,-0.021887
19.885,77.1659,-0.016316
19.916,77.1545,-0.016316
19.947,77.1422,-0.016316
19.978,77.1294,-0.016316
20.010,77.1157,-0.016316
20.040,77.1014,-0.016316
20.071,77.0864,-0.016316
20.103,77.0704,-0.016316
20.136,77.0524,-0.016316
20.165,77.0362,-0.016316
20.195,77.0187,-0.002813
20.227,76.9997,-0.002813
20.257,76.9802,-0.002813
20.288,76.9610,-0.002813
20.318,76.9398,-0.002813
20.350,76.9181,-0.002813
20.381,76.8956,-0.002813
20.412,76.8727,0.015319
20.443,76.8483,0.015319
20.475,76.8232,0.015319
20.505,76.7988,0.015319
20.536,76.7731,0.015319
20.568,76.7457,0.015319
20.599,76.7178,0.015319
20.630,76.6900,0.015319
20.661,76.6612,0.036058
20.692,76.6316,0.036058
20.723,76.6012,0.036058
20.755,76.5691,0.036058
20.786,76.5370,0.036058
20.817,76.5036,0.036058
20.848,76.4711,0.036058
20.879,76.4374,0.036058
20.909,76.4034,0.060166
20.940,76.3684,0.060166
20.972,76.3303,0.060166
21.003,76.2943,0.060166
21.033,76.2561,0.060166
21.064,76.2181,0.060166
21.096,76.1759,0.060166
21.127,76.1379,0.060166
21.158,76.0971,0.089176
21.189,76.0568,0.089176
21.221,76.0126,0.089176
21.253,75.9681,0.089176
21.282,75.9271,0.089176
21.313,75.8835,0.089176
21.344,75.8382,0.089176
21.374,75.7948,0.089176
21.406,75.7472,0.106706
21.437,75.6999,0.106706
21.468,75.6523,0.106706
21.499,75.6032,0.106706
21.529,75.5556,0.106706
21.560,75.5051,0.106706
21.591,75.4546,0.106706
21.623,75.4022,0.106706
21.654,75.3502,0.061784
21.684,75.2977,0.061784
21.715,75.2443,0.061784
21.747,75.1888,0.061784
21.777,75.1345,0.061784
21.808,75.0796,0.061784
21.840,75.0207,0.061784
21.871,74.9642,0.061784
21.902,74.9058,0.061784
21.932,74.8476,0.013305
21.963,74.7887,0.013305
21.994,74.7303,0.013305
22.026,74.6669,0.013305
22.056,74.6085,0.013305
22.086,74.5516,0.013305
22.118,74.4915,0.013305
22.148,74.4374,0.013305
22.179,74.3796,0.013305
22.210,74.3250,0.011028
22.240,74.2699,0.011028
22.271,74.2160,0.011028
22.302,74.1633,0.011028
22.333,74.1085,0.011028
22.364,74.0571,0.011028
22.397,74.0008,0.011028
22.426,73.9551,0.009974
22.456,73.9049,0.009974
22.487,73.8567,0.009974
22.519,73.8072,0.009974
22.549,73.7590,0.009974
22.579,73.7140,0.009974
22.613,73.6624,0.009974
22.641,73.6220,0.009974
22.672,73.5765,0.008939
22.702,73.5331,0.008939
22.734,73.4884,0.008939
22.766,73.4449,0.008939
22.797,73.4019,0.008939
22.827,73.3623,0.008939
22.859,73.3192,0.008939
22.889,73.2809,0.008177
22.920,73.2406,0.008177
22.951,73.2031,0.008177
22.982,73.1650,0.008177
23.013,73.1281,0.008177
23.044,73.0917,0.008177
23.074,73.0564,0.008177
23.105,73.0226,0.008177
23.136,72.9888,0.007650
23.166,72.9565,0.007650
23.196,72.9243,0.007650
23.227,72.8918,0.007650
23.258,72.8609,0.007650
23.288,72.8299,0.007650
23.320,72.8008,0.007650
23.351,72.7708,0.007650
23.382,72.7426,0.007255
23.413,72.7147,0.007255
23.444,72.6880,0.007255
23.474,72.6621,0.007255
23.506,72.6361,0.007255
23.537,72.6104,0.007255
23.568,72.5874,0.007255
23.598,72.5638,0.007255
23.629,72.5421,0.006841
23.660,72.5196,0.006841
23.692,72.4979,0.006841
23.722,72.4781,0.006841
23.753,72.4578,0.006841
23.784,72.4396,0.006841
23.815,72.4209,0.006841
23.846,72.4033,0.006841
23.878,72.3865,0.006841
23.909,72.3702,0.006474
23.940,72.3550,0.006474
23.971,72.3400,0.006474
24.002,72.3266,0.006474
24.033,72.3132,0.006474
24.064,72.3006,0.006474
24.095,72.2889,0.006474
24.126,72.2783,0.006229
24.157,72.2680,0.006229
24.189,72.2578,0.006229
24.220,72.2491,0.006229
24.250,72.2412,0.006229
24.282,72.2339,0.006229
24.314,72.2270,0.006229
24.344,72.2213,0.006229
24.375,72.2161,0.006229
24.406,72.2117,0.006022
24.437,72.2078,0.006022
24.468,72.2051,0.006022
24.498,72.2028,0.006022
24.530,72.2012,0.006022
24.561,72.2005,0.006022
24.592,72.2004,0.006022
24.624,72.2004,0.006022
24.655,72.2004,0.005862
24.686,72.2004,0.005862
24.716,72.2004,0.005862
24.747,72.2005,0.005862
24.778,72.2011,0.005862
24.811,72.2027,0.005862
24.840,72.2047,0.005862
24.870,72.2076,0.005862
24.902,72.2113,0.005862
24.932,72.2154,0.005768
24.963,72.2206,0.005768
24.994,72.2263,0.005768
25.026,72.2331,0.005768
25.056,72.2401,0.005768
25.087,72.2481,0.005768
25.118,72.2568,0.005768
25.151,72.2666,0.005768
25.181,72.2765,0.005599
25.214,72.2881,0.005599
25.244,72.2996,0.005599
25.274,72.3115,0.005599
25.306,72.3251,0.005599
25.335,72.3379,0.005599
25.366,72.3525,0.005599
25.396,72.3669,0.005599
25.427,72.3833,0.005392
25.459,72.4002,0.005392
25.489,72.4173,0.005392
25.520,72.4351,0.005392
25.553,72.4550,0.005392
25.582,72.4738,0.005392
25.614,72.4948,0.005392
25.645,72.5159,0.005232
25.677,72.5385,0.005232
25.708,72.5608,0.005232
25.739,72.5841,0.005232
25.770,72.6079,0.005232
25.801,72.6323,0.005232
25.832,72.6589,0.005232
25.863,72.6841,0.005232
25.894,72.7110,0.005232
25.925,72.7385,0.005072
25.956,72.7672,0.005072
25.988,72.7972,0.005072
26.018,72.8263,0.005072
26.049,72.8561,0.005072
26.080,72.8880,0.005072
26.110,72.9188,0.005072
26.142,72.9523,0.005072
26.173,72.9863,0.004940
26.204,73.0205,0.004940
26.235,73.0556,0.004940
26.266,73.0915,0.004940
26.297,73.1269,0.004940
26.328,73.1651,0.004940
26.359,73.2017,0.004940
26.391,73.2420,0.004940
26.422,73.2806,0.004799
26.453,73.3212,0.004799
26.484,73.3618,0.004799
26.515,73.4041,0.004799
26.546,73.4454,0.004799
26.578,73.4895,0.004799
26.608,73.5324,0.004799
26.640,73.5779,0.004799
26.670,73.6216,0.004639
26.702,73.6691,0.004639
26.733,73.7146,0.004639
26.764,73.7623,0.004639
26.795,73.8103,0.004639
26.827,73.8613,0.004639
26.857,73.9109,0.004639
26.888,73.9593,0.004639
26.919,74.0111,0.004441
26.950,74.0621,0.004441
26.981,74.1138,0.004441
27.012,74.1684,0.004441
27.043,74.2201,0.004441
27.074,74.2758,0.004441
27.104,74.3299,0.004441
27.135,74.3868,0.004441
27.166,74.4426,0.004206
27.197,74.5010,0.004206
27.228,74.5581,0.004206
27.260,74.6204,0.004206
27.291,74.6790,0.004206
27.324,74.7419,0.004206
27.354,74.8013,0.004206
27.385,74.8581,0.004206
27.416,74.9169,0.003961
27.448,74.9750,0.003961
27.479,75.0327,0.003961
27.510,75.0879,0.003961
27.540,75.1420,0.003961
27.571,75.1945,0.003961
27.601,75.2485,0.003961
27.633,75.3019,0.003698
27.663,75.3528,0.003698
27.694,75.4031,0.003698
27.725,75.4544,0.003698
27.756,75.5041,0.003698
27.787,75.5542,0.003698
27.818,75.6027,0.003698
27.850,75.6522,0.003698
27.880,75.6992,0.003209
27.912,75.7450,0.003209
27.946,75.7961,0.003209
27.974,75.8359,0.003209
28.007,75.8845,0.003209
28.036,75.9237,0.003209
28.067,75.9667,0.003209
28.098,76.0088,0.003209
28.129,76.0502,0.003209
28.160,76.0901,0.002145
28.191,76.1307,0.002145
28.221,76.1687,0.002145
28.253,76.2082,0.002145
28.284,76.2456,0.002145
28.315,76.2830,0.002145
28.345,76.3176,0.002145
28.376,76.3532,0.002145
28.407,76.3883,0.000169
28.439,76.4222,0.000169
28.470,76.4554,0.000169
28.500,76.4879,0.000169
28.531,76.5192,0.000169
28.562,76.5507,0.000169
28.593,76.5810,0.000169
28.624,76.6109,0.000169
28.655,76.6390,0.000169
28.685,76.6669,-0.003152
28.717,76.6946,-0.003152
28.747,76.7210,-0.003152
28.777,76.7461,-0.003152
28.809,76.7725,-0.003152
28.840,76.7967,-0.003152
28.871,76.8214,-0.003152
28.901,76.8436,-0.008676
28.932,76.8655,-0.008676
28.963,76.8872,-0.008676
28.994,76.9084,-0.008676
29.028,76.9304,-0.008676
29.069,76.9563,-0.008676
29.101,76.9755,-0.008676
29.132,76.9929,-0.017361
29.163,77.0102,-0.017361
29.194,77.0260,-0.017361
29.225,77.0419,-0.017361
29.258,77.0572,-0.017361
29.286,77.0705,-0.017361
29.317,77.0837,-0.017361
29.349,77.0969,-0.017361
29.380,77.1087,-0.017361
29.411,77.1196,-0.027749
29.442,77.1302,-0.027749
29.473,77.1400,-0.027749
29.505,77.1492,-0.027749
29.535,77.1572,-0.027749
29.571,77.1660,-0.027749
29.612,77.1747,-0.027749
29.642,77.1804,-0.027749
29.677,77.1859,-0.036284
29.704,77.1897,-0.036284
29.735,77.1932,-0.036284
29.766,77.1962,-0.036284
29.797,77.1983,-0.036284
29.828,77.1996,-0.036284
29.859,77.2002,-0.036284
29.890,77.2004,-0.039925
29.922,77.2004,-0.039925
29.954,77.2004,-0.039925
29.985,77.2004,-0.039925
30.016,77.2004,-0.039925
30.047,77.2004,-0.039925
30.079,77.2004,-0.039925
30.109,77.2004,-0.039925
30.141,77.2004,-0.039925
30.172,77.2004,-0.038288
30.203,77.2004,-0.038288
30.234,77.2004,-0.038288
30.265,77.2004,-0.038288
30.297,77.2004,-0.038288
30.327,77.2004,-0.038288
30.358,77.2004,-0.038288
30.390,77.2004,-0.035051
30.421,77.2004,-0.035051
30.452,77.2004,-0.035051
30.483,77.2004,-0.035051
30.514,77.2004,-0.035051
30.544,77.2004,-0.035051
30.575,77.2004,-0.035051
30.606,77.2004,-0.035051
30.637,77.2004,-0.032717
30.668,77.2004,-0.032717
30.699,77.2004,-0.032717
30.730,77.2004,-0.032717
30.761,77.2004,-0.032717
30.792,77.2004,-0.032717
30.823,77.2004,-0.032717
30.854,77.2004,-0.032717
30.885,77.2004,-0.030948
30.919,77.2004,-0.030948
30.946,77.2004,-0.030948
30.978,77.2004,-0.030948
31.007,77.2004,-0.030948
31.041,77.2004,-0.030948
31.069,77.2004,-0.030948
31.099,77.2004,-0.030948
31.130,77.2004,-0.030948
31.161,77.2004,-0.030948
31.192,77.2004,-0.029603
31.223,77.2004,-0.029603
31.254,77.2004,-0.029603
31.284,77.2004,-0.029603
31.316,77.2004,-0.029603
31.347,77.2004,-0.029603
31.379,77.2004,-0.029603
31.409,77.2004,-0.029603
31.440,77.2004,-0.028455
31.472,77.2004,-0.028455
31.503,77.2004,-0.028455
31.534,77.2004,-0.028455
31.570,77.2004,-0.028455
31.596,77.2004,-0.028455
31.628,77.2004,-0.028455
31.658,77.2004,-0.027495
31.692,77.2004,-0.027495
31.720,77.2004,-0.027495
31.751,77.2004,-0.027495
31.781,77.2004,-0.027495
31.813,77.2004,-0.027495
31.843,77.2004,-0.027495
31.876,77.2004,-0.027495
31.905,77.2004,-0.027495
31.936,77.2004,-0.026723
31.968,77.2004,-0.026723
31.999,77.2004,-0.026723
32.030,77.2004,-0.026723
32.066,77.2004,-0.026723
32.092,77.2004,-0.026723
32.123,77.2004,-0.026723
32.155,77.2004,-0.026065
32.186,77.2004,-0.026065
32.217,77.2004,-0.026065
32.248,77.2004,-0.026065
32.278,77.2004,-0.026065
32.311,77.2004,-0.026065
32.341,77.2004,-0.026065
32.372,77.2004,-0.026065
32.404,77.2004,-0.025434
32.436,77.2004,-0.025434
32.466,77.2004,-0.025434
32.498,77.2004,-0.025434
32.529,77.2004,-0.025434
32.560,77.2004,-0.025434
32.592,77.2004,-0.025434
32.623,77.2004,-0.024795
32.654,77.2004,-0.024795
32.685,77.2004,-0.024795
32.716,77.2004,-0.024795
32.747,77.2004,-0.024795
32.779,77.2004,-0.024795
32.810,77.2004,-0.024795
32.843,77.2004,-0.024795
32.871,77.2004,-0.024795
32.902,77.2004,-0.024192
32.932,77.2004,-0.024192
32.963,77.2004,-0.024192
32.994,77.2004,-0.024192
33.025,77.2004,-0.024192
33.055,77.2004,-0.024192
33.087,77.2004,-0.024192
33.119,77.2004,-0.023703
33.149,77.2004,-0.023703
33.181,77.2004,-0.023703
33.212,77.2004,-0.023703
33.243,77.2004,-0.023703
33.277,77.2004,-0.023703
33.304,77.2004,-0.023703
33.335,77.2004,-0.023703
33.366,77.2004,-0.023703
33.397,77.2004,-0.023703
33.428,77.2004,-0.023355
33.459,77.2004,-0.023355
33.490,77.2004,-0.023355
33.521,77.2004,-0.023355
33.552,77.2004,-0.023355
33.582,77.2004,-0.023355
33.613,77.2004,-0.023355
33.645,77.2004,-0.023110
33.676,77.2004,-0.023110
33.707,77.2004,-0.023110
33.738,77.2004,-0.023110
33.769,77.2004,-0.023110
33.800,77.2004,-0.023110
33.831,77.2004,-0.023110
33.861,77.2004,-0.023110
33.892,77.2004,-0.023110
33.924,77.2004,-0.022837
33.954,77.2004,-0.022837
33.985,77.2004,-0.022837
34.015,77.2004,-0.022837
34.047,77.2004,-0.022837
34.077,77.2004,-0.022837
34.109,77.2004,-0.022837
34.140,77.2004,-0.022837
34.171,77.2004,-0.022357
34.201,77.2004,-0.022357
34.232,77.2001,-0.022357
34.263,77.1991,-0.022357
34.294,77.1973,-0.022357
34.325,77.1949,-0.022357
34.355,77.1917,-0.022357
34.386,77.1880,-0.021830
34.420,77.1828,-0.021830
34.448,77.1778,-0.021830
34.480,77.1716,-0.021830
34.511,77.1649,-0.021830
34.543,77.1571,-0.021830
34.574,77.1488,-0.021830
34.605,77.1395,-0.021830
34.636,77.1301,-0.017380
34.666,77.1196,-0.017380
34.697,77.1086,-0.017380
34.727,77.0971,-0.017380
34.758,77.0842,-0.017380
34.789,77.0714,-0.017380
34.822,77.0555,-0.017380
34.851,77.0421,-0.017380
34.882,77.0265,-0.017380
34.913,77.0105,-0.017380
34.944,76.9930,-0.005279
34.975,76.9756,-0.005279
35.006,76.9568,-0.005279
35.037,76.9378,-0.005279
35.068,76.9176,-0.005279
35.099,76.8978,-0.005279
35.130,76.8761,-0.005279
35.162,76.8532,-0.005279
35.193,76.8309,0.012383
35.224,76.8068,0.012383
35.255,76.7823,0.012383
35.285,76.7585,0.012383
35.316,76.7329,0.012383
35.348,76.7058,0.012383
35.377,76.6797,0.012383
35.408,76.6522,0.032896
35.439,76.6234,0.032896
35.470,76.5946,0.032896
35.502,76.5626,0.032896
35.532,76.5336,0.032896
35.563,76.5017,0.032896
35.594,76.4691,0.032896
35.624,76.4375,0.032896
35.656,76.4033,0.056571
35.687,76.3688,0.056571
35.717,76.3341,0.056571
35.749,76.2971,0.056571
35.780,76.2611,0.056571
35.812,76.2228,0.056571
35.843,76.1845,0.056571
35.874,76.1464,0.056571
35.904,76.1062,0.085769
35.935,76.0674,0.085769
35.966,76.0250,0.085769
35.997,75.9843,0.085769
36.028,75.9407,0.085769
36.059,75.8989,0.085769
36.090,75.8546,0.085769
36.120,75.8108,0.085769
36.151,75.7665,0.108974
36.182,75.7208,0.108974
36.214,75.6731,0.108974
36.245,75.6249,0.108974
36.276,75.5764,0.108974
36.307,75.5282,0.108974
36.338,75.4781,0.108974
36.370,75.4266,0.108974
36.400,75.3762,0.074035
36.432,75.3217,0.074035
36.463,75.2698,0.074035
36.495,75.2143,0.074035
36.525,75.1629,0.074035
36.555,75.1096,0.074035
36.588,75.0497,0.074035
36.618,74.9965,0.074035
36.649,74.9381,0.021878
36.679,74.8825,0.021878
36.710,74.8236,0.021878
36.742,74.7638,0.021878
36.772,74.7045,0.021878
36.804,74.6431,0.021878
36.836,74.5812,0.021878
36.867,74.5218,0.021878
36.899,74.4617,0.011188
36.930,74.4035,0.011188
36.960,74.3476,0.011188
36.992,74.2914,0.011188
37.023,74.2347,0.011188
37.054,74.1821,0.011188
37.085,74.1272,0.011188
37.117,74.0726,0.011188
37.148,74.0195,0.010144
37.179,73.9671,0.010144
37.211,73.9150,0.010144
37.241,73.8659,0.010144
37.272,73.8170,0.010144
37.302,73.7683,0.010144
37.333,73.7218,0.010144
37.364,73.6744,0.010144
37.394,73.6273,0.009080
37.426,73.5817,0.009080
37.456,73.5365,0.009080
37.487,73.4939,0.009080
37.517,73.4495,0.009080
37.548,73.4072,0.009080
37.580,73.3636,0.009080
37.611,73.3214,0.009080
37.642,73.2810,0.009080
37.672,73.2423,0.008233
37.702,73.2035,0.008233
37.734,73.1642,0.008233
37.764,73.1267,0.008233
37.795,73.0901,0.008233
37.829,73.0493,0.008233
37.857,73.0172,0.008233
37.889,72.9806,0.008233
37.919,72.9465,0.007650
37.951,72.9129,0.007650
37.984,72.8779,0.007650
38.014,72.8465,0.007650
38.044,72.8158,0.007650
38.075,72.7851,0.007650
38.106,72.7550,0.007650
38.137,72.7259,0.007255
38.171,72.6946,0.007255
38.198,72.6699,0.007255
38.229,72.6431,0.007255
38.262,72.6156,0.007255
38.292,72.5898,0.007255
38.323,72.5646,0.007255
38.355,72.5402,0.007255
38.386,72.5168,0.006850
38.416,72.4950,0.006850
38.447,72.4732,0.006850
38.477,72.4521,0.006850
38.508,72.4319,0.006850
38.539,72.4117,0.006850
38.570,72.3931,0.006850
38.600,72.3744,0.006850
38.631,72.3574,0.006540
38.661,72.3403,0.006540
38.692,72.3244,0.006540
38.723,72.3084,0.006540
38.754,72.2941,0.006540
38.786,72.2795,0.006540
38.820,72.2650,0.006540
38.848,72.2536,0.006540
38.880,72.2412,0.006540
38.909,72.2308,0.006314
38.943,72.2192,0.006314
38.972,72.2103,0.006314
39.003,72.2012,0.006314
39.033,72.1933,0.006314
39.064,72.1857,0.006314
39.094,72.1792,0.006314
39.125,72.1731,0.006314
39.155,72.1679,0.006314
39.186,72.1632,0.006050
39.217,72.1591,0.006050
39.249,72.1558,0.006050
39.279,72.1534,0.006050
39.311,72.1516,0.006050
39.341,72.1506,0.006050
39.372,72.1503,0.006050
39.403,72.1503,0.005778
39.434,72.1503,0.005778
39.465,72.1503,0.005778
39.496,72.1503,0.005778
39.528,72.1503,0.005778
39.558,72.1504,0.005778
39.589,72.1511,0.005778
39.620,72.1526,0.005778
39.652,72.1549,0.005778
39.683,72.1578,0.005693
39.714,72.1615,0.005693
39.745,72.1659,0.005693
39.776,72.1710,0.005693
39.807,72.1769,0.005693
39.838,72.1834,0.005693
39.869,72.1907,0.005693
39.900,72.1989,0.005523
39.930,72.2073,0.005523
39.962,72.2169,0.005523
39.992,72.2269,0.005523
40.023,72.2379,0.005523
40.054,72.2496,0.005523
40.085,72.2618,0.005523
40.117,72.2754,0.005523
40.147,72.2887,0.005523
40.178,72.3032,0.005307
40.209,72.3187,0.005307
40.239,72.3343,0.005307
40.271,72.3513,0.005307
40.304,72.3704,0.005307
40.333,72.3871,0.005307
40.365,72.4066,0.005307
40.396,72.4263,0.005307
40.427,72.4469,0.005204
40.458,72.4679,0.005204
40.489,72.4897,0.005204
40.520,72.5127,0.005204
40.553,72.5372,0.005204
40.583,72.5603,0.005204
40.614,72.5853,0.005204
40.645,72.6114,0.005081
40.676,72.6374,0.005081
40.707,72.6640,0.005081
40.738,72.6924,0.005081
40.770,72.7211,0.005081
40.801,72.7505,0.005081
40.833,72.7810,0.005081
40.862,72.8104,0.005081
40.894,72.8417,0.004940
40.925,72.8748,0.004940
40.955,72.9063,0.004940
40.986,72.9393,0.004940
41.017,72.9734,0.004940
41.048,73.0086,0.004940
41.079,73.0451,0.004940
41.110,73.0812,0.004940
41.141,73.1181,0.004818
41.172,73.1565,0.004818
41.202,73.1939,0.004818
41.234,73.2341,0.004818
41.265,73.2740,0.004818
41.296,73.3143,0.004818
41.327,73.3568,0.004818
41.358,73.3993,0.004818
41.390,73.4432,0.004818
41.421,73.4874,0.004667
41.452,73.5314,0.004667
41.483,73.5763,0.004667
41.514,73.6223,0.004667
41.546,73.6704,0.004667
41.577,73.7169,0.004667
41.610,73.7708,0.004667
41.640,73.8160,0.004488
41.670,73.8651,0.004488
41.702,73.9164,0.004488
41.733,73.9681,0.004488
41.764,74.0200,0.004488
41.795,74.0719,0.004488
41.827,74.1283,0.004488
41.857,74.1789,0.004488
41.889,74.2347,0.004488
41.918,74.2878,0.004216
41.949,74.3441,0.004216
41.981,74.4027,0.004216
42.010,74.4549,0.004216
42.041,74.5133,0.004216
42.071,74.5707,0.004216
42.102,74.6318,0.004216
42.133,74.6911,0.004216
42.163,74.7487,0.004216
42.194,74.8082,0.004216
42.226,74.8667,0.003886
42.257,74.9238,0.003886
42.288,74.9810,0.003886
42.319,75.0368,0.003886
42.350,75.0911,0.003886
42.380,75.1436,0.003886
42.411,75.1969,0.003660
42.442,75.2517,0.003660
42.472,75.3019,0.003660
42.504,75.3540,0.003660
42.534,75.4046,0.003660
42.565,75.4542,0.003660
42.598,75.5079,0.003660
42.627,75.5511,0.003660
42.658,75.6007,0.003322
42.689,75.6467,0.003322
42.720,75.6945,0.003322
42.751,75.7391,0.003322
42.782,75.7853,0.003322
42.813,75.8283,0.003322
42.844,75.8723,0.003322
42.876,75.9154,0.002456
42.906,75.9568,0.002456
42.938,75.9981,0.002456
42.969,76.0396,0.002456
42.999,76.0787,0.002456
43.031,76.1181,0.002456
43.061,76.1568,0.002456
43.092,76.1934,0.002456
43.124,76.2308,0.002456
43.155,76.2673,0.000809
43.186,76.3027,0.000809
43.216,76.3367,0.000809
43.248,76.3719,0.000809
43.279,76.4048,0.000809
43.309,76.4371,0.000809
43.341,76.4698,0.000809
43.373,76.5011,0.000809
43.404,76.5331,-0.002032
43.434,76.5608,-0.002032
43.466,76.5905,-0.002032
43.496,76.6180,-0.002032
43.527,76.6455,-0.002032
43.559,76.6729,-0.002032
43.596,76.7038,-0.002032
43.637,76.7365,-0.006907
43.668,76.7607,-0.006907
43.702,76.7866,-0.006907
43.730,76.8070,-0.006907
43.763,76.8307,-0.006907
43.791,76.8498,-0.006907
43.823,76.8711,-0.006907
43.853,76.8898,-0.006907
43.883,76.9089,-0.006907
43.914,76.9269,-0.014980
43.945,76.9445,-0.014980
43.976,76.9615,-0.014980
44.007,76.9775,-0.014980
44.038,76.9934,-0.014980
44.068,77.0075,-0.014980
44.099,77.0214,-0.014980
44.130,77.0347,-0.014980
44.160,77.0471,-0.014980
44.191,77.0590,-0.025406
44.222,77.0700,-0.025406
44.252,77.0803,-0.025406
44.283,77.0899,-0.025406
44.315,77.0990,-0.025406
44.346,77.1075,-0.025406
44.377,77.1150,-0.025406
44.408,77.1217,-0.034825
44.438,77.1277,-0.034825
44.469,77.1330,-0.034825
44.500,77.1379,-0.034825
44.530,77.1416,-0.034825
44.561,77.1447,-0.034825
44.591,77.1472,-0.034825
44.622,77.1489,-0.034825
44.653,77.1500,-0.039888
44.684,77.1503,-0.039888
44.714,77.1503,-0.039888
44.740,77.1503,-0.039888
44.776,77.1503,-0.039888
44.814,77.1503,-0.039888
44.852,77.1503,-0.039888
44.882,77.1503,-0.039888
44.913,77.1503,-0.039210
44.944,77.1503,-0.039210
44.974,77.1503,-0.039210
45.005,77.1503,-0.039210
45.036,77.1503,-0.039210
45.067,77.1503,-0.039210
45.098,77.1503,-0.039210
45.128,77.1503,-0.039210
45.160,77.1503,-0.035964
45.190,77.1503,-0.035964
45.221,77.1503,-0.035964
45.251,77.1503,-0.035964
45.283,77.1503,-0.035964
45.317,77.1503,-0.035964
45.346,77.1503,-0.035964
45.376,77.1503,-0.035964
45.407,77.1503,-0.033414
45.437,77.1503,-0.033414
45.468,77.1503,-0.033414
45.499,77.1503,-0.033414
45.529,77.1503,-0.033414
45.561,77.1503,-0.033414
45.592,77.1503,-0.033414
45.623,77.1503,-0.033414
45.655,77.1503,-0.031522
45.687,77.1503,-0.031522
45.718,77.1503,-0.031522
45.748,77.1503,-0.031522
45.780,77.1503,-0.031522
45.810,77.1503,-0.031522
45.839,77.1503,-0.031522
45.872,77.1503,-0.030083
45.903,77.1503,-0.030083
45.934,77.1503,-0.030083
45.966,77.1503,-0.030083
45.997,77.1503,-0.030083
46.030,77.1503,-0.030083
46.060,77.1503,-0.030083
46.090,77.1503,-0.030083
46.121,77.1503,-0.028897
46.153,77.1503,-0.028897
46.184,77.1503,-0.028897
46.215,77.1503,-0.028897
46.247,77.1503,-0.028897
46.277,77.1503,-0.028897
46.309,77.1503,-0.028897
46.339,77.1503,-0.028897
46.371,77.1503,-0.028897
46.402,77.1503,-0.027900
46.432,77.1503,-0.027900
46.463,77.1503,-0.027900
46.494,77.1503,-0.027900
46.525,77.1503,-0.027900
46.556,77.1503,-0.027900
46.589,77.1503,-0.027900
46.618,77.1503,-0.027900
46.650,77.1503,-0.027062
46.681,77.1503,-0.027062
46.712,77.1503,-0.027062
46.743,77.1503,-0.027062
46.777,77.1503,-0.027062
46.804,77.1503,-0.027062
46.836,77.1503,-0.027062
46.868,77.1503,-0.027062
46.898,77.1503,-0.026347
46.931,77.1503,-0.026347
46.961,77.1503,-0.026347
46.992,77.1503,-0.026347
47.023,77.1503,-0.026347
47.055,77.1503,-0.026347
47.085,77.1503,-0.026347
47.118,77.1503,-0.026347
47.147,77.1503,-0.026347
47.177,77.1503,-0.025735
47.208,77.1503,-0.025735
47.239,77.1503,-0.025735
47.271,77.1503,-0.025735
47.301,77.1503,-0.025735
47.333,77.1503,-0.025735
47.364,77.1503,-0.025735
47.394,77.1503,-0.025735
47.425,77.1503,-0.025735
47.455,77.1503,-0.025133
47.486,77.1503,-0.025133
47.517,77.1503,-0.025133
47.548,77.1503,-0.025133
47.579,77.1503,-0.025133
47.610,77.1503,-0.025133
47.641,77.1503,-0.024540
47.672,77.1503,-0.024540
47.703,77.1503,-0.024540
47.734,77.1503,-0.024540
47.764,77.1503,-0.024540
47.795,77.1503,-0.024540
47.827,77.1503,-0.024540
47.857,77.1503,-0.024540
47.888,77.1503,-0.024540
47.918,77.1503,-0.024070
47.949,77.1503,-0.024070
47.980,77.1503,-0.024070
48.011,77.1503,-0.024070
48.042,77.1503,-0.024070
48.072,77.1503,-0.024070
48.104,77.1503,-0.024070
48.135,77.1503,-0.024070
48.166,77.1503,-0.023656
48.197,77.1503,-0.023656
48.227,77.1503,-0.023656
48.260,77.1503,-0.023656
48.289,77.1503,-0.023656
48.319,77.1503,-0.023656
48.350,77.1503,-0.023656
48.381,77.1503,-0.023656
48.412,77.1503,-0.023242
48.448,77.1503,-0.023242
48.475,77.1503,-0.023242
48.506,77.1503,-0.023242
48.536,77.1503,-0.023242
48.568,77.1503,-0.023242
48.599,77.1503,-0.023242
48.631,77.1503,-0.023242
48.662,77.1503,-0.022913
48.693,77.1503,-0.022913
48.724,77.1503,-0.022913
48.757,77.1503,-0.022913
48.786,77.1503,-0.022913
48.817,77.1503,-0.022913
48.848,77.1503,-0.022913
48.879,77.1503,-0.022913
48.910,77.1503,-0.022593
48.941,77.1503,-0.022593
48.971,77.1503,-0.022593
49.001,77.1498,-0.022593
49.032,77.1487,-0.022593
49.063,77.1468,-0.022593
49.094,77.1441,-0.022593
49.125,77.1410,-0.022593
49.155,77.1369,-0.022207
49.186,77.1322,-0.022207
49.217,77.1267,-0.022207
49.248,77.1204,-0.022207
49.279,77.1133,-0.022207
49.310,77.1057,-0.022207
49.341,77.0973,-0.022207
49.371,77.0883,-0.018123
49.402,77.0787,-0.018123
49.433,77.0680,-0.018123
49.465,77.0564,-0.018123
49.496,77.0445,-0.018123
49.528,77.0312,-0.018123
49.559,77.0177,-0.018123
49.589,77.0034,-0.018123
49.620,76.9890,-0.018123
49.651,76.9732,-0.006333
49.682,76.9567,-0.006333
49.713,76.9393,-0.006333
49.744,76.9219,-0.006333
49.776,76.9027,-0.006333
49.806,76.8840,-0.006333
49.837,76.8634,-0.006333
49.868,76.8431,-0.006333
49.902,76.8188,-0.006333
49.930,76.7995,-0.006333
49.961,76.7768,0.011263
49.992,76.7525,0.011263
50.024,76.7275,0.011263
50.055,76.7022,0.011263
50.086,76.6762,0.011263
50.118,76.6495,0.011263
50.149,76.6219,0.011263
50.179,76.5944,0.031664
50.211,76.5645,0.031664
50.241,76.5360,0.031664
50.272,76.5056,0.031664
50.303,76.4757,0.031664
50.334,76.4425,0.031664
50.365,76.4111,0.031664
50.397,76.3765,0.031664
50.427,76.3436,0.054981
50.458,76.3083,0.054981
50.489,76.2742,0.054981
50.519,76.2384,0.054981
50.550,76.2014,0.054981
50.582,76.1633,0.054981
50.613,76.1248,0.054981
50.643,76.0868,0.054981
50.675,76.0463,0.083643
50.706,76.0055,0.083643
50.736,75.9657,0.083643
50.768,75.9221,0.083643
50.799,75.8806,0.083643
50.830,75.8357,0.083643
50.862,75.7915,0.083643
50.892,75.7471,0.083643
50.923,75.7023,0.107854
50.955,75.6548,0.107854
50.985,75.6095,0.107854
51.015,75.5617,0.107854
51.046,75.5153,0.107854
51.076,75.4660,0.107854
51.108,75.4164,0.107854
51.139,75.3653,0.107854
51.170,75.3131,0.077329
51.201,75.2615,0.077329
51.232,75.2072,0.077329
51.267,75.1477,0.077329
51.295,75.0989,0.077329
51.325,75.0466,0.077329
51.356,74.9898,0.077329
51.388,74.9314,0.077329
51.417,74.8782,0.025133
51.448,74.8205,0.025133
51.479,74.7617,0.025133
51.509,74.7037,0.025133
51.541,74.6439,0.025133
51.572,74.5822,0.025133
51.602,74.5251,0.025133
51.633,74.4649,0.025133
51.665,74.4060,0.011198
51.696,74.3491,0.011198
51.727,74.2915,0.011198
51.758,74.2341,0.011198
51.788,74.1808,0.011198
51.819,74.1273,0.011198
51.849,74.0749,0.011198
51.880,74.0202,0.011198
51.911,73.9675,0.010153
51.942,73.9164,0.010153
51.975,73.8635,0.010153
52.006,73.8128,0.010153
52.037,73.7626,0.010153
52.069,73.7120,0.010153
52.100,73.6650,0.010153
52.131,73.6171,0.010153
52.162,73.5716,0.009043
52.192,73.5261,0.009043
52.223,73.4810,0.009043
52.255,73.4349,0.009043
52.286,73.3909,0.009043
52.317,73.3482,0.009043
52.348,73.3060,0.009043
52.379,73.2649,0.009043
52.410,73.2238,0.008205
52.441,73.1829,0.008205
52.472,73.1439,0.008205
52.505,73.1025,0.008205
52.534,73.0677,0.008205
52.564,73.0319,0.008205
52.595,72.9949,0.008205
52.625,72.9606,0.008205
52.657,72.9253,0.007650
52.687,72.8919,0.007650
52.718,72.8583,0.007650
52.749,72.8247,0.007650
52.780,72.7930,0.007650
52.812,72.7611,0.007650
52.843,72.7303,0.007650
52.874,72.6996,0.007650
52.905,72.6713,0.007650
52.936,72.6429,0.007217
52.967,72.6145,0.007217
52.999,72.5871,0.007217
53.029,72.5614,0.007217
53.061,72.5355,0.007217
53.092,72.5106,0.007217
53.123,72.4865,0.007217
53.153,72.4635,0.006831
53.184,72.4411,0.006831
53.216,72.4185,0.006831
53.247,72.3971,0.006831
53.278,72.3769,0.006831
53.309,72.3569,0.006831
53.340,72.3384,0.006831
53.372,72.3192,0.006831
53.404,72.3016,0.006521
53.435,72.2847,0.006521
53.465,72.2690,0.006521
53.496,72.2539,0.006521
53.527,72.2396,0.006521
53.557,72.2255,0.006521
53.588,72.2126,0.006521
53.619,72.2001,0.006521
53.651,72.1882,0.006210
53.681,72.1775,0.006210
53.712,72.1675,0.006210
53.743,72.1577,0.006210
53.775,72.1488,0.006210
53.806,72.1407,0.006210
53.837,72.1334,0.006210
53.867,72.1268,0.006210
53.899,72.1210,0.005985
53.930,72.1159,0.005985
53.964,72.1109,0.005985
53.993,72.1077,0.005985
54.024,72.1047,0.005985
54.055,72.1026,0.005985
54.085,72.1011,0.005985
54.116,72.1004,0.005985
54.148,72.1003,0.005815
54.179,72.1003,0.005815
54.210,72.1003,0.005815
54.241,72.1003,0.005815
54.273,72.1003,0.005815
54.303,72.1005,0.005815
54.333,72.1013,0.005815
54.365,72.1030,0.005815
54.395,72.1052,0.005693
54.426,72.1083,0.005693
54.457,72.1122,0.005693
54.489,72.1168,0.005693
54.519,72.1221,0.005693
54.550,72.1279,0.005693
54.581,72.1349,0.005693
54.612,72.1421,0.005693
54.643,72.1503,0.005505
54.674,72.1589,0.005505
54.704,72.1685,0.005505
54.737,72.1797,0.005505
54.767,72.1901,0.005505
54.798,72.2021,0.005505
54.829,72.2145,0.005505
54.859,72.2272,0.005505
54.890,72.2412,0.005279
54.921,72.2563,0.005279
54.952,72.2712,0.005279
54.984,72.2881,0.005279
55.015,72.3047,0.005279
55.050,72.3250,0.005279
55.077,72.3410,0.005279
55.109,72.3602,0.005279
55.139,72.3796,0.005279
55.171,72.4004,0.005185
55.202,72.4221,0.005185
55.233,72.4438,0.005185
55.264,72.4668,0.005185
55.295,72.4903,0.005185
55.326,72.5141,0.005185
55.357,72.5393,0.005185
55.388,72.5647,0.005072
55.420,72.5924,0.005072
55.449,72.6173,0.005072
55.479,72.6447,0.005072
55.512,72.6750,0.005072
55.541,72.7028,0.005072
55.572,72.7318,0.005072
55.602,72.7613,0.005072
55.634,72.7943,0.005072
55.663,72.8243,0.005072
55.695,72.8576,0.004912
55.727,72.8925,0.004912
55.758,72.9276,0.004912
55.788,72.9609,0.004912
55.821,72.9990,0.004912
55.850,73.0327,0.004912
55.881,73.0705,0.004912
55.912,73.1083,0.004790
55.942,73.1462,0.004790
55.974,73.1865,0.004790
56.005,73.2270,0.004790
56.036,73.2677,0.004790
56.067,73.3090,0.004790
56.099,73.3518,0.004790
56.129,73.3943,0.004790
56.160,73.4391,0.004686
56.190,73.4819,0.004686
56.221,73.5264,0.004686
56.253,73.5741,0.004686
56.283,73.6192,0.004686
56.314,73.6673,0.004686
56.346,73.7161,0.004686
56.377,73.7643,0.004686
56.408,73.8144,0.004488
56.439,73.8656,0.004488
56.471,73.9170,0.004488
56.501,73.9682,0.004488
56.533,74.0205,0.004488
56.564,74.0754,0.004488
56.595,74.1283,0.004488
56.628,74.1904,0.004488
56.658,74.2415,0.004263
56.688,74.2957,0.004263
56.719,74.3527,0.004263
56.750,74.4091,0.004263
56.775,74.4586,0.004263
56.811,74.5249,0.004263
56.843,74.5872,0.004263
56.874,74.6474,0.004263
56.906,74.7084,0.004263
56.937,74.7672,0.003952
56.968,74.8250,0.003952
56.999,74.8808,0.003952
57.031,74.9405,0.003952
57.064,74.9995,0.003952
57.093,75.0514,0.003952
57.124,75.1044,0.003952
57.155,75.1582,0.003651
57.185,75.2091,0.003651
57.216,75.2628,0.003651
57.247,75.3142,0.003651
57.276,75.3615,0.003651
57.309,75.4139,0.003651
57.340,75.4632,0.003651
57.371,75.5119,0.003651
57.402,75.5584,0.003340
57.435,75.6098,0.003340
57.464,75.6517,0.003340
57.495,75.6988,0.003340
57.527,75.7438,0.003340
57.560,75.7907,0.003340
57.587,75.8288,0.003340
57.618,75.8721,0.003340
57.649,75.9133,0.003340
57.680,75.9548,0.002559
57.711,75.9946,0.002559
57.742,76.0358,0.002559
57.773,76.0739,0.002559
57.804,76.1117,0.002559
57.835,76.1495,0.002559
57.869,76.1893,0.002559
57.897,76.2221,0.000866
57.929,76.2597,0.000866
57.958,76.2912,0.000866
57.989,76.3259,0.000866
58.020,76.3580,0.000866
58.054,76.3940,0.000866
58.082,76.4230,0.000866
58.113,76.4535,0.000866
58.144,76.4838,0.000866
58.175,76.5134,-0.002023
58.207,76.5432,-0.002023
58.238,76.5712,-0.002023
58.270,76.5996,-0.002023
58.301,76.6264,-0.002023
58.333,76.6527,-0.002023
58.363,76.6774,-0.002023
58.393,76.7008,-0.007095
58.424,76.7247,-0.007095
58.455,76.7479,-0.007095
58.487,76.7704,-0.007095
58.518,76.7925,-0.007095
58.551,76.8147,-0.007095
58.580,76.8330,-0.007095
58.610,76.8520,-0.007095
58.642,76.8713,-0.007095
58.673,76.8892,-0.015432
58.705,76.9068,-0.015432
58.736,76.9231,-0.015432
58.766,76.9388,-0.015432
58.801,76.9552,-0.015432
58.829,76.9682,-0.015432
58.860,76.9816,-0.015432
58.892,76.9945,-0.015432
58.919,77.0054,-0.025933
58.953,77.0178,-0.025933
58.984,77.0284,-0.025933
59.016,77.0386,-0.025933
59.048,77.0479,-0.025933
59.077,77.0558,-0.025933
59.109,77.0636,-0.025933
59.140,77.0706,-0.025933
59.172,77.0768,-0.035286
59.202,77.0824,-0.035286
59.233,77.0870,-0.035286
59.264,77.0912,-0.035286
59.296,77.0945,-0.035286
59.327,77.0971,-0.035286
59.360,77.0989,-0.035286
59.391,77.0999,-0.035286
59.422,77.1003,-0.040048
59.453,77.1003,-0.040048
59.484,77.1003,-0.040048
59.515,77.1003,-0.040048
59.546,77.1003,-0.040048
59.577,77.1003,-0.040048
59.608,77.1003,-0.040048
59.640,77.1003,-0.039144
59.671,77.1003,-0.039144
59.702,77.1003,-0.039144
59.735,77.1003,-0.039144
59.764,77.1003,-0.039144
59.795,77.1003,-0.039144
59.826,77.1003,-0.039144
59.857,77.1003,-0.039144
59.889,77.1003,-0.035860
59.920,77.1003,-0.035860
59.951,77.1003,-0.035860
59.982,77.1003,-0.035860
60.013,77.1003,-0.035860
60.044,77.1003,-0.035860
60.076,77.1003,-0.035860
60.102,77.1003,-0.035860
60.137,77.1003,-0.033367
60.167,77.1003,-0.033367
60.198,77.1003,-0.033367
60.228,77.1003,-0.033367
60.259,77.1003,-0.033367
60.290,77.1003,-0.033367
60.321,77.1003,-0.033367
60.353,77.1003,-0.033367
60.384,77.1003,-0.033367
60.415,77.1003,-0.031560
60.446,77.1003,-0.031560
60.477,77.1003,-0.031560
60.508,77.1003,-0.031560
60.540,77.1003,-0.031560
60.570,77.1003,-0.031560
60.601,77.1003,-0.031560
60.631,77.1003,-0.030102
60.663,77.1003,-0.030102
60.694,77.1003,-0.030102
60.725,77.1003,-0.030102
60.755,77.1003,-0.030102
60.786,77.1003,-0.030102
60.818,77.1003,-0.030102
60.849,77.1003,-0.030102
60.880,77.1003,-0.030102
60.911,77.1003,-0.030102
60.941,77.1003,-0.028925
60.973,77.1003,-0.028925
61.004,77.1003,-0.028925
61.034,77.1003,-0.028925
61.066,77.1003,-0.028925
61.097,77.1003,-0.028925
61.127,77.1003,-0.028925
61.158,77.1003,-0.027937
61.190,77.1003,-0.027937
61.221,77.1003,-0.027937
61.254,77.1003,-0.027937
61.283,77.1003,-0.027937
61.315,77.1003,-0.027937
61.345,77.1003,-0.027937
61.377,77.1003,-0.027937
61.408,77.1003,-0.027100
61.438,77.1003,-0.027100
61.470,77.1003,-0.027100
61.501,77.1003,-0.027100
61.533,77.1003,-0.027100
61.564,77.1003,-0.027100
61.596,77.1003,-0.027100
61.628,77.1003,-0.027100
61.658,77.1003,-0.026347
61.689,77.1003,-0.026347
61.715,77.1003,-0.026347
61.752,77.1003,-0.026347
61.783,77.1003,-0.026347
61.813,77.1003,-0.026347
61.843,77.1003,-0.026347
61.875,77.1003,-0.025679
61.906,77.1003,-0.025679
61.939,77.1003,-0.025679
61.968,77.1003,-0.025679
61.999,77.1003,-0.025679
62.030,77.1003,-0.025679
62.064,77.1003,-0.025679
62.092,77.1003,-0.025679
62.124,77.1003,-0.025679
62.154,77.1003,-0.025679
62.185,77.1003,-0.025096
62.216,77.1003,-0.025096
62.247,77.1003,-0.025096
62.279,77.1003,-0.025096
62.311,77.1003,-0.025096
62.340,77.1003,-0.025096
62.371,77.1003,-0.025096
62.402,77.1003,-0.024597
62.433,77.1003,-0.024597
62.465,77.1003,-0.024597
62.497,77.1003,-0.024597
62.527,77.1003,-0.024597
62.559,77.1003,-0.024597
62.588,77.1003,-0.024597
62.619,77.1003,-0.024597
62.651,77.1003,-0.024155
62.681,77.1003,-0.024155
62.713,77.1003,-0.024155
62.743,77.1003,-0.024155
62.774,77.1003,-0.024155
62.805,77.1003,-0.024155
62.837,77.1003,-0.024155
62.868,77.1003,-0.024155
62.899,77.1003,-0.023722
62.934,77.1003,-0.023722
62.961,77.1003,-0.023722
62.992,77.1003,-0.023722
63.023,77.1003,-0.023722
63.058,77.1003,-0.023722
63.085,77.1003,-0.023722
63.116,77.1003,-0.023722
63.148,77.1003,-0.023298
63.179,77.1003,-0.023298
63.216,77.1003,-0.023298
63.257,77.1003,-0.023298
63.288,77.1003,-0.023298
63.318,77.1003,-0.023298
63.349,77.1003,-0.023298
63.382,77.1003,-0.023298
63.410,77.1003,-0.023298
63.444,77.1003,-0.022847
63.473,77.1003,-0.022847
63.504,77.1003,-0.022847
63.535,77.1003,-0.022847
63.565,77.1003,-0.022847
63.596,77.1003,-0.022847
63.627,77.1003,-0.022847
63.658,77.1003,-0.022847
63.689,77.1003,-0.022470
63.721,77.0998,-0.022470
63.753,77.0984,-0.022470
63.785,77.0964,-0.022470
63.816,77.0937,-0.022470
63.847,77.0902,-0.022470
63.877,77.0860,-0.022470
63.908,77.0814,-0.022028
63.939,77.0756,-0.022028
63.970,77.0693,-0.022028
64.001,77.0622,-0.022028
64.033,77.0541,-0.022028
64.064,77.0457,-0.022028
64.095,77.0363,-0.022028
64.127,77.0260,-0.022028
64.158,77.0155,-0.017107
64.188,77.0040,-0.017107
64.219,76.9915,-0.017107
64.251,76.9785,-0.017107
64.282,76.9651,-0.017107
64.313,76.9507,-0.017107
64.344,76.9355,-0.017107
64.376,76.9191,-0.017107
64.406,76.9033,-0.017107
64.437,76.8857,-0.004234
64.467,76.8682,-0.004234
64.499,76.8491,-0.004234
64.529,76.8298,-0.004234
64.560,76.8095,-0.004234
64.592,76.7886,-0.004234
64.624,76.7659,-0.004234
64.654,76.7441,0.013757
64.685,76.7209,0.013757
64.715,76.6981,0.013757
64.746,76.6739,0.013757
64.776,76.6487,0.013757
64.808,76.6223,0.013757
64.838,76.5956,0.013757
64.869,76.5683,0.034167
64.900,76.5399,0.034167
64.932,76.5109,0.034167
64.963,76.4812,0.034167
64.995,76.4498,0.034167
65.025,76.4190,0.034167
65.056,76.3881,0.034167
65.087,76.3545,0.034167
65.118,76.3222,0.034167
65.155,76.2814,0.034167
65.195,76.2365,0.057644
65.225,76.2006,0.057644
65.256,76.1651,0.057644
65.287,76.1281,0.057644
65.318,76.0897,0.057644
65.349,76.0507,0.057644
65.380,76.0112,0.057644
65.411,75.9717,0.057644
65.441,75.9319,0.085158
65.473,75.8889,0.085158
65.504,75.8460,0.085158
65.536,75.8029,0.085158
65.566,75.7593,0.085158
65.596,75.7169,0.085158
65.626,75.6719,0.085158
65.657,75.6269,0.100702
65.687,75.5819,0.100702
65.717,75.5356,0.100702
65.748,75.4872,0.100702
65.779,75.4376,0.100702
65.807,75.3948,0.100702
65.840,75.3394,0.100702
65.871,75.2893,0.100702
65.902,75.2367,0.058745
65.934,75.1831,0.058745
65.964,75.1312,0.058745
65.996,75.0767,0.058745
66.027,75.0229,0.058745
66.058,74.9667,0.058745
66.088,74.9126,0.058745
66.120,74.8542,0.058745
66.151,74.7970,0.013672
66.181,74.7397,0.013672
66.213,74.6803,0.013672
66.243,74.6223,0.013672
66.274,74.5617,0.013672
66.305,74.5009,0.013672
66.336,74.4422,0.013672
66.368,74.3819,0.013672
66.399,74.3243,0.010953
66.430,74.2657,0.010953
66.461,74.2107,0.010953
66.492,74.1557,0.010953
66.522,74.1000,0.010953
66.553,74.0465,0.010953
66.585,73.9919,0.010953
66.616,73.9382,0.010953
66.647,73.8872,0.009937
66.678,73.8350,0.009937
66.711,73.7807,0.009937
66.740,73.7348,0.009937
66.770,73.6873,0.009937
66.802,73.6377,0.009937
66.832,73.5910,0.009937
66.863,73.5440,0.009937
66.897,73.4938,0.008920
66.926,73.4513,0.008920
66.957,73.4059,0.008920
66.989,73.3610,0.008920
67.021,73.3166,0.008920
67.051,73.2757,0.008920
67.081,73.2331,0.008920
67.113,73.1928,0.008920
67.144,73.1520,0.008920
67.175,73.1123,0.008177
67.207,73.0718,0.008177
67.238,73.0337,0.008177
67.269,72.9961,0.008177
67.300,72.9593,0.008177
67.331,72.9232,0.008177
67.362,72.8885,0.008177
67.392,72.8541,0.008177
67.423,72.8206,0.007631
67.455,72.7872,0.007631
67.486,72.7544,0.007631
67.517,72.7221,0.007631
67.549,72.6908,0.007631
67.580,72.6600,0.007631
67.612,72.6302,0.007631
67.642,72.6023,0.007631
67.673,72.5750,0.007189
67.703,72.5474,0.007189
67.734,72.5220,0.007189
67.765,72.4958,0.007189
67.796,72.4700,0.007189
67.826,72.4472,0.007189
67.856,72.4245,0.007189
67.888,72.4008,0.007189
67.918,72.3790,0.006813
67.949,72.3576,0.006813
67.979,72.3372,0.006813
68.011,72.3167,0.006813
68.041,72.2974,0.006813
68.073,72.2789,0.006813
68.105,72.2600,0.006813
68.135,72.2437,0.006813
68.165,72.2275,0.006474
68.197,72.2113,0.006474
68.222,72.1993,0.006474
68.258,72.1826,0.006474
68.289,72.1691,0.006474
68.319,72.1568,0.006474
68.350,72.1444,0.006474
68.381,72.1336,0.006474
68.413,72.1225,0.006220
68.443,72.1129,0.006220
68.474,72.1038,0.006220
68.506,72.0951,0.006220
68.536,72.0875,0.006220
68.567,72.0804,0.006220
68.597,72.0745,0.006220
68.628,72.0688,0.006220
68.659,72.0641,0.005994
68.689,72.0600,0.005994
68.720,72.0566,0.005994
68.746,72.0544,0.005994
68.782,72.0520,0.005994
68.814,72.0508,0.005994
68.845,72.0503,0.005994
68.875,72.0503,0.005778
68.905,72.0503,0.005778
68.937,72.0503,0.005778
68.967,72.0503,0.005778
68.998,72.0503,0.005778
69.029,72.0504,0.005778
69.060,72.0510,0.005778
69.090,72.0524,0.005778
69.121,72.0546,0.005778
69.151,72.0574,0.005683
69.181,72.0608,0.005683
69.214,72.0654,0.005683
69.244,72.0703,0.005683
69.275,72.0760,0.005683
69.307,72.0828,0.005683
69.337,72.0897,0.005683
69.368,72.0976,0.005683
69.399,72.1065,0.005514
69.430,72.1157,0.005514
69.461,72.1260,0.005514
69.491,72.1362,0.005514
69.522,72.1482,0.005514
69.554,72.1604,0.005514
69.585,72.1737,0.005514
69.616,72.1875,0.005514
69.647,72.2021,0.005307
69.678,72.2172,0.005307
69.709,72.2332,0.005307
69.741,72.2500,0.005307
69.771,72.2670,0.005307
69.799,72.2835,0.005307
69.833,72.3038,0.005307
69.864,72.3236,0.005307
69.896,72.3444,0.005194
69.926,72.3653,0.005194
69.957,72.3865,0.005194
69.988,72.4092,0.005194
70.018,72.4317,0.005194
70.049,72.4549,0.005194
70.079,72.4800,0.005194
70.110,72.5047,0.005194
70.142,72.5319,0.005044
70.173,72.5584,0.005044
70.205,72.5872,0.005044
70.236,72.6156,0.005044
70.267,72.6449,0.005044
70.299,72.6745,0.005044
70.329,72.7051,0.005044
70.361,72.7363,0.005044
70.391,72.7677,0.004940
70.423,72.8009,0.004940
70.454,72.8352,0.004940
70.485,72.8696,0.004940
70.521,72.9095,0.004940
70.563,72.9579,0.004940
70.594,72.9945,0.004940
70.625,73.0321,0.004940
70.656,73.0700,0.004799
70.687,73.1093,0.004799
70.718,73.1484,0.004799
70.750,73.1896,0.004799
70.781,73.2305,0.004799
70.812,73.2727,0.004799
70.841,73.3127,0.004799
70.872,73.3559,0.004799
70.903,73.3996,0.004601
70.934,73.4459,0.004601
70.966,73.4906,0.004601
70.998,73.5386,0.004601
71.029,73.5855,0.004601
71.059,73.6330,0.004601
71.090,73.6806,0.004601
71.123,73.7326,0.004601
71.153,73.7809,0.004404
71.183,73.8313,0.004404
71.215,73.8832,0.004404
71.247,73.9360,0.004404
71.279,73.9904,0.004404
71.309,74.0430,0.004404
71.340,74.0972,0.004404
71.371,74.1521,0.004404
71.402,74.2074,0.004178
71.433,74.2631,0.004178
71.464,74.3224,0.004178
71.494,74.3767,0.004178
71.527,74.4409,0.004178
71.555,74.4934,0.004178
71.593,74.5672,0.004178
71.633,74.6423,0.004178
71.665,74.7044,0.004178
71.696,74.7617,0.003896
71.728,74.8211,0.003896
71.758,74.8767,0.003896
71.790,74.9350,0.003896
71.821,74.9906,0.003896
71.852,75.0435,0.003896
71.883,75.0966,0.003707
71.913,75.1479,0.003707
71.943,75.1986,0.003707
71.974,75.2495,0.003707
72.007,75.3055,0.003707
72.035,75.3501,0.003707
72.067,75.4010,0.003707
72.098,75.4489,0.003707
72.131,75.5014,0.003707
72.160,75.5445,0.003707
72.191,75.5915,0.003378
72.221,75.6359,0.003378
72.253,75.6820,0.003378
72.284,75.7254,0.003378
72.315,75.7696,0.003378
72.346,75.8117,0.003378
72.379,75.8592,0.003378
72.407,75.8939,0.003378
72.438,75.9358,0.002541
72.469,75.9745,0.002541
72.500,76.0146,0.002541
72.532,76.0540,0.002541
72.562,76.0905,0.002541
72.594,76.1293,0.002541
72.625,76.1644,0.002541
72.656,76.2011,0.000856
72.687,76.2352,0.000856
72.718,76.2695,0.000856
72.749,76.3033,0.000856
72.781,76.3368,0.000856
72.813,76.3690,0.000856
72.843,76.3996,0.000856
72.874,76.4294,0.000856
72.905,76.4591,-0.002117
72.935,76.4877,-0.002117
72.967,76.5161,-0.002117
72.998,76.5443,-0.002117
73.029,76.5706,-0.002117
73.060,76.5966,-0.002117
73.091,76.6218,-0.002117
73.121,76.6459,-0.002117
73.152,76.6698,-0.007349
73.183,76.6929,-0.007349
73.216,76.7171,-0.007349
73.244,76.7364,-0.007349
73.277,76.7584,-0.007349
73.306,76.7775,-0.007349
73.337,76.7975,-0.007349
73.368,76.8163,-0.007349
73.398,76.8338,-0.015752
73.429,76.8508,-0.015752
73.459,76.8671,-0.015752
73.490,76.8836,-0.015752
73.523,76.8996,-0.015752
73.552,76.9130,-0.015752
73.583,76.9264,-0.015752
73.614,76.9399,-0.015752
73.645,76.9518,-0.015752
73.676,76.9637,-0.026084
73.706,76.9740,-0.026084
73.738,76.9847,-0.026084
73.769,76.9939,-0.026084
73.799,77.0023,-0.026084
73.830,77.0104,-0.026084
73.861,77.0177,-0.026084
73.893,77.0244,-0.026084
73.923,77.0300,-0.035183
73.955,77.0352,-0.035183
73.986,77.0395,-0.035183
74.017,77.0431,-0.035183
74.048,77.0460,-0.035183
74.081,77.0482,-0.035183
74.110,77.0496,-0.035183
74.141,77.0502,-0.039746
74.172,77.0503,-0.039746
74.203,77.0503,-0.039746
74.234,77.0503,-0.039746
74.265,77.0503,-0.039746
74.296,77.0503,-0.039746
74.327,77.0503,-0.039746
74.358,77.0503,-0.039746
74.389,77.0503,-0.039746
74.420,77.0503,-0.038693
74.451,77.0503,-0.038693
74.482,77.0503,-0.038693
74.513,77.0503,-0.038693
74.544,77.0503,-0.038693
74.575,77.0503,-0.038693
74.606,77.0503,-0.038693
74.637,77.0503,-0.038693
74.669,77.0503,-0.038693
74.701,77.0503,-0.035324
74.731,77.0503,-0.035324
74.761,77.0503,-0.035324
74.793,77.0503,-0.035324
74.823,77.0503,-0.035324
74.854,77.0503,-0.035324
74.886,77.0503,-0.035324
74.917,77.0503,-0.032887
74.948,77.0503,-0.032887
74.978,77.0503,-0.032887
75.009,77.0503,-0.032887
75.041,77.0503,-0.032887
75.071,77.0503,-0.032887
75.102,77.0503,-0.032887
75.134,77.0503,-0.032887
75.165,77.0503,-0.031146
75.195,77.0503,-0.031146
75.227,77.0503,-0.031146
75.257,77.0503,-0.031146
75.289,77.0503,-0.031146
75.321,77.0503,-0.031146
75.350,77.0503,-0.031146
75.380,77.0503,-0.031146
75.411,77.0503,-0.029744
75.443,77.0503,-0.029744
75.480,77.0503,-0.029744
75.521,77.0503,-0.029744
75.553,77.0503,-0.029744
75.583,77.0503,-0.029744
75.614,77.0503,-0.029744
75.645,77.0503,-0.028549
75.676,77.0503,-0.028549
75.707,77.0503,-0.028549
75.739,77.0503,-0.028549
75.770,77.0503,-0.028549
75.800,77.0503,-0.028549
75.831,77.0503,-0.028549
75.861,77.0503,-0.028549
75.891,77.0503,-0.027542
75.924,77.0503,-0.027542
75.956,77.0503,-0.027542
75.987,77.0503,-0.027542
76.019,77.0503,-0.027542
76.050,77.0503,-0.027542
76.080,77.0503,-0.027542
76.117,77.0503,-0.027542
76.142,77.0503,-0.026714
76.173,77.0503,-0.026714
76.205,77.0503,-0.026714
76.236,77.0503,-0.026714
76.266,77.0503,-0.026714
76.297,77.0503,-0.026714
76.328,77.0503,-0.026714
76.360,77.0503,-0.026714
76.392,77.0503,-0.025990
76.422,77.0503,-0.025990
76.453,77.0503,-0.025990
76.485,77.0503,-0.025990
76.513,77.0503,-0.025990
76.545,77.0503,-0.025990
76.576,77.0503,-0.025990
76.607,77.0503,-0.025990
76.637,77.0503,-0.025340
76.667,77.0503,-0.025340
76.698,77.0503,-0.025340
76.728,77.0503,-0.025340
76.759,77.0503,-0.025340
76.790,77.0503,-0.025340
76.822,77.0503,-0.025340
76.852,77.0503,-0.025340
76.883,77.0503,-0.025340
76.914,77.0503,-0.024804
76.944,77.0503,-0.024804
76.975,77.0503,-0.024804
77.006,77.0503,-0.024804
77.036,77.0503,-0.024804
77.067,77.0503,-0.024804
77.100,77.0503,-0.024804
77.130,77.0503,-0.024258
77.162,77.0503,-0.024258
77.193,77.0503,-0.024258
77.225,77.0503,-0.024258
77.256,77.0503,-0.024258
77.287,77.0503,-0.024258
77.319,77.0503,-0.024258
77.350,77.0503,-0.024258
77.384,77.0503,-0.024258
77.412,77.0503,-0.024258
77.443,77.0503,-0.023722
77.474,77.0503,-0.023722
77.504,77.0503,-0.023722
77.536,77.0503,-0.023722
77.570,77.0503,-0.023722
77.597,77.0503,-0.023722
77.628,77.0503,-0.023722
77.659,77.0503,-0.023722
77.691,77.0503,-0.023355
77.722,77.0503,-0.023355
77.753,77.0503,-0.023355
77.784,77.0503,-0.023355
77.815,77.0503,-0.023355
77.846,77.0503,-0.023355
77.881,77.0503,-0.023355
77.909,77.0503,-0.023355
77.940,77.0503,-0.022969
77.971,77.0503,-0.022969
78.003,77.0503,-0.022969
78.034,77.0503,-0.022969
78.064,77.0503,-0.022969
78.096,77.0503,-0.022969
78.127,77.0503,-0.022969
78.158,77.0503,-0.022969
78.189,77.0503,-0.022583
78.222,77.0503,-0.022583
78.252,77.0503,-0.022583
78.283,77.0503,-0.022583
78.314,77.0503,-0.022583
78.345,77.0503,-0.022583
78.377,77.0503,-0.022583
78.408,77.0503,-0.022310
78.438,77.0503,-0.022310
78.469,77.0503,-0.022310
78.502,77.0503,-0.022310
78.532,77.0503,-0.022310
78.563,77.0503,-0.022310
78.594,77.0503,-0.022310
78.625,77.0503,-0.022310
78.660,77.0503,-0.021962
78.687,77.0503,-0.021962
78.719,77.0503,-0.021962
78.750,77.0503,-0.021962
78.781,77.0501,-0.021962
78.812,77.0489,-0.021962
78.842,77.0473,-0.021962
78.873,77.0448,-0.021962
78.904,77.0416,-0.021623
78.936,77.0377,-0.021623
78.969,77.0323,-0.021623
78.998,77.0275,-0.021623
79.029,77.0214,-0.021623
79.060,77.0146,-0.021623
79.090,77.0070,-0.021623
79.121,76.9987,-0.018180
79.152,76.9899,-0.018180
79.183,76.9802,-0.018180
79.214,76.9697,-0.018180
79.244,76.9587,-0.018180
79.275,76.9467,-0.018180
79.307,76.9340,-0.018180
79.340,76.9198,-0.018180
79.371,76.9057,-0.018180
79.403,76.8904,-0.018180
79.433,76.8746,-0.007471
79.465,76.8582,-0.007471
79.496,76.8412,-0.007471
79.527,76.8235,-0.007471
79.558,76.8049,-0.007471
79.589,76.7854,-0.007471
79.620,76.7653,-0.007471
79.651,76.7448,-0.007471
79.682,76.7234,0.009466
79.712,76.7019,0.009466
79.743,76.6794,0.009466
79.774,76.6553,0.009466
79.805,76.6314,0.009466
79.836,76.6053,0.009466
79.867,76.5806,0.009466
79.898,76.5540,0.009466
79.929,76.5262,0.029443
79.961,76.4972,0.029443
79.992,76.4690,0.029443
80.024,76.4391,0.029443
80.054,76.4096,0.029443
80.086,76.3772,0.029443
80.119,76.3442,0.029443
80.148,76.3132,0.029443
80.180,76.2796,0.052130
80.210,76.2464,0.052130
80.244,76.2083,0.052130
80.273,76.1762,0.052130
80.304,76.1400,0.052130
80.334,76.1033,0.052130
80.366,76.0654,0.052130
80.397,76.0275,0.052130
80.427,75.9890,0.079898
80.458,75.9502,0.079898
80.489,75.9094,0.079898
80.519,75.8687,0.079898
80.550,75.8273,0.079898
80.582,75.7837,0.079898
80.614,75.7394,0.079898
80.644,75.6963,0.106075
80.677,75.6490,0.106075
80.704,75.6089,0.106075
80.736,75.5618,0.106075
80.767,75.5156,0.106075
80.798,75.4674,0.106075
80.828,75.4201,0.106075
80.858,75.3719,0.106075
80.890,75.3210,0.106075
80.922,75.2695,0.094210
80.953,75.2169,0.094210
80.985,75.1653,0.094210
81.016,75.1117,0.094210
81.052,75.0482,0.094210
81.078,75.0027,0.094210
81.110,74.9470,0.094210
81.141,74.8922,0.041751
81.175,74.8285,0.041751
81.203,74.7775,0.041751
81.234,74.7198,0.041751
81.265,74.6611,0.041751
81.296,74.6026,0.041751
81.326,74.5435,0.041751
81.357,74.4822,0.041751
81.388,74.4247,0.011329
81.419,74.3649,0.011329
81.451,74.3060,0.011329
81.481,74.2489,0.011329
81.512,74.1917,0.011329
81.542,74.1374,0.011329
81.573,74.0806,0.011329
81.604,74.0270,0.011329
81.636,73.9707,0.010162
81.668,73.9180,0.010162
81.699,73.8638,0.010162
81.730,73.8133,0.010162
81.760,73.7621,0.010162
81.792,73.7123,0.010162
81.823,73.6631,0.010162
81.853,73.6150,0.010162
81.885,73.5660,0.010162
81.915,73.5202,0.009080
81.946,73.4731,0.009080
81.977,73.4271,0.009080
82.008,73.3809,0.009080
82.039,73.3372,0.009080
82.070,73.2944,0.009080
82.101,73.2505,0.009080
82.133,73.2079,0.008290
82.163,73.1674,0.008290
82.194,73.1257,0.008290
82.225,73.0863,0.008290
82.255,73.0476,0.008290
82.286,73.0091,0.008290
82.318,72.9701,0.008290
82.349,72.9331,0.008290
82.379,72.8969,0.008290
82.410,72.8620,0.007612
82.442,72.8254,0.007612
82.473,72.7912,0.007612
82.506,72.7560,0.007612
82.536,72.7239,0.007612
82.568,72.6903,0.007612
82.599,72.6594,0.007612
82.631,72.6276,0.007123
82.661,72.5991,0.007123
82.693,72.5691,0.007123
82.723,72.5413,0.007123
82.754,72.5138,0.007123
82.785,72.4864,0.007123
82.815,72.4612,0.007123
82.846,72.4353,0.007123
82.878,72.4100,0.007123
82.909,72.3862,0.006794
82.940,72.3631,0.006794
82.971,72.3398,0.006794
83.002,72.3184,0.006794
83.032,72.2974,0.006794
83.063,72.2776,0.006794
83.094,72.2578,0.006794
83.124,72.2391,0.006493
83.156,72.2202,0.006493
83.187,72.2027,0.006493
83.217,72.1866,0.006493
83.249,72.1701,0.006493
83.281,72.1545,0.006493
83.312,72.1395,0.006493
83.343,72.1257,0.006493
83.373,72.1124,0.006493
83.404,72.1005,0.006493
83.435,72.0889,0.006229
83.466,72.0780,0.006229
83.499,72.0667,0.006229
83.528,72.0579,0.006229
83.560,72.0491,0.006229
83.590,72.0411,0.006229
83.621,72.0337,0.006229
83.652,72.0270,0.006229
83.683,72.0213,0.006032
83.714,72.0161,0.006032
83.747,72.0114,0.006032
83.775,72.0080,0.006032
83.809,72.0048,0.006032
83.837,72.0028,0.006032
83.868,72.0013,0.006032
83.899,72.0004,0.006032
83.931,72.0003,0.005825
83.962,72.0003,0.005825
83.995,72.0003,0.005825
84.025,72.0003,0.005825
84.056,72.0006,0.005825
84.090,72.0016,0.005825
84.119,72.0030,0.005825
84.150,72.0055,0.005665
84.180,72.0085,0.005665
84.211,72.0122,0.005665
84.242,72.0167,0.005665
84.273,72.0219,0.005665
84.304,72.0280,0.005665
84.336,72.0349,0.005665
84.365,72.0419,0.005665
84.396,72.0502,0.005523
84.428,72.0594,0.005523
84.458,72.0687,0.005523
84.489,72.0789,0.005523
84.520,72.0899,0.005523
84.551,72.1015,0.005523
84.583,72.1144,0.005523
84.614,72.1278,0.005523
84.645,72.1420,0.005316
84.676,72.1568,0.005316
84.708,72.1726,0.005316
84.740,72.1893,0.005316
84.771,72.2059,0.005316
84.802,72.2241,0.005316
84.834,72.2424,0.005316
84.865,72.2618,0.005316
84.896,72.2823,0.005175
84.927,72.3024,0.005175
84.959,72.3243,0.005175
84.990,72.3462,0.005175
85.021,72.3694,0.005175
85.052,72.3925,0.005175
85.082,72.4167,0.005175
85.113,72.4407,0.005175
85.144,72.4673,0.005006
85.175,72.4937,0.005006
85.206,72.5211,0.005006
85.237,72.5483,0.005006
85.267,72.5764,0.005006
85.297,72.6056,0.005006
85.328,72.6341,0.005006
85.359,72.6652,0.005006
85.390,72.6971,0.005006
85.421,72.7290,0.004912
85.453,72.7632,0.004912
85.484,72.7965,0.004912
85.515,72.8312,0.004912
85.546,72.8654,0.004912
85.577,72.9027,0.004912
85.608,72.9381,0.004912
85.639,72.9763,0.004912
85.670,73.0136,0.004799
85.703,73.0548,0.004799
85.734,73.0945,0.004799
85.765,73.1359,0.004799
85.796,73.1759,0.004799
85.827,73.2188,0.004799
85.862,73.2659,0.004799
85.889,73.3038,0.004799
85.922,73.3502,0.004639
85.950,73.3906,0.004639
85.982,73.4368,0.004639
86.013,73.4838,0.004639
86.044,73.5304,0.004639
86.075,73.5780,0.004639
86.105,73.6239,0.004639
86.136,73.6734,0.004639
86.166,73.7213,0.004507
86.197,73.7721,0.004507
86.230,73.8258,0.004507
86.259,73.8746,0.004507
86.290,73.9276,0.004507
86.321,73.9801,0.004507
86.352,74.0346,0.004507
86.383,74.0899,0.004507
86.414,74.1452,0.004253
86.445,74.2009,0.004253
86.478,74.2634,0.004253
86.508,74.3171,0.004253
86.538,74.3759,0.004253
86.569,74.4342,0.004253
86.603,74.5001,0.004253
86.631,74.5537,0.004253
86.663,74.6147,0.003877
86.695,74.6744,0.003877
86.725,74.7306,0.003877
86.756,74.7887,0.003877
86.787,74.8450,0.003877
86.818,74.9007,0.003877
86.850,74.9563,0.003877
86.880,75.0084,0.003670
86.911,75.0622,0.003670
86.941,75.1133,0.003670
86.971,75.1637,0.003670
87.002,75.2162,0.003670
87.032,75.2635,0.003670
87.063,75.3146,0.003670
87.095,75.3651,0.003670
87.126,75.4147,0.003670
87.159,75.4640,0.003670
87.188,75.5091,0.003472
87.219,75.5545,0.003472
87.250,75.6001,0.003472
87.282,75.6456,0.003472
87.313,75.6913,0.003472
87.344,75.7329,0.003472
87.374,75.7745,0.002682
87.406,75.8168,0.002682
87.436,75.8573,0.002682
87.467,75.8991,0.002682
87.499,75.9388,0.002682
87.530,75.9780,0.002682
87.561,76.0166,0.002682
87.591,76.0528,0.002682
87.622,76.0892,0.002682
87.654,76.1270,0.002682
87.684,76.1607,0.001101
87.715,76.1947,0.001101
87.746,76.2280,0.001101
87.777,76.2619,0.001101
87.810,76.2967,0.001101
87.838,76.3250,0.001101
87.868,76.3559,0.001101
87.900,76.3859,-0.001722
87.932,76.4164,-0.001722
87.962,76.4448,-0.001722
87.993,76.4726,-0.001722
88.024,76.5008,-0.001722
88.055,76.5266,-0.001722
88.086,76.5528,-0.001722
88.117,76.5777,-0.001722
88.148,76.6027,-0.001722
88.179,76.6260,-0.006775
88.210,76.6492,-0.006775
88.241,76.6713,-0.006775
88.268,76.6900,-0.006775
88.303,76.7133,-0.006775
88.334,76.7335,-0.006775
88.363,76.7517,-0.006775
88.395,76.7704,-0.015008
88.428,76.7899,-0.015008
88.456,76.8050,-0.015008
88.487,76.8220,-0.015008
88.518,76.8375,-0.015008
88.548,76.8526,-0.015008
88.579,76.8666,-0.015008
88.610,76.8804,-0.015008
88.641,76.8928,-0.015008
88.672,76.9053,-0.025425
88.704,76.9166,-0.025425
88.735,76.9274,-0.025425
88.765,76.9371,-0.025425
88.795,76.9461,-0.025425
88.826,76.9546,-0.025425
88.857,76.9624,-0.025425
88.888,76.9696,-0.034769
88.919,76.9756,-0.034769
88.950,76.9813,-0.034769
88.982,76.9864,-0.034769
89.013,76.9905,-0.034769
89.042,76.9937,-0.034769
89.073,76.9965,-0.034769
89.104,76.9985,-0.034769
89.134,76.9997,-0.034769
89.165,77.0003,-0.039737
89.196,77.0003,-0.039737
89.227,77.0003,-0.039737
89.260,77.0003,-0.039737
89.291,77.0003,-0.039737
89.322,77.0003,-0.039737
89.354,77.0003,-0.039737
89.384,77.0003,-0.038937
89.415,77.0003,-0.038937
89.445,77.0003,-0.038937
89.475,77.0003,-0.038937
89.507,77.0003,-0.038937
89.538,77.0003,-0.038937
89.570,77.0003,-0.038937
89.601,77.0003,-0.038937
89.632,77.0003,-0.038937
