Elapsed Time (s),Position (mm),Force (N)
-0.008,62.0503,-0.869934
0.023,62.0503,-0.869934
0.054,62.0503,-0.701595
0.084,62.0503,-0.701595
0.115,62.0503,-0.701595
0.147,62.0503,-0.701595
0.178,62.0503,-0.701595
0.208,62.0503,-0.701595
0.240,62.0503,-0.701595
0.271,62.0503,-0.701595
0.302,62.0503,-0.603753
0.333,62.0503,-0.603753
0.364,62.0503,-0.603753
0.395,62.0503,-0.603753
0.425,62.0503,-0.603753
0.456,62.0503,-0.603753
0.487,62.0503,-0.603753
0.518,62.0503,-0.603753
0.550,62.0503,-0.544670
0.580,62.0503,-0.544670
0.611,62.0503,-0.544670
0.643,62.0503,-0.544670
0.673,62.0503,-0.544670
0.705,62.0503,-0.544670
0.736,62.0503,-0.544670
0.767,62.0503,-0.544670
0.798,62.0503,-0.503267
0.830,62.0503,-0.503267
0.861,62.0503,-0.503267
0.894,62.0503,-0.503267
0.924,62.0503,-0.503267
0.956,62.0503,-0.503267
0.986,62.0503,-0.503267
1.018,62.0503,-0.503267
1.047,62.0503,-0.503267
1.078,62.0503,-0.471510
1.109,62.0503,-0.471510
1.140,62.0503,-0.471510
1.171,62.0503,-0.471510
1.202,62.0503,-0.471510
1.233,62.0503,-0.471510
1.263,62.0503,-0.471510
1.295,62.0503,-0.446367
1.324,62.0503,-0.446367
1.356,62.0503,-0.446367
1.388,62.0503,-0.446367
1.418,62.0503,-0.446367
1.449,62.0503,-0.446367
1.480,62.0503,-0.446367
1.511,62.0503,-0.446367
1.542,62.0503,-0.446367
1.573,62.0503,-0.425892
1.604,62.0503,-0.425892
1.634,62.0503,-0.425892
1.665,62.0503,-0.425892
1.697,62.0503,-0.425892
1.728,62.0503,-0.425892
1.759,62.0503,-0.425892
1.790,62.0503,-0.408964
1.820,62.0503,-0.408964
1.851,62.0503,-0.408964
1.882,62.0503,-0.408964
1.913,62.0503,-0.408964
1.944,62.0503,-0.408964
1.974,62.0503,-0.408964
2.006,62.0503,-0.408964
2.035,62.0503,-0.408964
2.066,62.0503,-0.394698
2.096,62.0503,-0.394698
2.127,62.0503,-0.394698
2.158,62.0503,-0.394698
2.189,62.0503,-0.394698
2.220,62.0503,-0.394698
2.250,62.0503,-0.394698
2.282,62.0503,-0.382494
2.313,62.0503,-0.382494
2.344,62.0503,-0.382494
2.375,62.0503,-0.382494
2.406,62.0503,-0.382494
2.437,62.0503,-0.382494
2.469,62.0503,-0.382494
2.500,62.0503,-0.382494
2.531,62.0503,-0.382494
2.563,62.0503,-0.371936
2.593,62.0503,-0.371936
2.625,62.0503,-0.371936
2.656,62.0503,-0.371936
2.688,62.0503,-0.371936
2.719,62.0503,-0.371936
2.749,62.0503,-0.371936
2.780,62.0503,-0.362753
2.812,62.0503,-0.362753
2.843,62.0503,-0.362753
2.874,62.0503,-0.362753
2.905,62.0503,-0.362753
2.936,62.0503,-0.362753
2.967,62.0503,-0.362753
2.998,62.0503,-0.362753
3.029,62.0503,-0.362753
3.060,62.0503,-0.354726
3.091,62.0503,-0.354726
3.121,62.0503,-0.354726
3.153,62.0503,-0.354726
3.184,62.0503,-0.354726
3.215,62.0503,-0.354726
3.246,62.0503,-0.354726
3.277,62.0503,-0.347565
3.314,62.0503,-0.347565
3.355,62.0503,-0.347565
3.385,62.0503,-0.347565
3.416,62.0503,-0.347565
3.447,62.0503,-0.347565
3.478,62.0503,-0.347565
3.510,62.0503,-0.347565
3.540,62.0503,-0.341157
3.571,62.0503,-0.341157
3.602,62.0503,-0.341157
3.633,62.0503,-0.341157
3.664,62.0503,-0.341157
3.696,62.0503,-0.341157
3.727,62.0503,-0.341157
3.759,62.0503,-0.335220
3.791,62.0503,-0.335220
3.821,62.0503,-0.335220
3.852,62.0503,-0.335220
3.883,62.0503,-0.335220
3.914,62.0503,-0.335220
3.945,62.0503,-0.335220
3.975,62.0503,-0.335220
4.007,62.0503,-0.335220
4.038,62.0503,-0.329969
4.071,62.0503,-0.329969
4.100,62.0502,-0.329969
4.132,62.0494,-0.329969
4.163,62.0478,-0.329969
4.193,62.0457,-0.329969
4.225,62.0427,-0.329969
4.256,62.0389,-0.329969
4.287,62.0347,-0.313361
4.318,62.0295,-0.313361
4.349,62.0235,-0.313361
4.381,62.0168,-0.313361
4.412,62.0095,-0.313361
4.443,62.0013,-0.313361
4.475,61.9924,-0.313361
4.506,61.9824,0.262709
4.539,61.9715,0.262709
4.569,61.9609,0.262709
4.600,61.9493,0.262709
4.632,61.9366,0.262709
4.662,61.9232,0.262709
4.694,61.9094,0.262709
4.724,61.8950,0.262709
4.754,61.8800,0.262709
4.786,61.8630,0.524458
4.817,61.8463,0.524458
4.849,61.8284,0.524458
4.881,61.8098,0.524458
4.912,61.7902,0.524458
4.942,61.7712,0.524458
4.974,61.7497,0.524458
5.005,61.7292,0.524458
5.036,61.7070,0.188514
5.067,61.6842,0.188514
5.099,61.6597,0.188514
5.130,61.6356,0.188514
5.160,61.6111,0.188514
5.191,61.5857,0.188514
5.222,61.5592,0.188514
5.253,61.5326,0.163220
5.285,61.5037,0.163220
5.315,61.4759,0.163220
5.346,61.4462,0.163220
5.378,61.4165,0.163220
5.409,61.3849,0.163220
5.439,61.3543,0.163220
5.470,61.3215,0.163220
5.501,61.2897,0.163220
5.533,61.2547,0.163220
5.564,61.2206,0.192701
5.595,61.1850,0.192701
5.626,61.1500,0.192701
5.657,61.1130,0.192701
5.688,61.0762,0.192701
5.719,61.0375,0.192701
5.749,60.9992,0.192701
5.781,60.9593,0.233878
5.812,60.9193,0.233878
5.844,60.8769,0.233878
5.874,60.8366,0.233878
5.905,60.7947,0.233878
5.935,60.7520,0.233878
5.967,60.7076,0.233878
5.997,60.6646,0.233878
6.027,60.6205,0.233878
6.058,60.5742,0.271676
6.089,60.5278,0.271676
6.120,60.4803,0.271676
6.152,60.4307,0.271676
6.183,60.3816,0.271676
6.215,60.3314,0.271676
6.245,60.2807,0.271676
6.277,60.2301,0.287089
6.307,60.1782,0.287089
6.339,60.1250,0.287089
6.369,60.0729,0.287089
6.400,60.0182,0.287089
6.431,59.9630,0.287089
6.462,59.9095,0.287089
6.493,59.8530,0.287089
6.523,59.7970,0.305297
6.555,59.7389,0.305297
6.586,59.6787,0.305297
6.618,59.6187,0.305297
6.649,59.5573,0.305297
6.681,59.4963,0.305297
6.713,59.4339,0.305297
6.745,59.3726,0.305297
6.774,59.3182,0.340734
6.806,59.2582,0.340734
6.837,59.2032,0.340734
6.868,59.1453,0.340734
6.899,59.0911,0.340734
6.930,59.0366,0.340734
6.962,58.9810,0.340734
6.992,58.9275,0.340734
7.023,58.8759,0.276447
7.054,58.8239,0.276447
7.085,58.7722,0.276447
7.117,58.7209,0.276447
7.147,58.6731,0.276447
7.178,58.6236,0.276447
7.209,58.5740,0.276447
7.241,58.5257,0.276447
7.273,58.4789,0.107421
7.304,58.4320,0.107421
7.335,58.3868,0.107421
7.366,58.3415,0.107421
7.397,58.2990,0.107421
7.428,58.2549,0.107421
7.459,58.2134,0.107421
7.490,58.1717,0.107421
7.521,58.1307,0.018029
7.555,58.0869,0.018029
7.584,58.0498,0.018029
7.613,58.0135,0.018029
7.644,57.9761,0.018029
7.675,57.9379,0.018029
7.706,57.9015,0.018029
7.737,57.8651,0.018029
7.769,57.8298,0.015677
7.800,57.7954,0.015677
7.829,57.7634,0.015677
7.860,57.7303,0.015677
7.892,57.6979,0.015677
7.922,57.6667,0.015677
7.950,57.6391,0.015677
7.984,57.6057,0.015677
8.016,57.5763,0.015677
8.046,57.5479,0.014736
8.082,57.5159,0.014736
8.108,57.4930,0.014736
8.140,57.4656,0.014736
8.171,57.4402,0.014736
8.201,57.4162,0.014736
8.232,57.3918,0.014736
8.264,57.3679,0.014736
8.294,57.3458,0.014190
8.324,57.3240,0.014190
8.355,57.3030,0.014190
8.386,57.2823,0.014190
8.417,57.2626,0.014190
8.448,57.2435,0.014190
8.479,57.2249,0.014190
8.511,57.2068,0.014190
8.541,57.1901,0.013823
8.572,57.1738,0.013823
8.604,57.1582,0.013823
8.636,57.1427,0.013823
8.666,57.1289,0.013823
8.697,57.1154,0.013823
8.728,57.1030,0.013823
8.759,57.0913,0.013823
8.789,57.0804,0.013456
8.820,57.0699,0.013456
8.852,57.0602,0.013456
8.883,57.0509,0.013456
8.913,57.0428,0.013456
8.945,57.0353,0.013456
8.976,57.0286,0.013456
9.007,57.0225,0.013456
9.038,57.0173,0.013164
9.069,57.0125,0.013164
9.100,57.0087,0.013164
9.132,57.0055,0.013164
9.163,57.0032,0.013164
9.194,57.0014,0.013164
9.226,57.0006,0.013164
9.257,57.0003,0.013164
9.288,57.0003,0.012967
9.320,57.0003,0.012967
9.351,57.0003,0.012967
9.383,57.0003,0.012967
9.414,57.0003,0.012967
9.446,57.0008,0.012967
9.476,57.0020,0.012967
9.506,57.0040,0.012967
9.537,57.0066,0.012872
9.568,57.0101,0.012872
9.600,57.0142,0.012872
9.631,57.0190,0.012872
9.662,57.0246,0.012872
9.694,57.0313,0.012872
9.723,57.0379,0.012872
9.754,57.0457,0.012872
9.784,57.0539,0.012581
9.816,57.0633,0.012581
9.846,57.0731,0.012581
9.879,57.0843,0.012581
9.908,57.0949,0.012581
9.939,57.1072,0.012581
9.969,57.1196,0.012581
10.004,57.1351,0.012581
10.031,57.1475,0.012581
10.062,57.1622,0.012251
10.093,57.1784,0.012251
10.124,57.1949,0.012251
10.156,57.2125,0.012251
10.187,57.2301,0.012251
10.217,57.2487,0.012251
10.247,57.2675,0.012251
10.278,57.2869,0.011922
10.309,57.3079,0.011922
10.340,57.3291,0.011922
10.372,57.3522,0.011922
10.402,57.3745,0.011922
10.433,57.3983,0.011922
10.464,57.4221,0.011922
10.495,57.4473,0.011922
10.526,57.4735,0.011367
10.557,57.5000,0.011367
10.588,57.5274,0.011367
10.620,57.5565,0.011367
10.650,57.5838,0.011367
10.681,57.6138,0.011367
10.711,57.6434,0.011367
10.743,57.6750,0.011367
10.774,57.7066,0.010699
10.805,57.7397,0.010699
10.836,57.7722,0.010699
10.867,57.8072,0.010699
10.898,57.8413,0.010699
10.929,57.8762,0.010699
10.959,57.9110,0.010699
10.990,57.9472,0.010699
11.021,57.9849,0.009758
11.052,58.0235,0.009758
11.082,58.0613,0.009758
11.114,58.1016,0.009758
11.144,58.1413,0.009758
11.177,58.1853,0.009758
11.207,58.2259,0.009758
11.238,58.2687,0.009758
11.268,58.3100,0.008459
11.304,58.3603,0.008459
11.329,58.3979,0.008459
11.361,58.4455,0.008459
11.391,58.4892,0.008459
11.422,58.5376,0.008459
11.451,58.5811,0.008459
11.483,58.6294,0.008459
11.513,58.6780,0.006653
11.545,58.7282,0.006653
11.576,58.7802,0.006653
11.606,58.8301,0.006653
11.637,58.8819,0.006653
11.669,58.9354,0.006653
11.699,58.9875,0.006653
11.730,59.0411,0.006653
11.761,59.0967,0.004112
11.792,59.1522,0.004112
11.823,59.2080,0.004112
11.853,59.2648,0.004112
11.885,59.3226,0.004112
11.922,59.3920,0.004112
11.963,59.4709,0.004112
11.993,59.5304,0.004112
12.025,59.5914,-0.000254
12.056,59.6504,-0.000254
12.087,59.7084,-0.000254
12.118,59.7657,-0.000254
12.154,59.8320,-0.000254
12.180,59.8775,-0.000254
12.211,59.9328,-0.000254
12.242,59.9863,-0.000254
12.273,60.0415,-0.000254
12.303,60.0931,-0.008281
12.335,60.1473,-0.008281
12.366,60.1981,-0.008281
12.396,60.2482,-0.008281
12.427,60.2972,-0.008281
12.459,60.3476,-0.008281
12.489,60.3954,-0.008281
12.520,60.4437,-0.008281
12.552,60.4914,-0.024108
12.582,60.5388,-0.024108
12.613,60.5836,-0.024108
12.645,60.6301,-0.024108
12.677,60.6749,-0.024108
12.708,60.7191,-0.024108
12.738,60.7617,-0.024108
12.770,60.8034,-0.024108
12.800,60.8430,-0.024108
12.831,60.8843,-0.055574
12.862,60.9248,-0.055574
12.893,60.9635,-0.055574
12.924,61.0023,-0.055574
12.955,61.0402,-0.055574
12.986,61.0766,-0.055574
13.016,61.1129,-0.055574
13.048,61.1488,-0.104579
13.078,61.1822,-0.104579
13.109,61.2165,-0.104579
13.139,61.2495,-0.104579
13.171,61.2826,-0.104579
13.203,61.3152,-0.104579
13.233,61.3461,-0.104579
13.265,61.3778,-0.104579
13.296,61.4065,-0.164801
13.327,61.4355,-0.164801
13.358,61.4644,-0.164801
13.389,61.4919,-0.164801
13.420,61.5185,-0.164801
13.451,61.5448,-0.164801
13.481,61.5697,-0.164801
13.512,61.5944,-0.164801
13.544,61.6187,-0.240464
13.574,61.6415,-0.240464
13.605,61.6638,-0.240464
13.636,61.6855,-0.240464
13.667,61.7062,-0.240464
13.697,61.7265,-0.240464
13.728,61.7459,-0.240464
13.759,61.7647,-0.240464
13.791,61.7830,-0.389071
13.822,61.8010,-0.389071
13.853,61.8180,-0.389071
13.886,61.8341,-0.389071
13.916,61.8490,-0.389071
13.946,61.8634,-0.389071
13.977,61.8769,-0.389071
14.008,61.8901,-0.389071
14.039,61.9025,-0.655328
14.070,61.9140,-0.655328
14.101,61.9249,-0.655328
14.132,61.9347,-0.655328
14.163,61.9441,-0.655328
14.194,61.9529,-0.655328
14.225,61.9609,-0.655328
14.256,61.9682,-0.988929
14.287,61.9745,-0.988929
14.319,61.9805,-0.988929
14.350,61.9854,-0.988929
14.381,61.9898,-0.988929
14.411,61.9932,-0.988929
14.442,61.9961,-0.988929
14.473,61.9982,-0.988929
14.504,61.9996,-0.988929
14.536,62.0003,-1.252711
14.566,62.0003,-1.252711
14.598,62.0003,-1.252711
14.628,62.0003,-1.252711
14.660,62.0003,-1.252711
14.689,62.0003,-1.252711
14.720,62.0003,-1.252711
14.751,62.0003,-1.252711
14.783,62.0003,-1.252711
14.814,62.0003,-1.195754
14.845,62.0003,-1.195754
14.876,62.0003,-1.195754
14.907,62.0003,-1.195754
14.938,62.0003,-1.195754
14.969,62.0003,-1.195754
14.999,62.0003,-1.195754
15.030,62.0003,-0.922789
15.062,62.0003,-0.922789
15.092,62.0003,-0.922789
15.123,62.0003,-0.922789
15.154,62.0003,-0.922789
15.185,62.0003,-0.922789
15.216,62.0003,-0.922789
15.247,62.0003,-0.922789
15.278,62.0003,-0.922789
15.309,62.0003,-0.727641
15.341,62.0003,-0.727641
15.372,62.0003,-0.727641
15.403,62.0003,-0.727641
15.435,62.0003,-0.727641
15.466,62.0003,-0.727641
15.498,62.0003,-0.727641
15.529,62.0003,-0.727641
15.561,62.0003,-0.616701
15.592,62.0003,-0.616701
15.623,62.0003,-0.616701
15.654,62.0003,-0.616701
15.685,62.0003,-0.616701
15.716,62.0003,-0.616701
15.748,62.0003,-0.616701
15.779,62.0003,-0.550965
15.810,62.0003,-0.550965
15.841,62.0003,-0.550965
15.871,62.0003,-0.550965
15.903,62.0003,-0.550965
15.933,62.0003,-0.550965
15.964,62.0003,-0.550965
15.996,62.0003,-0.550965
16.027,62.0003,-0.506645
16.057,62.0003,-0.506645
16.089,62.0003,-0.506645
16.121,62.0003,-0.506645
16.152,62.0003,-0.506645
16.183,62.0003,-0.506645
16.214,62.0003,-0.506645
16.245,62.0003,-0.506645
16.276,62.0003,-0.473147
16.307,62.0003,-0.473147
16.338,62.0003,-0.473147
16.368,62.0003,-0.473147
16.399,62.0003,-0.473147
16.430,62.0003,-0.473147
16.462,62.0003,-0.473147
16.492,62.0003,-0.473147
16.523,62.0003,-0.446885
16.555,62.0003,-0.446885
16.586,62.0003,-0.446885
16.618,62.0003,-0.446885
16.648,62.0003,-0.446885
16.680,62.0003,-0.446885
16.711,62.0003,-0.446885
16.742,62.0003,-0.446885
16.773,62.0003,-0.425750
16.805,62.0003,-0.425750
16.834,62.0003,-0.425750
16.865,62.0003,-0.425750
16.896,62.0003,-0.425750
16.931,62.0003,-0.425750
16.960,62.0003,-0.425750
16.991,62.0003,-0.425750
17.021,62.0003,-0.408408
17.053,62.0003,-0.408408
17.083,62.0003,-0.408408
17.114,62.0003,-0.408408
17.145,62.0003,-0.408408
17.177,62.0003,-0.408408
17.208,62.0003,-0.408408
17.240,62.0003,-0.408408
17.270,62.0003,-0.393983
17.302,62.0003,-0.393983
17.333,62.0003,-0.393983
17.364,62.0003,-0.393983
17.395,62.0003,-0.393983
17.426,62.0003,-0.393983
17.458,62.0003,-0.393983
17.487,62.0003,-0.393983
17.518,62.0003,-0.381591
17.548,62.0003,-0.381591
17.579,62.0003,-0.381591
17.610,62.0003,-0.381591
17.642,62.0003,-0.381591
17.673,62.0003,-0.381591
17.704,62.0003,-0.381591
17.733,62.0003,-0.381591
17.768,62.0003,-0.381591
17.797,62.0003,-0.371014
17.829,62.0003,-0.371014
17.859,62.0003,-0.371014
17.891,62.0003,-0.371014
17.921,62.0003,-0.371014
17.953,62.0003,-0.371014
17.984,62.0003,-0.371014
18.015,62.0003,-0.361802
18.047,62.0003,-0.361802
18.078,62.0003,-0.361802
18.108,62.0003,-0.361802
18.139,62.0003,-0.361802
18.170,62.0003,-0.361802
18.199,62.0003,-0.361802
18.230,62.0003,-0.361802
18.262,62.0003,-0.361802
18.289,62.0003,-0.353616
18.323,62.0003,-0.353616
18.354,62.0003,-0.353616
18.384,62.0003,-0.353616
18.415,62.0003,-0.353616
18.446,62.0003,-0.353616
18.478,62.0003,-0.353616
18.509,62.0003,-0.346493
18.539,62.0003,-0.346493
18.570,62.0003,-0.346493
18.601,62.0003,-0.346493
18.632,62.0003,-0.346493
18.663,62.0003,-0.346493
18.695,62.0003,-0.346493
18.725,62.0003,-0.346493
18.756,62.0003,-0.346493
18.788,62.0003,-0.340169
18.819,62.0003,-0.340169
18.846,62.0003,-0.340169
18.882,62.0003,-0.340169
18.913,62.0003,-0.340169
18.944,62.0003,-0.340169
18.974,62.0003,-0.340169
19.005,62.0003,-0.340169
19.037,62.0003,-0.334345
19.068,62.0003,-0.334345
19.099,62.0003,-0.334345
19.130,62.0003,-0.334345
19.161,62.0003,-0.334345
19.191,62.0003,-0.334345
19.222,62.0003,-0.334345
19.253,62.0003,-0.334345
19.286,62.0003,-0.328972
19.315,62.0003,-0.328972
19.347,62.0003,-0.328972
19.378,62.0003,-0.328972
19.408,62.0003,-0.328972
19.438,62.0003,-0.328972
19.470,61.9999,-0.328972
19.500,61.9989,-0.328972
19.532,61.9971,-0.328972
19.562,61.9945,-0.324399
19.593,61.9913,-0.324399
19.625,61.9873,-0.324399
19.656,61.9826,-0.324399
19.687,61.9771,-0.324399
19.718,61.9708,-0.324399
19.749,61.9640,-0.324399
19.780,61.9562,-0.324399
19.811,61.9480,-0.087877
19.843,61.9384,-0.087877
19.875,61.9285,-0.087877
19.905,61.9181,-0.087877
19.935,61.9070,-0.087877
19.966,61.8953,-0.087877
19.996,61.8827,-0.087877
20.027,61.8691,-0.087877
20.058,61.8547,0.738218
20.089,61.8402,0.738218
20.120,61.8251,0.738218
20.150,61.8088,0.738218
20.181,61.7917,0.738218
20.213,61.7736,0.738218
20.243,61.7555,0.738218
20.275,61.7356,0.738218
20.305,61.7162,0.743741
20.337,61.6950,0.743741
20.368,61.6736,0.743741
20.402,61.6487,0.743741
20.430,61.6290,0.743741
20.457,61.6084,0.743741
20.492,61.5810,0.743741
20.523,61.5551,0.160068
20.555,61.5288,0.160068
20.586,61.5025,0.160068
20.616,61.4761,0.160068
20.647,61.4475,0.160068
20.678,61.4186,0.160068
20.709,61.3896,0.160068
20.740,61.3591,0.160068
20.772,61.3280,0.160068
20.802,61.2968,0.178718
20.834,61.2637,0.178718
20.866,61.2299,0.178718
20.897,61.1955,0.178718
20.928,61.1612,0.178718
20.958,61.1268,0.178718
20.989,61.0913,0.178718
21.021,61.0531,0.178718
21.052,61.0159,0.215999
21.082,60.9781,0.215999
21.114,60.9379,0.215999
21.146,60.8967,0.215999
21.178,60.8553,0.215999
21.209,60.8139,0.215999
21.239,60.7733,0.215999
21.271,60.7299,0.256066
21.302,60.6870,0.256066
21.332,60.6430,0.256066
21.364,60.5971,0.256066
21.395,60.5523,0.256066
21.426,60.5046,0.256066
21.457,60.4581,0.256066
21.488,60.4096,0.256066
21.519,60.3625,0.256066
21.550,60.3122,0.276908
21.581,60.2645,0.276908
21.612,60.2128,0.276908
21.643,60.1605,0.276908
21.674,60.1085,0.276908
21.706,60.0556,0.276908
21.738,59.9982,0.276908
21.770,59.9445,0.290562
21.801,59.8873,0.290562
21.831,59.8339,0.290562
21.863,59.7761,0.290562
21.894,59.7190,0.290562
21.925,59.6611,0.290562
21.956,59.6022,0.290562
21.987,59.5432,0.290562
22.019,59.4803,0.325951
22.049,59.4215,0.325951
22.080,59.3615,0.325951
22.111,59.3028,0.325951
22.143,59.2430,0.325951
22.173,59.1878,0.325951
22.204,59.1308,0.325951
22.235,59.0757,0.325951
22.266,59.0193,0.329301
22.298,58.9647,0.329301
22.328,58.9121,0.329301
22.359,58.8584,0.329301
22.390,58.8056,0.329301
22.421,58.7535,0.329301
22.451,58.7057,0.329301
22.482,58.6547,0.329301
22.513,58.6058,0.329301
22.545,58.5568,0.167097
22.575,58.5086,0.167097
22.607,58.4601,0.167097
22.637,58.4167,0.167097
22.668,58.3695,0.167097
22.698,58.3261,0.167097
22.730,58.2802,0.167097
22.761,58.2378,0.021191
22.793,58.1930,0.021191
22.830,58.1423,0.021191
22.869,58.0905,0.021191
22.900,58.0492,0.021191
22.931,58.0105,0.021191
22.963,57.9708,0.021191
22.994,57.9321,0.021191
23.025,57.8943,0.021191
23.056,57.8587,0.016354
23.091,57.8167,0.016354
23.132,57.7712,0.016354
23.162,57.7370,0.016354
23.193,57.7051,0.016354
23.223,57.6720,0.016354
23.254,57.6411,0.016354
23.285,57.6090,0.015112
23.316,57.5794,0.015112
23.347,57.5484,0.015112
23.378,57.5198,0.015112
23.409,57.4913,0.015112
23.439,57.4645,0.015112
23.470,57.4371,0.015112
23.502,57.4097,0.015112
23.533,57.3847,0.015112
23.565,57.3598,0.014463
23.596,57.3355,0.014463
23.627,57.3126,0.014463
23.659,57.2894,0.014463
23.689,57.2676,0.014463
23.720,57.2465,0.014463
23.751,57.2262,0.014463
23.783,57.2058,0.014463
23.812,57.1878,0.013973
23.845,57.1685,0.013973
23.875,57.1522,0.013973
23.906,57.1347,0.013973
23.937,57.1192,0.013973
23.968,57.1037,0.013973
23.999,57.0891,0.013973
24.031,57.0750,0.013973
24.061,57.0621,0.013672
24.092,57.0500,0.013672
24.122,57.0385,0.013672
24.153,57.0273,0.013672
24.184,57.0169,0.013672
24.215,57.0080,0.013672
24.245,56.9991,0.013672
24.276,56.9911,0.013672
24.307,56.9839,0.013465
24.338,56.9772,0.013465
24.369,56.9713,0.013465
24.400,56.9661,0.013465
24.432,56.9616,0.013465
24.463,56.9579,0.013465
24.493,56.9550,0.013465
24.524,56.9528,0.013465
24.555,56.9513,0.013239
24.586,56.9504,0.013239
24.617,56.9503,0.013239
24.649,56.9503,0.013239
24.680,56.9503,0.013239
24.712,56.9503,0.013239
24.743,56.9503,0.013239
24.774,56.9503,0.013239
24.804,56.9503,0.013032
24.835,56.9508,0.013032
24.866,56.9519,0.013032
24.897,56.9539,0.013032
24.928,56.9565,0.013032
24.959,56.9600,0.013032
24.991,56.9641,0.013032
25.022,56.9690,0.013032
25.052,56.9744,0.012863
25.083,56.9808,0.012863
25.116,56.9880,0.012863
25.146,56.9958,0.012863
25.177,57.0041,0.012863
25.208,57.0135,0.012863
25.239,57.0231,0.012863
25.270,57.0340,0.012863
25.300,57.0453,0.012628
25.331,57.0574,0.012628
25.362,57.0703,0.012628
25.395,57.0840,0.012628
25.425,57.0980,0.012628
25.454,57.1123,0.012628
25.485,57.1279,0.012628
25.517,57.1447,0.012628
25.546,57.1612,0.012223
25.578,57.1794,0.012223
25.609,57.1982,0.012223
25.640,57.2182,0.012223
25.672,57.2383,0.012223
25.703,57.2591,0.012223
25.734,57.2807,0.012223
25.766,57.3035,0.012223
25.797,57.3267,0.011724
25.828,57.3503,0.011724
25.858,57.3742,0.011724
25.887,57.3974,0.011724
25.919,57.4246,0.011724
25.950,57.4519,0.011724
25.981,57.4782,0.011724
26.013,57.5077,0.011724
26.044,57.5361,0.011724
26.075,57.5657,0.011188
26.107,57.5970,0.011188
26.137,57.6267,0.011188
26.168,57.6590,0.011188
26.198,57.6899,0.011188
26.229,57.7239,0.011188
26.260,57.7567,0.011188
26.291,57.7919,0.010454
26.321,57.8263,0.010454
26.352,57.8625,0.010454
26.384,57.8998,0.010454
26.413,57.9354,0.010454
26.440,57.9682,0.010454
26.476,58.0142,0.010454
26.508,58.0546,0.010454
26.538,58.0937,0.009391
26.569,58.1350,0.009391
26.600,58.1764,0.009391
26.636,58.2275,0.009391
26.677,58.2839,0.009391
26.709,58.3303,0.009391
26.739,58.3726,0.009391
26.770,58.4184,0.009391
26.800,58.4646,0.007904
26.832,58.5124,0.007904
26.863,58.5608,0.007904
26.895,58.6115,0.007904
26.925,58.6600,0.007904
26.956,58.7102,0.007904
26.987,58.7611,0.007904
27.018,58.8120,0.005872
27.048,58.8646,0.005872
27.079,58.9157,0.005872
27.111,58.9709,0.005872
27.142,59.0264,0.005872
27.173,59.0819,0.005872
27.204,59.1376,0.005872
27.234,59.1920,0.005872
27.265,59.2506,0.005872
27.297,59.3109,0.002766
27.328,59.3696,0.002766
27.360,59.4302,0.002766
27.390,59.4897,0.002766
27.421,59.5497,0.002766
27.453,59.6083,0.002766
27.484,59.6672,0.002766
27.521,59.7364,0.002766
27.562,59.8108,-0.002964
27.593,59.8651,-0.002964
27.624,59.9196,-0.002964
27.654,59.9741,-0.002964
27.686,60.0271,-0.002964
27.716,60.0776,-0.002964
27.747,60.1292,-0.002964
27.777,60.1798,-0.013456
27.809,60.2310,-0.013456
27.839,60.2799,-0.013456
27.872,60.3308,-0.013456
27.902,60.3783,-0.013456
27.933,60.4266,-0.013456
27.964,60.4728,-0.013456
28.000,60.5255,-0.013456
28.027,60.5652,-0.013456
28.058,60.6100,-0.034693
28.089,60.6539,-0.034693
28.121,60.6977,-0.034693
28.152,60.7395,-0.034693
28.183,60.7820,-0.034693
28.214,60.8223,-0.034693
28.246,60.8638,-0.034693
28.276,60.9031,-0.074148
28.307,60.9405,-0.074148
28.338,60.9785,-0.074148
28.370,61.0177,-0.074148
28.401,61.0540,-0.074148
28.433,61.0911,-0.074148
28.464,61.1252,-0.074148
28.496,61.1605,-0.074148
28.526,61.1934,-0.128546
28.557,61.2262,-0.128546
28.587,61.2574,-0.128546
28.618,61.2890,-0.128546
28.649,61.3193,-0.128546
28.680,61.3498,-0.128546
28.711,61.3787,-0.128546
28.742,61.4067,-0.128546
28.773,61.4350,-0.193322
28.805,61.4630,-0.193322
28.836,61.4885,-0.193322
28.867,61.5141,-0.193322
28.897,61.5389,-0.193322
28.928,61.5623,-0.193322
28.959,61.5862,-0.193322
28.991,61.6096,-0.193322
29.022,61.6313,-0.288896
29.053,61.6525,-0.288896
29.084,61.6726,-0.288896
29.113,61.6919,-0.288896
29.144,61.7103,-0.288896
29.175,61.7287,-0.288896
29.206,61.7462,-0.288896
29.237,61.7632,-0.288896
29.268,61.7798,-0.485784
29.298,61.7946,-0.485784
29.329,61.8092,-0.485784
29.362,61.8236,-0.485784
29.392,61.8368,-0.485784
29.424,61.8494,-0.485784
29.455,61.8612,-0.485784
29.486,61.8722,-0.485784
29.517,61.8826,-0.792013
29.548,61.8922,-0.792013
29.579,61.9008,-0.792013
29.610,61.9092,-0.792013
29.640,61.9162,-0.792013
29.671,61.9228,-0.792013
29.701,61.9287,-0.792013
29.732,61.9338,-0.792013
29.763,61.9384,-0.792013
29.795,61.9424,-1.126132
29.827,61.9454,-1.126132
29.857,61.9477,-1.126132
29.888,61.9493,-1.126132
29.919,61.9502,-1.126132
29.951,61.9503,-1.126132
29.983,61.9503,-1.126132
30.014,61.9503,-1.126132
30.045,61.9503,-1.277129
30.076,61.9503,-1.277129
30.107,61.9503,-1.277129
30.138,61.9503,-1.277129
30.168,61.9503,-1.277129
30.199,61.9503,-1.277129
30.230,61.9503,-1.277129
30.260,61.9503,-1.277129
30.293,61.9503,-1.092445
30.324,61.9503,-1.092445
30.355,61.9503,-1.092445
30.386,61.9503,-1.092445
30.417,61.9503,-1.092445
30.448,61.9503,-1.092445
30.480,61.9503,-1.092445
30.511,61.9503,-1.092445
30.543,61.9503,-0.828645
30.574,61.9503,-0.828645
30.605,61.9503,-0.828645
30.636,61.9503,-0.828645
30.668,61.9503,-0.828645
30.699,61.9503,-0.828645
30.730,61.9503,-0.828645
30.760,61.9503,-0.828645
30.790,61.9503,-0.679812
30.822,61.9503,-0.679812
30.852,61.9503,-0.679812
30.883,61.9503,-0.679812
30.913,61.9503,-0.679812
30.944,61.9503,-0.679812
30.975,61.9503,-0.679812
31.007,61.9503,-0.679812
31.037,61.9503,-0.589451
31.068,61.9503,-0.589451
31.099,61.9503,-0.589451
31.131,61.9503,-0.589451
31.162,61.9503,-0.589451
31.193,61.9503,-0.589451
31.224,61.9503,-0.589451
31.255,61.9503,-0.533200
31.286,61.9503,-0.533200
31.316,61.9503,-0.533200
31.348,61.9503,-0.533200
31.379,61.9503,-0.533200
31.409,61.9503,-0.533200
31.441,61.9503,-0.533200
31.471,61.9503,-0.533200
31.502,61.9503,-0.533200
31.533,61.9503,-0.494366
31.565,61.9503,-0.494366
31.595,61.9503,-0.494366
31.627,61.9503,-0.494366
31.657,61.9503,-0.494366
31.689,61.9503,-0.494366
31.721,61.9503,-0.494366
31.753,61.9503,-0.494366
31.784,61.9503,-0.464274
31.815,61.9503,-0.464274
31.846,61.9503,-0.464274
31.876,61.9503,-0.464274
31.908,61.9503,-0.464274
31.938,61.9503,-0.464274
31.969,61.9503,-0.464274
32.001,61.9503,-0.464274
32.032,61.9503,-0.440241
32.062,61.9503,-0.440241
32.093,61.9503,-0.440241
32.124,61.9503,-0.440241
32.155,61.9503,-0.440241
32.186,61.9503,-0.440241
32.220,61.9503,-0.440241
32.248,61.9503,-0.440241
32.278,61.9503,-0.420707
32.310,61.9503,-0.420707
32.340,61.9503,-0.420707
32.371,61.9503,-0.420707
32.403,61.9503,-0.420707
32.434,61.9503,-0.420707
32.466,61.9503,-0.420707
32.496,61.9503,-0.420707
32.527,61.9503,-0.420707
32.557,61.9503,-0.404428
32.589,61.9503,-0.404428
32.620,61.9503,-0.404428
32.651,61.9503,-0.404428
32.682,61.9503,-0.404428
32.714,61.9503,-0.404428
32.745,61.9503,-0.404428
32.776,61.9503,-0.404428
32.807,61.9503,-0.390615
32.838,61.9503,-0.390615
32.869,61.9503,-0.390615
32.903,61.9503,-0.390615
32.930,61.9503,-0.390615
32.957,61.9503,-0.390615
32.994,61.9503,-0.390615
33.023,61.9503,-0.390615
33.054,61.9503,-0.378909
33.085,61.9503,-0.378909
33.115,61.9503,-0.378909
33.147,61.9503,-0.378909
33.178,61.9503,-0.378909
33.209,61.9503,-0.378909
33.239,61.9503,-0.378909
33.271,61.9503,-0.378909
33.301,61.9503,-0.368747
33.333,61.9503,-0.368747
33.364,61.9503,-0.368747
33.395,61.9503,-0.368747
33.426,61.9503,-0.368747
33.457,61.9503,-0.368747
33.488,61.9503,-0.368747
33.519,61.9503,-0.368747
33.550,61.9503,-0.359845
33.581,61.9503,-0.359845
33.612,61.9503,-0.359845
33.642,61.9503,-0.359845
33.674,61.9503,-0.359845
33.705,61.9503,-0.359845
33.735,61.9503,-0.359845
33.766,61.9503,-0.359845
33.797,61.9503,-0.352186
33.828,61.9503,-0.352186
33.859,61.9503,-0.352186
33.892,61.9503,-0.352186
33.922,61.9503,-0.352186
33.954,61.9503,-0.352186
33.984,61.9503,-0.352186
34.017,61.9503,-0.352186
34.047,61.9503,-0.352186
34.075,61.9503,-0.345157
34.107,61.9503,-0.345157
34.138,61.9503,-0.345157
34.169,61.9503,-0.345157
34.200,61.9503,-0.345157
34.231,61.9503,-0.345157
34.262,61.9503,-0.345157
34.294,61.9503,-0.345157
34.325,61.9503,-0.338993
34.356,61.9503,-0.338993
34.387,61.9503,-0.338993
34.418,61.9503,-0.338993
34.449,61.9503,-0.338993
34.481,61.9503,-0.338993
34.511,61.9503,-0.338993
34.542,61.9503,-0.333281
34.573,61.9503,-0.333281
34.604,61.9503,-0.333281
34.636,61.9503,-0.333281
34.665,61.9503,-0.333281
34.696,61.9503,-0.333281
34.727,61.9503,-0.333281
34.758,61.9503,-0.333281
34.790,61.9503,-0.328012
34.822,61.9503,-0.328012
34.853,61.9503,-0.328012
34.883,61.9503,-0.328012
34.915,61.9503,-0.328012
34.946,61.9503,-0.328012
34.977,61.9503,-0.328012
35.008,61.9502,-0.328012
35.040,61.9495,-0.328012
35.071,61.9480,-0.323420
35.102,61.9459,-0.323420
35.133,61.9429,-0.323420
35.164,61.9394,-0.323420
35.196,61.9348,-0.323420
35.226,61.9299,-0.323420
35.258,61.9238,-0.323420
35.288,61.9175,-0.207173
35.320,61.9099,-0.207173
35.350,61.9021,-0.207173
35.381,61.8933,-0.207173
35.413,61.8837,-0.207173
35.444,61.8736,-0.207173
35.475,61.8623,-0.207173
35.506,61.8506,-0.207173
35.537,61.8386,0.687848
35.568,61.8251,0.687848
35.599,61.8117,0.687848
35.629,61.7968,0.687848
35.660,61.7822,0.687848
35.691,61.7659,0.687848
35.722,61.7493,0.687848
35.753,61.7313,0.687848
35.785,61.7131,0.818360
35.816,61.6937,0.818360
35.848,61.6738,0.818360
35.878,61.6539,0.818360
35.909,61.6328,0.818360
35.940,61.6109,0.818360
35.970,61.5890,0.818360
36.005,61.5614,0.818360
36.047,61.5300,0.163493
36.078,61.5046,0.163493
36.108,61.4795,0.163493
36.140,61.4527,0.163493
36.171,61.4255,0.163493
36.201,61.3976,0.163493
36.232,61.3693,0.163493
36.264,61.3385,0.173844
36.295,61.3090,0.173844
36.325,61.2785,0.173844
36.357,61.2466,0.173844
36.388,61.2136,0.173844
36.419,61.1808,0.173844
36.455,61.1413,0.173844
36.482,61.1107,0.173844
36.513,61.0766,0.208509
36.543,61.0405,0.208509
36.575,61.0042,0.208509
36.606,60.9663,0.208509
36.637,60.9274,0.208509
36.668,60.8886,0.208509
36.699,60.8501,0.208509
36.731,60.8075,0.208509
36.761,60.7670,0.208509
36.793,60.7247,0.247249
36.823,60.6832,0.247249
36.855,60.6385,0.247249
36.886,60.5946,0.247249
36.917,60.5497,0.247249
36.947,60.5042,0.247249
36.978,60.4588,0.247249
37.011,60.4096,0.247249
37.040,60.3646,0.270952
37.072,60.3155,0.270952
37.102,60.2658,0.270952
37.133,60.2171,0.270952
37.165,60.1655,0.270952
37.194,60.1169,0.270952
37.225,60.0642,0.270952
37.257,60.0107,0.270952
37.287,59.9573,0.284549
37.319,59.9034,0.284549
37.350,59.8478,0.284549
37.381,59.7918,0.284549
37.412,59.7349,0.284549
37.443,59.6790,0.284549
37.474,59.6210,0.284549
37.506,59.5605,0.284549
37.537,59.5016,0.316956
37.568,59.4396,0.316956
37.599,59.3798,0.316956
37.632,59.3161,0.316956
37.662,59.2599,0.316956
37.693,59.2015,0.316956
37.724,59.1449,0.316956
37.755,59.0886,0.316956
37.785,59.0334,0.339210
37.816,58.9784,0.339210
37.847,58.9242,0.339210
37.877,58.8724,0.339210
37.907,58.8190,0.339210
37.938,58.7665,0.339210
37.969,58.7152,0.339210
38.001,58.6630,0.339210
38.032,58.6124,0.188805
38.063,58.5620,0.188805
38.095,58.5129,0.188805
38.125,58.4653,0.188805
38.156,58.4195,0.188805
38.187,58.3730,0.188805
38.217,58.3276,0.188805
38.248,58.2830,0.188805
38.278,58.2389,0.188805
38.310,58.1944,0.028925
38.341,58.1516,0.028925
38.372,58.1085,0.028925
38.403,58.0675,0.028925
38.434,58.0265,0.028925
38.465,57.9869,0.028925
38.497,57.9467,0.028925
38.528,57.9072,0.016928
38.559,57.8688,0.016928
38.589,57.8320,0.016928
38.622,57.7947,0.016928
38.652,57.7604,0.016928
38.683,57.7248,0.016928
38.714,57.6906,0.016928
38.746,57.6560,0.016928
38.776,57.6248,0.015366
38.807,57.5919,0.015366
38.838,57.5610,0.015366
38.870,57.5294,0.015366
38.901,57.4999,0.015366
38.931,57.4707,0.015366
38.962,57.4431,0.015366
38.993,57.4148,0.015366
39.024,57.3884,0.014594
39.056,57.3610,0.014594
39.086,57.3363,0.014594
39.117,57.3114,0.014594
39.148,57.2873,0.014594
39.179,57.2635,0.014594
39.210,57.2409,0.014594
39.241,57.2193,0.014594
39.272,57.1980,0.014152
39.307,57.1752,0.014152
39.334,57.1579,0.014152
39.366,57.1387,0.014152
39.396,57.1210,0.014152
39.427,57.1029,0.014152
39.458,57.0863,0.014152
39.491,57.0691,0.014152
39.521,57.0544,0.013804
39.551,57.0397,0.013804
39.582,57.0265,0.013804
39.614,57.0128,0.013804
39.644,57.0007,0.013804
39.676,56.9884,0.013804
39.707,56.9776,0.013804
39.738,56.9674,0.013804
39.769,56.9579,0.013512
39.800,56.9492,0.013512
39.831,56.9410,0.013512
39.863,56.9335,0.013512
39.893,56.9271,0.013512
39.925,56.9211,0.013512
39.954,56.9162,0.013512
39.986,56.9116,0.013512
40.018,56.9079,0.013277
40.048,56.9049,0.013277
40.079,56.9027,0.013277
40.110,56.9012,0.013277
40.141,56.9005,0.013277
40.172,56.9003,0.013277
40.203,56.9003,0.013277
40.234,56.9003,0.013277
40.265,56.9003,0.013061
40.296,56.9003,0.013061
40.327,56.9003,0.013061
40.357,56.9008,0.013061
40.387,56.9021,0.013061
40.418,56.9041,0.013061
40.450,56.9067,0.013061
40.480,56.9100,0.013061
40.512,56.9142,0.013061
40.543,56.9191,0.012919
40.573,56.9245,0.012919
40.606,56.9311,0.012919
40.635,56.9377,0.012919
40.666,56.9455,0.012919
40.696,56.9538,0.012919
40.729,56.9633,0.012919
40.759,56.9733,0.012919
40.791,56.9841,0.012656
40.821,56.9952,0.012656
40.852,57.0076,0.012656
40.883,57.0201,0.012656
40.915,57.0340,0.012656
40.947,57.0489,0.012656
40.977,57.0638,0.012656
41.008,57.0797,0.012298
41.040,57.0960,0.012298
41.070,57.1135,0.012298
41.102,57.1313,0.012298
41.132,57.1496,0.012298
41.164,57.1696,0.012298
41.194,57.1893,0.012298
41.226,57.2104,0.012298
41.257,57.2320,0.012298
41.287,57.2544,0.011903
41.318,57.2771,0.011903
41.349,57.3014,0.011903
41.381,57.3256,0.011903
41.411,57.3507,0.011903
41.442,57.3768,0.011903
41.473,57.4035,0.011903
41.504,57.4309,0.011367
41.535,57.4587,0.011367
41.565,57.4867,0.011367
41.596,57.5161,0.011367
41.626,57.5458,0.011367
41.659,57.5785,0.011367
41.689,57.6094,0.011367
41.722,57.6431,0.011367
41.752,57.6764,0.011367
41.783,57.7097,0.011367
41.815,57.7451,0.010633
41.846,57.7814,0.010633
41.877,57.8174,0.010633
41.907,57.8532,0.010633
41.938,57.8903,0.010633
41.969,57.9297,0.010633
42.000,57.9691,0.010633
42.031,58.0082,0.010633
42.061,58.0476,0.009541
42.093,58.0891,0.009541
42.124,58.1315,0.009541
42.156,58.1751,0.009541
42.186,58.2168,0.009541
42.217,58.2625,0.009541
42.248,58.3069,0.009541
42.279,58.3530,0.008121
42.310,58.3982,0.008121
42.341,58.4468,0.008121
42.372,58.4932,0.008121
42.403,58.5419,0.008121
42.433,58.5893,0.008121
42.464,58.6408,0.008121
42.495,58.6899,0.008121
42.526,58.7411,0.008121
42.556,58.7922,0.006154
42.587,58.8448,0.006154
42.618,58.8998,0.006154
42.650,58.9545,0.006154
42.681,59.0085,0.006154
42.712,59.0657,0.006154
42.743,59.1215,0.006154
42.775,59.1813,0.006154
42.805,59.2367,0.003133
42.837,59.2970,0.003133
42.867,59.3550,0.003133
42.899,59.4159,0.003133
42.929,59.4752,0.003133
42.961,59.5360,0.003133
42.992,59.5931,0.003133
43.023,59.6511,0.003133
43.053,59.7070,-0.002183
43.085,59.7645,-0.002183
43.115,59.8182,-0.002183
43.148,59.8755,-0.002183
43.178,59.9282,-0.002183
43.209,59.9827,-0.002183
43.239,60.0339,-0.002183
43.270,60.0833,-0.002183
43.300,60.1354,-0.002183
43.332,60.1862,-0.011913
43.363,60.2368,-0.011913
43.395,60.2858,-0.011913
43.426,60.3345,-0.011913
43.458,60.3819,-0.011913
43.488,60.4291,-0.011913
43.520,60.4754,-0.011913
43.551,60.5207,-0.031814
43.582,60.5654,-0.031814
43.613,60.6084,-0.031814
43.645,60.6520,-0.031814
43.676,60.6950,-0.031814
43.708,60.7381,-0.031814
43.739,60.7787,-0.031814
43.771,60.8199,-0.069726
43.802,60.8598,-0.069726
43.833,60.8970,-0.069726
43.863,60.9356,-0.069726
43.893,60.9703,-0.069726
43.924,61.0073,-0.069726
43.955,61.0427,-0.069726
43.986,61.0778,-0.069726
44.017,61.1113,-0.123116
44.048,61.1460,-0.123116
44.078,61.1777,-0.123116
44.109,61.2098,-0.123116
44.140,61.2407,-0.123116
44.172,61.2719,-0.123116
44.203,61.3014,-0.123116
44.234,61.3313,-0.123116
44.265,61.3601,-0.186575
44.296,61.3871,-0.186575
44.327,61.4145,-0.186575
44.358,61.4402,-0.186575
44.391,61.4669,-0.186575
44.420,61.4907,-0.186575
44.451,61.5148,-0.186575
44.482,61.5378,-0.186575
44.513,61.5605,-0.186575
44.544,61.5827,-0.275393
44.576,61.6041,-0.275393
44.607,61.6246,-0.275393
44.639,61.6445,-0.275393
44.670,61.6636,-0.275393
44.701,61.6822,-0.275393
44.732,61.6997,-0.275393
44.763,61.7163,-0.461865
44.794,61.7328,-0.461865
44.826,61.7483,-0.461865
44.858,61.7627,-0.461865
44.889,61.7767,-0.461865
44.916,61.7880,-0.461865
44.952,61.8026,-0.461865
44.983,61.8140,-0.461865
45.014,61.8247,-0.751946
45.044,61.8346,-0.751946
45.075,61.8440,-0.751946
45.106,61.8527,-0.751946
45.137,61.8607,-0.751946
45.168,61.8680,-0.751946
45.198,61.8743,-0.751946
45.230,61.8801,-0.751946
45.260,61.8851,-0.751946
45.292,61.8896,-1.084183
45.322,61.8932,-1.084183
45.353,61.8960,-1.084183
45.384,61.8981,-1.084183
45.414,61.8996,-1.084183
45.447,61.9002,-1.084183
45.477,61.9003,-1.084183
45.509,61.9003,-1.084183
45.541,61.9003,-1.273130
45.571,61.9003,-1.273130
45.602,61.9003,-1.273130
45.632,61.9003,-1.273130
45.663,61.9003,-1.273130
45.694,61.9003,-1.273130
45.725,61.9003,-1.273130
45.756,61.9003,-1.273130
45.787,61.9003,-1.273130
45.818,61.9003,-1.111170
45.848,61.9003,-1.111170
45.880,61.9003,-1.111170
45.911,61.9003,-1.111170
45.941,61.9003,-1.111170
45.972,61.9003,-1.111170
46.002,61.9003,-1.111170
46.033,61.9003,-0.835956
46.065,61.9003,-0.835956
46.096,61.9003,-0.835956
46.127,61.9003,-0.835956
46.159,61.9003,-0.835956
46.190,61.9003,-0.835956
46.220,61.9003,-0.835956
46.252,61.9003,-0.835956
46.283,61.9003,-0.835956
46.314,61.9003,-0.679219
46.345,61.9003,-0.679219
46.376,61.9003,-0.679219
46.408,61.9003,-0.679219
46.439,61.9003,-0.679219
46.474,61.9003,-0.679219
46.503,61.9003,-0.679219
46.533,61.9003,-0.679219
46.564,61.9003,-0.585847
46.596,61.9003,-0.585847
46.627,61.9003,-0.585847
46.658,61.9003,-0.585847
46.688,61.9003,-0.585847
46.720,61.9003,-0.585847
46.750,61.9003,-0.585847
46.781,61.9003,-0.585847
46.812,61.9003,-0.528165
46.843,61.9003,-0.528165
46.873,61.9003,-0.528165
46.905,61.9003,-0.528165
46.935,61.9003,-0.528165
46.965,61.9003,-0.528165
46.996,61.9003,-0.528165
47.027,61.9003,-0.528165
47.057,61.9003,-0.528165
47.089,61.9003,-0.488645
47.120,61.9003,-0.488645
47.150,61.9003,-0.488645
47.181,61.9003,-0.488645
47.212,61.9003,-0.488645
47.244,61.9003,-0.488645
47.275,61.9003,-0.458618
47.306,61.9003,-0.458618
47.337,61.9003,-0.458618
47.368,61.9003,-0.458618
47.399,61.9003,-0.458618
47.432,61.9003,-0.458618
47.462,61.9003,-0.458618
47.492,61.9003,-0.458618
47.524,61.9003,-0.434661
47.555,61.9003,-0.434661
47.586,61.9003,-0.434661
47.617,61.9003,-0.434661
47.649,61.9003,-0.434661
47.680,61.9003,-0.434661
47.711,61.9003,-0.434661
47.742,61.9003,-0.434661
47.773,61.9003,-0.415052
47.804,61.9003,-0.415052
47.835,61.9003,-0.415052
47.866,61.9003,-0.415052
47.897,61.9003,-0.415052
47.928,61.9003,-0.415052
47.959,61.9003,-0.415052
47.989,61.9003,-0.415052
48.020,61.9003,-0.415052
48.052,61.9003,-0.399130
48.083,61.9003,-0.399130
48.115,61.9003,-0.399130
48.146,61.9003,-0.399130
48.176,61.9003,-0.399130
48.207,61.9003,-0.399130
48.238,61.9003,-0.399130
48.270,61.9003,-0.385712
48.300,61.9003,-0.385712
48.331,61.9003,-0.385712
48.362,61.9003,-0.385712
48.393,61.9003,-0.385712
48.424,61.9003,-0.385712
48.454,61.9003,-0.385712
48.486,61.9003,-0.385712
48.517,61.9003,-0.374054
48.548,61.9003,-0.374054
48.579,61.9003,-0.374054
48.610,61.9003,-0.374054
48.641,61.9003,-0.374054
48.673,61.9003,-0.374054
48.704,61.9003,-0.374054
48.735,61.9003,-0.374054
48.766,61.9003,-0.363966
48.796,61.9003,-0.363966
48.828,61.9003,-0.363966
48.859,61.9003,-0.363966
48.890,61.9003,-0.363966
48.920,61.9003,-0.363966
48.951,61.9003,-0.363966
48.982,61.9003,-0.363966
49.013,61.9003,-0.355197
49.044,61.9003,-0.355197
49.075,61.9003,-0.355197
49.106,61.9003,-0.355197
49.137,61.9003,-0.355197
49.167,61.9003,-0.355197
49.199,61.9003,-0.355197
49.231,61.9003,-0.355197
49.261,61.9003,-0.355197
49.292,61.9003,-0.347631
49.328,61.9003,-0.347631
49.355,61.9003,-0.347631
49.387,61.9003,-0.347631
49.418,61.9003,-0.347631
49.449,61.9003,-0.347631
49.480,61.9003,-0.347631
49.511,61.9003,-0.347631
49.542,61.9003,-0.340894
49.572,61.9003,-0.340894
49.603,61.9003,-0.340894
49.634,61.9003,-0.340894
49.664,61.9003,-0.340894
49.696,61.9003,-0.340894
49.727,61.9003,-0.340894
49.758,61.9003,-0.340894
49.789,61.9003,-0.334589
49.820,61.9003,-0.334589
49.851,61.9003,-0.334589
49.882,61.9003,-0.334589
49.914,61.9003,-0.334589
49.945,61.9003,-0.334589
49.975,61.9003,-0.334589
50.006,61.9003,-0.334589
50.038,61.9003,-0.329160
50.068,61.9003,-0.329160
50.099,61.9003,-0.329160
50.130,61.9003,-0.329160
50.162,61.9003,-0.329160
50.193,61.9003,-0.329160
50.225,61.9003,-0.329160
50.256,61.9003,-0.329160
50.287,61.9003,-0.324088
50.318,61.9003,-0.324088
50.349,61.9003,-0.324088
50.380,61.9003,-0.324088
50.412,61.9003,-0.324088
50.443,61.9003,-0.324088
50.473,61.9003,-0.324088
50.504,61.9003,-0.324088
50.535,61.9002,-0.319261
50.566,61.8995,-0.319261
50.597,61.8980,-0.319261
50.629,61.8958,-0.319261
50.659,61.8929,-0.319261
50.690,61.8893,-0.319261
50.721,61.8848,-0.319261
50.752,61.8796,-0.319261
50.783,61.8739,-0.251803
50.814,61.8674,-0.251803
50.844,61.8603,-0.251803
50.876,61.8522,-0.251803
50.908,61.8429,-0.251803
50.938,61.8339,-0.251803
50.969,61.8237,-0.251803
51.000,61.8127,-0.251803
51.031,61.8008,0.572965
51.062,61.7882,0.572965
51.093,61.7756,0.572965
51.124,61.7616,0.572965
51.156,61.7469,0.572965
51.187,61.7313,0.572965
51.218,61.7154,0.572965
51.249,61.6981,0.572965
51.281,61.6808,0.572965
51.312,61.6617,0.752765
51.344,61.6427,0.752765
51.374,61.6230,0.752765
51.405,61.6028,0.752765
51.436,61.5822,0.752765
51.466,61.5608,0.752765
51.497,61.5382,0.752765
51.528,61.5146,0.752765
51.559,61.4908,0.165319
51.591,61.4654,0.165319
51.621,61.4405,0.165319
51.652,61.4134,0.165319
51.684,61.3870,0.165319
51.715,61.3585,0.165319
51.745,61.3311,0.165319
51.778,61.3002,0.165319
51.809,61.2703,0.171416
51.840,61.2391,0.171416
51.872,61.2079,0.171416
51.902,61.1758,0.171416
51.933,61.1434,0.171416
51.963,61.1106,0.171416
51.993,61.0778,0.171416
52.024,61.0426,0.171416
52.055,61.0071,0.205329
52.086,60.9698,0.205329
52.118,60.9323,0.205329
52.148,60.8951,0.205329
52.180,60.8566,0.205329
52.211,60.8164,0.205329
52.242,60.7768,0.205329
52.273,60.7358,0.205329
52.304,60.6950,0.246440
52.335,60.6520,0.246440
52.365,60.6103,0.246440
52.396,60.5670,0.246440
52.426,60.5239,0.246440
52.457,60.4784,0.246440
52.488,60.4325,0.246440
52.521,60.3833,0.246440
52.552,60.3360,0.273530
52.582,60.2887,0.273530
52.614,60.2395,0.273530
52.645,60.1901,0.273530
52.676,60.1396,0.273530
52.707,60.0886,0.273530
52.738,60.0361,0.273530
52.769,59.9842,0.273530
52.799,59.9306,0.285367
52.833,59.8736,0.285367
52.861,59.8233,0.285367
52.892,59.7693,0.285367
52.923,59.7115,0.285367
52.954,59.6561,0.285367
52.985,59.5986,0.285367
53.017,59.5383,0.285367
53.048,59.4797,0.313342
53.079,59.4204,0.313342
53.109,59.3610,0.313342
53.140,59.2997,0.313342
53.172,59.2400,0.313342
53.203,59.1813,0.313342
53.234,59.1243,0.313342
53.265,59.0672,0.313342
53.297,59.0085,0.339708
53.329,58.9516,0.339708
53.358,58.8977,0.339708
53.389,58.8440,0.339708
53.420,58.7911,0.339708
53.451,58.7380,0.339708
53.482,58.6874,0.339708
53.513,58.6356,0.339708
53.543,58.5866,0.201311
53.574,58.5360,0.201311
53.606,58.4855,0.201311
53.638,58.4353,0.201311
53.669,58.3880,0.201311
53.701,58.3400,0.201311
53.732,58.2940,0.201311
53.763,58.2480,0.201311
53.793,58.2040,0.038467
53.824,58.1600,0.038467
53.856,58.1155,0.038467
53.887,58.0726,0.038467
53.918,58.0316,0.038467
53.949,57.9904,0.038467
53.979,57.9511,0.038467
54.011,57.9105,0.038467
54.041,57.8736,0.038467
54.071,57.8355,0.017144
54.103,57.7980,0.017144
54.134,57.7606,0.017144
54.164,57.7256,0.017144
54.195,57.6901,0.017144
54.226,57.6555,0.017144
54.257,57.6213,0.017144
54.288,57.5888,0.015404
54.320,57.5552,0.015404
54.350,57.5244,0.015404
54.382,57.4927,0.015404
54.413,57.4623,0.015404
54.445,57.4324,0.015404
54.476,57.4038,0.015404
54.506,57.3755,0.015404
54.538,57.3484,0.014500
54.569,57.3214,0.014500
54.600,57.2961,0.014500
54.630,57.2712,0.014500
54.661,57.2462,0.014500
54.693,57.2230,0.014500
54.724,57.1996,0.014500
54.755,57.1775,0.014500
54.786,57.1556,0.014067
54.817,57.1350,0.014067
54.848,57.1148,0.014067
54.880,57.0957,0.014067
54.912,57.0762,0.014067
54.943,57.0586,0.014067
54.974,57.0411,0.014067
55.005,57.0254,0.014067
55.035,57.0099,0.013813
55.067,56.9946,0.013813
55.098,56.9807,0.013813
55.129,56.9668,0.013813
55.156,56.9560,0.013813
55.192,56.9423,0.013813
55.223,56.9312,0.013813
55.254,56.9206,0.013813
55.285,56.9108,0.013550
55.317,56.9015,0.013550
55.348,56.8933,0.013550
55.378,56.8860,0.013550
55.410,56.8789,0.013550
55.442,56.8727,0.013550
55.473,56.8674,0.013550
55.504,56.8628,0.013296
55.535,56.8589,0.013296
55.565,56.8557,0.013296
55.597,56.8533,0.013296
55.629,56.8515,0.013296
55.658,56.8506,0.013296
55.689,56.8504,0.013296
55.720,56.8504,0.013296
55.750,56.8504,0.013296
55.781,56.8504,0.013042
55.813,56.8504,0.013042
55.843,56.8504,0.013042
55.874,56.8504,0.013042
55.905,56.8509,0.013042
55.937,56.8522,0.013042
55.968,56.8542,0.013042
55.998,56.8568,0.013042
56.030,56.8603,0.013042
56.060,56.8644,0.012919
56.092,56.8693,0.012919
56.123,56.8749,0.012919
56.154,56.8814,0.012919
56.185,56.8884,0.012919
56.217,56.8965,0.012919
56.246,56.9046,0.012919
56.278,56.9140,0.012665
56.310,56.9242,0.012665
56.342,56.9353,0.012665
56.372,56.9464,0.012665
56.403,56.9588,0.012665
56.433,56.9712,0.012665
56.468,56.9873,0.012665
56.496,56.9996,0.012665
56.527,57.0147,0.012665
56.558,57.0306,0.012308
56.589,57.0471,0.012308
56.620,57.0647,0.012308
56.651,57.0825,0.012308
56.681,57.1011,0.012308
56.713,57.1204,0.012308
56.744,57.1409,0.012308
56.774,57.1613,0.012308
56.805,57.1824,0.011979
56.836,57.2049,0.011979
56.867,57.2278,0.011979
56.898,57.2518,0.011979
56.929,57.2765,0.011979
56.961,57.3027,0.011979
56.992,57.3283,0.011979
57.023,57.3556,0.011979
57.055,57.3832,0.011508
57.084,57.4107,0.011508
57.116,57.4393,0.011508
57.146,57.4690,0.011508
57.178,57.4996,0.011508
57.209,57.5311,0.011508
57.240,57.5629,0.011508
57.270,57.5945,0.011508
57.302,57.6282,0.011508
57.333,57.6628,0.010812
57.365,57.6981,0.010812
57.396,57.7343,0.010812
57.427,57.7705,0.010812
57.459,57.8082,0.010812
57.489,57.8449,0.010812
57.520,57.8837,0.010812
57.550,57.9214,0.009795
57.582,57.9627,0.009795
57.613,58.0025,0.009795
57.645,58.0452,0.009795
57.676,58.0871,0.009795
57.707,58.1309,0.009795
57.737,58.1724,0.009795
57.769,58.2181,0.009795
57.799,58.2616,0.008497
57.830,58.3075,0.008497
57.862,58.3551,0.008497
57.893,58.4021,0.008497
57.923,58.4503,0.008497
57.956,58.4993,0.008497
57.986,58.5492,0.008497
58.017,58.5983,0.008497
58.048,58.6493,0.006690
58.079,58.7005,0.006690
58.110,58.7546,0.006690
58.141,58.8066,0.006690
58.172,58.8603,0.006690
58.202,58.9126,0.006690
58.232,58.9663,0.006690
58.264,59.0225,0.006690
58.294,59.0781,0.003924
58.325,59.1354,0.003924
58.355,59.1914,0.003924
58.386,59.2500,0.003924
58.417,59.3095,0.003924
58.448,59.3699,0.003924
58.480,59.4312,0.003924
58.510,59.4873,0.003924
58.541,59.5458,-0.000819
58.572,59.6044,-0.000819
58.603,59.6614,-0.000819
58.634,59.7164,-0.000819
58.665,59.7728,-0.000819
58.697,59.8278,-0.000819
58.727,59.8825,-0.000819
58.759,59.9353,-0.000819
58.791,59.9888,-0.009269
58.822,60.0406,-0.009269
58.852,60.0907,-0.009269
58.884,60.1432,-0.009269
58.914,60.1904,-0.009269
58.945,60.2399,-0.009269
58.977,60.2880,-0.009269
59.007,60.3357,-0.009269
59.038,60.3809,-0.026573
59.069,60.4278,-0.026573
59.101,60.4730,-0.026573
59.133,60.5202,-0.026573
59.163,60.5610,-0.026573
59.194,60.6053,-0.026573
59.225,60.6466,-0.026573
59.255,60.6876,-0.026573
59.287,60.7299,-0.060928
59.318,60.7688,-0.060928
59.350,60.8091,-0.060928
59.381,60.8480,-0.060928
59.412,60.8857,-0.060928
59.443,60.9232,-0.060928
59.473,60.9579,-0.060928
59.504,60.9945,-0.060928
59.535,61.0285,-0.111796
59.566,61.0638,-0.111796
59.597,61.0964,-0.111796
59.629,61.1303,-0.111796
59.660,61.1619,-0.111796
59.691,61.1938,-0.111796
59.722,61.2242,-0.111796
59.753,61.2538,-0.111796
59.783,61.2817,-0.172941
59.814,61.3102,-0.172941
59.844,61.3369,-0.172941
59.875,61.3642,-0.172941
59.905,61.3907,-0.172941
59.942,61.4200,-0.172941
59.983,61.4521,-0.172941
60.013,61.4756,-0.172941
60.044,61.4984,-0.252593
60.075,61.5208,-0.252593
60.107,61.5432,-0.252593
60.137,61.5632,-0.252593
60.169,61.5841,-0.252593
60.199,61.6027,-0.252593
60.230,61.6214,-0.252593
60.261,61.6392,-0.416040
60.293,61.6565,-0.416040
60.324,61.6730,-0.416040
60.354,61.6885,-0.416040
60.385,61.7038,-0.416040
60.416,61.7175,-0.416040
60.447,61.7317,-0.416040
60.478,61.7442,-0.416040
60.509,61.7564,-0.416040
60.540,61.7675,-0.416040
60.572,61.7782,-0.690605
60.602,61.7879,-0.690605
60.634,61.7974,-0.690605
60.665,61.8058,-0.690605
60.696,61.8137,-0.690605
60.727,61.8205,-0.690605
60.759,61.8270,-0.690605
60.790,61.8324,-1.014298
60.821,61.8370,-1.014298
60.852,61.8411,-1.014298
60.882,61.8444,-1.014298
60.913,61.8470,-1.014298
60.945,61.8489,-1.014298
60.977,61.8500,-1.014298
61.007,61.8504,-1.014298
61.038,61.8504,-1.247865
61.069,61.8504,-1.247865
61.101,61.8504,-1.247865
61.132,61.8504,-1.247865
61.163,61.8504,-1.247865
61.196,61.8504,-1.247865
61.226,61.8504,-1.247865
61.257,61.8504,-1.247865
61.288,61.8504,-1.152451
61.319,61.8504,-1.152451
61.349,61.8504,-1.152451
61.380,61.8504,-1.152451
61.411,61.8504,-1.152451
61.441,61.8504,-1.152451
61.473,61.8504,-1.152451
61.504,61.8504,-1.152451
61.535,61.8504,-0.880868
61.565,61.8504,-0.880868
61.597,61.8504,-0.880868
61.629,61.8504,-0.880868
61.661,61.8504,-0.880868
61.691,61.8504,-0.880868
61.722,61.8504,-0.880868
61.754,61.8504,-0.880868
61.784,61.8504,-0.712059
61.816,61.8504,-0.712059
61.846,61.8504,-0.712059
61.878,61.8504,-0.712059
61.908,61.8504,-0.712059
61.939,61.8504,-0.712059
61.970,61.8504,-0.712059
62.000,61.8504,-0.712059
62.031,61.8504,-0.612156
62.063,61.8504,-0.612156
62.094,61.8504,-0.612156
62.125,61.8504,-0.612156
62.156,61.8504,-0.612156
62.187,61.8504,-0.612156
62.218,61.8504,-0.612156
62.249,61.8504,-0.612156
62.281,61.8504,-0.612156
62.312,61.8504,-0.545696
62.343,61.8504,-0.545696
62.374,61.8504,-0.545696
62.406,61.8504,-0.545696
62.436,61.8504,-0.545696
62.467,61.8504,-0.545696
62.498,61.8504,-0.545696
62.528,61.8504,-0.545696
62.559,61.8504,-0.499748
62.590,61.8504,-0.499748
62.621,61.8504,-0.499748
62.652,61.8504,-0.499748
62.683,61.8504,-0.499748
62.714,61.8504,-0.499748
62.745,61.8504,-0.499748
62.776,61.8504,-0.499748
62.807,61.8504,-0.499748
62.838,61.8504,-0.466805
62.869,61.8504,-0.466805
62.900,61.8504,-0.466805
62.931,61.8504,-0.466805
62.962,61.8504,-0.466805
62.993,61.8504,-0.466805
63.025,61.8504,-0.441323
63.056,61.8504,-0.441323
63.087,61.8504,-0.441323
63.119,61.8504,-0.441323
63.150,61.8504,-0.441323
63.181,61.8504,-0.441323
63.212,61.8504,-0.441323
63.243,61.8504,-0.441323
63.274,61.8504,-0.420603
63.305,61.8504,-0.420603
63.336,61.8504,-0.420603
63.367,61.8504,-0.420603
63.398,61.8504,-0.420603
63.429,61.8504,-0.420603
63.460,61.8504,-0.420603
63.491,61.8504,-0.420603
63.522,61.8504,-0.420603
63.553,61.8504,-0.403497
63.583,61.8504,-0.403497
63.614,61.8504,-0.403497
63.644,61.8504,-0.403497
63.675,61.8504,-0.403497
63.706,61.8504,-0.403497
63.737,61.8504,-0.403497
63.767,61.8504,-0.403497
63.798,61.8504,-0.403497
63.830,61.8504,-0.389147
63.860,61.8504,-0.389147
63.890,61.8504,-0.389147
63.921,61.8504,-0.389147
63.952,61.8504,-0.389147
63.984,61.8504,-0.389147
64.014,61.8504,-0.389147
64.045,61.8504,-0.376952
64.077,61.8504,-0.376952
64.108,61.8504,-0.376952
64.140,61.8504,-0.376952
64.170,61.8504,-0.376952
64.200,61.8504,-0.376952
64.232,61.8504,-0.376952
64.263,61.8504,-0.376952
64.295,61.8504,-0.366404
64.326,61.8504,-0.366404
64.357,61.8504,-0.366404
64.387,61.8504,-0.366404
64.418,61.8504,-0.366404
64.449,61.8504,-0.366404
64.481,61.8504,-0.366404
64.511,61.8504,-0.366404
64.542,61.8504,-0.357182
64.574,61.8504,-0.357182
64.605,61.8504,-0.357182
64.636,61.8504,-0.357182
64.666,61.8504,-0.357182
64.698,61.8504,-0.357182
64.728,61.8504,-0.357182
64.762,61.8504,-0.357182
64.792,61.8504,-0.349174
64.824,61.8504,-0.349174
64.853,61.8504,-0.349174
64.884,61.8504,-0.349174
64.915,61.8504,-0.349174
64.946,61.8504,-0.349174
64.978,61.8504,-0.349174
65.008,61.8504,-0.349174
65.039,61.8504,-0.342023
65.070,61.8504,-0.342023
65.101,61.8504,-0.342023
65.139,61.8504,-0.342023
65.180,61.8504,-0.342023
65.211,61.8504,-0.342023
65.241,61.8504,-0.342023
65.271,61.8504,-0.342023
65.302,61.8504,-0.335625
65.333,61.8504,-0.335625
65.365,61.8504,-0.335625
65.396,61.8504,-0.335625
65.427,61.8504,-0.335625
65.458,61.8504,-0.335625
65.488,61.8504,-0.335625
65.519,61.8504,-0.335625
65.550,61.8504,-0.329922
65.581,61.8504,-0.329922
65.612,61.8504,-0.329922
65.644,61.8504,-0.329922
65.674,61.8504,-0.329922
65.704,61.8504,-0.329922
65.735,61.8504,-0.329922
65.766,61.8504,-0.329922
65.796,61.8504,-0.324747
65.827,61.8504,-0.324747
65.858,61.8504,-0.324747
65.889,61.8504,-0.324747
65.921,61.8504,-0.324747
65.952,61.8504,-0.324747
65.983,61.8504,-0.324747
66.014,61.8504,-0.324747
66.044,61.8504,-0.324747
66.075,61.8504,-0.319788
66.107,61.8504,-0.319788
66.138,61.8504,-0.319788
66.168,61.8504,-0.319788
66.199,61.8504,-0.319788
66.230,61.8504,-0.319788
66.261,61.8504,-0.319788
66.292,61.8504,-0.315140
66.329,61.8504,-0.315140
66.370,61.8504,-0.315140
66.401,61.8504,-0.315140
66.432,61.8502,-0.315140
66.464,61.8494,-0.315140
66.496,61.8476,-0.315140
66.526,61.8454,-0.315140
66.557,61.8423,-0.310792
66.588,61.8386,-0.310792
66.620,61.8340,-0.310792
66.649,61.8290,-0.310792
66.680,61.8231,-0.310792
66.712,61.8164,-0.310792
66.744,61.8086,-0.310792
66.774,61.8006,-0.028276
66.805,61.7916,-0.028276
66.836,61.7820,-0.028276
66.868,61.7716,-0.028276
66.898,61.7607,-0.028276
66.929,61.7490,-0.028276
66.961,61.7363,-0.028276
66.992,61.7226,-0.028276
67.023,61.7089,0.575195
67.055,61.6938,0.575195
67.086,61.6785,0.575195
67.117,61.6621,0.575195
67.148,61.6455,0.575195
67.180,61.6269,0.575195
67.210,61.6089,0.575195
67.241,61.5903,0.575195
67.272,61.5702,0.528815
67.303,61.5497,0.528815
67.333,61.5289,0.528815
67.364,61.5064,0.528815
67.395,61.4838,0.528815
67.431,61.4567,0.528815
67.457,61.4364,0.528815
67.488,61.4114,0.528815
67.519,61.3861,0.164923
67.555,61.3555,0.164923
67.581,61.3333,0.164923
67.612,61.3048,0.164923
67.642,61.2775,0.164923
67.673,61.2479,0.164923
67.704,61.2182,0.164923
67.735,61.1866,0.164923
67.767,61.1553,0.187930
67.799,61.1216,0.187930
67.830,61.0891,0.187930
67.862,61.0544,0.187930
67.891,61.0225,0.187930
67.922,60.9872,0.187930
67.952,60.9524,0.187930
67.982,60.9162,0.187930
68.013,60.8791,0.227667
68.044,60.8411,0.227667
68.075,60.8017,0.227667
68.106,60.7637,0.227667
68.138,60.7227,0.227667
68.169,60.6809,0.227667
68.200,60.6398,0.227667
68.231,60.5980,0.227667
68.262,60.5539,0.227667
68.292,60.5115,0.268731
68.327,60.4620,0.268731
68.355,60.4212,0.268731
68.387,60.3736,0.268731
68.418,60.3272,0.268731
68.452,60.2743,0.268731
68.481,60.2301,0.268731
68.511,60.1811,0.268731
68.542,60.1325,0.288736
68.573,60.0819,0.288736
68.604,60.0301,0.288736
68.635,59.9796,0.288736
68.666,59.9271,0.288736
68.698,59.8712,0.288736
68.728,59.8197,0.288736
68.760,59.7638,0.288736
68.789,59.7111,0.301486
68.820,59.6545,0.301486
68.851,59.5987,0.301486
68.882,59.5391,0.301486
68.913,59.4820,0.301486
68.944,59.4229,0.301486
68.975,59.3639,0.301486
69.006,59.3021,0.301486
69.037,59.2431,0.336161
69.069,59.1832,0.336161
69.100,59.1243,0.336161
69.130,59.0662,0.336161
69.162,59.0080,0.336161
69.193,58.9512,0.336161
69.225,58.8950,0.336161
69.255,58.8416,0.336161
69.286,58.7883,0.336161
69.316,58.7354,0.333394
69.348,58.6822,0.333394
69.380,58.6285,0.333394
69.409,58.5797,0.333394
69.441,58.5278,0.333394
69.471,58.4793,0.333394
69.502,58.4299,0.333394
69.533,58.3822,0.165450
69.564,58.3353,0.165450
69.594,58.2889,0.165450
69.625,58.2424,0.165450
69.656,58.1977,0.165450
69.687,58.1526,0.165450
69.717,58.1094,0.165450
69.749,58.0663,0.165450
69.779,58.0250,0.020259
69.809,57.9843,0.020259
69.840,57.9435,0.020259
69.871,57.9025,0.020259
69.901,57.8638,0.020259
69.932,57.8248,0.020259
69.962,57.7877,0.020259
69.993,57.7501,0.020259
70.024,57.7139,0.016251
70.054,57.6782,0.016251
70.086,57.6427,0.016251
70.117,57.6078,0.016251
70.147,57.5737,0.016251
70.178,57.5408,0.016251
70.208,57.5100,0.016251
70.239,57.4779,0.016251
70.269,57.4482,0.015112
70.299,57.4179,0.015112
70.330,57.3889,0.015112
70.365,57.3565,0.015112
70.392,57.3319,0.015112
70.423,57.3047,0.015112
70.457,57.2758,0.015112
70.487,57.2503,0.015112
70.517,57.2262,0.014453
70.549,57.2005,0.014453
70.579,57.1774,0.014453
70.610,57.1545,0.014453
70.642,57.1314,0.014453
70.674,57.1091,0.014453
70.704,57.0886,0.014453
70.735,57.0689,0.014453
70.767,57.0493,0.014020
70.797,57.0308,0.014020
70.828,57.0130,0.014020
70.859,56.9955,0.014020
70.890,56.9795,0.014020
70.920,56.9636,0.014020
70.951,56.9490,0.014020
70.983,56.9343,0.014020
71.014,56.9208,0.013776
71.045,56.9078,0.013776
71.075,56.8959,0.013776
71.106,56.8845,0.013776
71.137,56.8739,0.013776
71.167,56.8641,0.013776
71.198,56.8547,0.013776
71.229,56.8461,0.013776
71.260,56.8383,0.013776
71.292,56.8313,0.013522
71.322,56.8248,0.013522
71.354,56.8194,0.013522
71.385,56.8144,0.013522
71.417,56.8101,0.013522
71.448,56.8066,0.013522
71.473,56.8045,0.013522
71.511,56.8021,0.013522
71.542,56.8009,0.013192
71.573,56.8004,0.013192
71.605,56.8004,0.013192
71.636,56.8004,0.013192
71.667,56.8004,0.013192
71.697,56.8005,0.013192
71.727,56.8011,0.013192
71.758,56.8025,0.013192
71.790,56.8046,0.012967
71.821,56.8074,0.012967
71.852,56.8112,0.012967
71.883,56.8154,0.012967
71.914,56.8206,0.012967
71.945,56.8262,0.012967
71.975,56.8326,0.012967
72.006,56.8398,0.012967
72.037,56.8478,0.012778
72.070,56.8572,0.012778
72.098,56.8657,0.012778
72.130,56.8758,0.012778
72.160,56.8863,0.012778
72.192,56.8982,0.012778
72.223,56.9106,0.012778
72.255,56.9242,0.012778
72.287,56.9383,0.012402
72.323,56.9553,0.012402
72.349,56.9681,0.012402
72.380,56.9844,0.012402
72.412,57.0010,0.012402
72.443,57.0193,0.012402
72.474,57.0369,0.012402
72.505,57.0559,0.012402
72.536,57.0752,0.012402
72.568,57.0967,0.012044
72.598,57.1171,0.012044
72.629,57.1390,0.012044
72.660,57.1615,0.012044
72.691,57.1847,0.012044
72.722,57.2084,0.012044
72.753,57.2337,0.012044
72.784,57.2585,0.011612
72.815,57.2847,0.011612
72.846,57.3121,0.011612
72.877,57.3393,0.011612
72.908,57.3680,0.011612
72.939,57.3968,0.011612
72.969,57.4260,0.011612
73.003,57.4591,0.011612
73.031,57.4877,0.011612
73.062,57.5202,0.010972
73.092,57.5515,0.010972
73.124,57.5859,0.010972
73.154,57.6189,0.010972
73.186,57.6548,0.010972
73.217,57.6896,0.010972
73.249,57.7281,0.010972
73.279,57.7639,0.010125
73.314,57.8067,0.010125
73.341,57.8403,0.010125
73.372,57.8794,0.010125
73.403,57.9196,0.010125
73.433,57.9591,0.010125
73.465,58.0022,0.010125
73.495,58.0423,0.010125
73.526,58.0854,0.008996
73.557,58.1285,0.008996
73.588,58.1726,0.008996
73.619,58.2186,0.008996
73.649,58.2630,0.008996
73.680,58.3096,0.008996
73.712,58.3567,0.008996
73.743,58.4061,0.008996
73.775,58.4558,0.007321
73.806,58.5061,0.007321
73.837,58.5554,0.007321
73.868,58.6063,0.007321
73.900,58.6589,0.007321
73.931,58.7122,0.007321
73.962,58.7645,0.007321
73.993,58.8195,0.007321
74.024,58.8734,0.004808
74.055,58.9305,0.004808
74.086,58.9842,0.004808
74.117,59.0411,0.004808
74.148,59.0989,0.004808
74.180,59.1588,0.004808
74.210,59.2170,0.004808
74.241,59.2771,0.004808
74.273,59.3370,0.000790
74.303,59.3952,0.000790
74.334,59.4541,0.000790
74.365,59.5129,0.000790
74.396,59.5707,0.000790
74.427,59.6269,0.000790
74.458,59.6826,0.000790
74.490,59.7395,0.000790
74.521,59.7933,-0.006483
74.552,59.8476,-0.006483
74.583,59.9008,-0.006483
74.614,59.9532,-0.006483
74.645,60.0030,-0.006483
74.676,60.0559,-0.006483
74.708,60.1056,-0.006483
74.738,60.1543,-0.006483
74.769,60.2028,-0.020861
74.801,60.2512,-0.020861
74.832,60.2992,-0.020861
74.863,60.3451,-0.020861
74.894,60.3914,-0.020861
74.925,60.4361,-0.020861
74.957,60.4821,-0.020861
74.989,60.5258,-0.020861
75.020,60.5701,-0.050238
75.051,60.6110,-0.050238
75.082,60.6527,-0.050238
75.113,60.6931,-0.050238
75.144,60.7332,-0.050238
75.176,60.7731,-0.050238
75.207,60.8117,-0.050238
75.238,60.8494,-0.050238
75.270,60.8868,-0.097522
75.301,60.9230,-0.097522
75.332,60.9585,-0.097522
75.363,60.9937,-0.097522
75.394,61.0267,-0.097522
75.425,61.0598,-0.097522
75.456,61.0925,-0.097522
75.487,61.1245,-0.097522
75.518,61.1552,-0.097522
75.550,61.1858,-0.155928
75.580,61.2150,-0.155928
75.610,61.2431,-0.155928
75.642,61.2718,-0.155928
75.673,61.2995,-0.155928
75.705,61.3262,-0.155928
75.735,61.3514,-0.155928
75.766,61.3768,-0.227620
75.796,61.4010,-0.227620
75.828,61.4255,-0.227620
75.855,61.4448,-0.227620
75.889,61.4699,-0.227620
75.920,61.4913,-0.227620
75.952,61.5124,-0.227620
75.984,61.5332,-0.227620
76.013,61.5518,-0.360297
76.046,61.5713,-0.360297
76.077,61.5893,-0.360297
76.108,61.6067,-0.360297
76.139,61.6230,-0.360297
76.170,61.6385,-0.360297
76.201,61.6537,-0.360297
76.231,61.6674,-0.360297
76.262,61.6811,-0.360297
76.292,61.6934,-0.603405
76.324,61.7055,-0.603405
76.355,61.7170,-0.603405
76.385,61.7275,-0.603405
76.416,61.7374,-0.603405
76.447,61.7466,-0.603405
76.479,61.7555,-0.603405
76.510,61.7629,-0.916343
76.541,61.7701,-0.916343
76.572,61.7763,-0.916343
76.602,61.7817,-0.916343
76.633,61.7865,-0.916343
76.664,61.7907,-0.916343
76.694,61.7941,-0.916343
76.725,61.7965,-0.916343
76.756,61.7985,-0.916343
76.786,61.7998,-1.171741
76.817,61.8003,-1.171741
76.847,61.8003,-1.171741
76.879,61.8003,-1.171741
76.911,61.8003,-1.171741
76.943,61.8003,-1.171741
76.973,61.8003,-1.171741
77.004,61.8003,-1.171741
77.035,61.8003,-1.161136
77.065,61.8003,-1.161136
77.097,61.8003,-1.161136
77.128,61.8003,-1.161136
77.159,61.8003,-1.161136
77.190,61.8003,-1.161136
77.222,61.8003,-1.161136
77.252,61.8003,-1.161136
77.283,61.8003,-1.161136
77.314,61.8003,-0.934833
77.346,61.8003,-0.934833
77.376,61.8003,-0.934833
77.407,61.8003,-0.934833
77.437,61.8003,-0.934833
77.468,61.8003,-0.934833
77.500,61.8003,-0.934833
77.530,61.8003,-0.934833
77.561,61.8003,-0.739450
77.593,61.8003,-0.739450
77.623,61.8003,-0.739450
77.653,61.8003,-0.739450
77.684,61.8003,-0.739450
77.715,61.8003,-0.739450
77.746,61.8003,-0.739450
77.777,61.8003,-0.739450
77.809,61.8003,-0.620888
77.841,61.8003,-0.620888
77.873,61.8003,-0.620888
77.904,61.8003,-0.620888
77.935,61.8003,-0.620888
77.966,61.8003,-0.620888
77.997,61.8003,-0.620888
78.027,61.8003,-0.620888
78.058,61.8003,-0.545140
78.089,61.8003,-0.545140
78.120,61.8003,-0.545140
78.151,61.8003,-0.545140
78.182,61.8003,-0.545140
78.213,61.8003,-0.545140
78.245,61.8003,-0.545140
78.276,61.8003,-0.493481
78.306,61.8003,-0.493481
78.338,61.8003,-0.493481
78.370,61.8003,-0.493481
78.400,61.8003,-0.493481
78.430,61.8003,-0.493481
78.461,61.8003,-0.493481
78.492,61.8003,-0.493481
78.523,61.8003,-0.493481
78.554,61.8003,-0.457856
78.585,61.8003,-0.457856
78.616,61.8003,-0.457856
78.647,61.8003,-0.457856
78.678,61.8003,-0.457856
78.708,61.8003,-0.457856
78.739,61.8003,-0.457856
78.770,61.8003,-0.431801
78.801,61.8003,-0.431801
78.831,61.8003,-0.431801
78.862,61.8003,-0.431801
78.893,61.8003,-0.431801
78.923,61.8003,-0.431801
78.955,61.8003,-0.431801
78.985,61.8003,-0.431801
79.016,61.8003,-0.410911
79.046,61.8003,-0.410911
79.077,61.8003,-0.410911
79.108,61.8003,-0.410911
79.139,61.8003,-0.410911
79.171,61.8003,-0.410911
79.202,61.8003,-0.410911
79.234,61.8003,-0.410911
79.266,61.8003,-0.410911
79.297,61.8003,-0.393861
79.328,61.8003,-0.393861
79.359,61.8003,-0.393861
79.390,61.8003,-0.393861
79.421,61.8003,-0.393861
79.452,61.8003,-0.393861
79.484,61.8003,-0.393861
79.515,61.8003,-0.393861
79.546,61.8003,-0.393861
79.576,61.8003,-0.379624
79.608,61.8003,-0.379624
79.639,61.8003,-0.379624
79.669,61.8003,-0.379624
79.701,61.8003,-0.379624
79.731,61.8003,-0.379624
79.762,61.8003,-0.379624
79.793,61.8003,-0.367467
79.823,61.8003,-0.367467
79.854,61.8003,-0.367467
79.885,61.8003,-0.367467
79.917,61.8003,-0.367467
79.947,61.8003,-0.367467
79.978,61.8003,-0.367467
80.012,61.8003,-0.367467
80.041,61.8003,-0.357154
80.073,61.8003,-0.357154
80.102,61.8003,-0.357154
80.134,61.8003,-0.357154
80.165,61.8003,-0.357154
80.196,61.8003,-0.357154
80.228,61.8003,-0.357154
80.258,61.8003,-0.357154
80.289,61.8003,-0.348205
80.324,61.8003,-0.348205
80.352,61.8003,-0.348205
80.383,61.8003,-0.348205
80.414,61.8003,-0.348205
80.445,61.8003,-0.348205
80.476,61.8003,-0.348205
80.512,61.8003,-0.348205
80.553,61.8003,-0.340367
80.583,61.8003,-0.340367
80.614,61.8003,-0.340367
80.645,61.8003,-0.340367
80.679,61.8003,-0.340367
80.708,61.8003,-0.340367
80.739,61.8003,-0.340367
80.771,61.8003,-0.333498
80.804,61.8003,-0.333498
80.833,61.8003,-0.333498
80.865,61.8003,-0.333498
80.895,61.8003,-0.333498
80.926,61.8003,-0.333498
80.955,61.8003,-0.333498
80.987,61.8003,-0.333498
81.018,61.8003,-0.327335
81.049,61.8003,-0.327335
81.079,61.8003,-0.327335
81.111,61.8003,-0.327335
81.141,61.8003,-0.327335
81.173,61.8003,-0.327335
81.204,61.8003,-0.327335
81.236,61.8003,-0.327335
81.267,61.8003,-0.321802
81.298,61.8003,-0.321802
81.329,61.8003,-0.321802
81.362,61.8003,-0.321802
81.391,61.8003,-0.321802
81.422,61.8003,-0.321802
81.453,61.8003,-0.321802
81.484,61.8003,-0.321802
81.515,61.8003,-0.316890
81.547,61.8003,-0.316890
81.577,61.8003,-0.316890
81.608,61.8003,-0.316890
81.639,61.8003,-0.316890
81.670,61.8003,-0.316890
81.701,61.8003,-0.316890
81.732,61.8003,-0.316890
81.764,61.8003,-0.316890
81.793,61.8003,-0.312373
81.824,61.8003,-0.312373
81.855,61.8003,-0.312373
81.885,61.8003,-0.312373
81.916,61.8003,-0.312373
81.949,61.8003,-0.312373
81.978,61.8003,-0.312373
82.009,61.8003,-0.312373
82.040,61.8003,-0.307988
82.071,61.8003,-0.307988
82.102,61.8003,-0.307988
82.134,61.8003,-0.307988
82.165,61.8003,-0.307988
82.196,61.8003,-0.307988
82.226,61.8003,-0.307988
82.258,61.8001,-0.307988
82.290,61.7994,-0.307988
82.321,61.7979,-0.303961
82.352,61.7957,-0.303961
82.384,61.7926,-0.303961
82.415,61.7888,-0.303961
82.447,61.7843,-0.303961
82.477,61.7793,-0.303961
82.508,61.7735,-0.303961
82.539,61.7668,-0.214710
82.570,61.7595,-0.214710
82.601,61.7514,-0.214710
82.632,61.7423,-0.214710
82.663,61.7328,-0.214710
82.701,61.7204,-0.214710
82.726,61.7113,-0.214710
82.757,61.6996,-0.214710
82.788,61.6874,0.666318
82.822,61.6726,0.666318
82.849,61.6604,0.666318
82.882,61.6449,0.666318
82.911,61.6305,0.666318
82.946,61.6125,0.666318
82.973,61.5980,0.666318
83.006,61.5783,0.666318
83.035,61.5624,0.814144
83.068,61.5418,0.814144
83.096,61.5241,0.814144
83.128,61.5026,0.814144
83.158,61.4828,0.814144
83.189,61.4603,0.814144
83.221,61.4372,0.814144
83.254,61.4127,0.814144
83.284,61.3887,0.165460
83.317,61.3621,0.165460
83.345,61.3391,0.165460
83.376,61.3133,0.165460
83.406,61.2870,0.165460
83.437,61.2600,0.165460
83.468,61.2306,0.165460
83.499,61.2018,0.165460
83.531,61.1702,0.177523
83.563,61.1396,0.177523
83.595,61.1072,0.177523
83.625,61.0760,0.177523
83.657,61.0419,0.177523
83.687,61.0094,0.177523
83.718,60.9750,0.177523
83.750,60.9389,0.177523
83.782,60.9020,0.212960
83.813,60.8662,0.212960
83.843,60.8289,0.212960
83.875,60.7911,0.212960
83.906,60.7516,0.212960
83.937,60.7124,0.212960
83.967,60.6720,0.212960
83.998,60.6318,0.212960
84.029,60.5900,0.254701
84.060,60.5481,0.254701
84.091,60.5043,0.254701
84.123,60.4608,0.254701
84.154,60.4155,0.254701
84.184,60.3719,0.254701
84.215,60.3272,0.254701
84.246,60.2785,0.254701
84.278,60.2314,0.281604
84.308,60.1827,0.281604
84.340,60.1345,0.281604
84.372,60.0830,0.281604
84.402,60.0343,0.281604
84.433,59.9829,0.281604
84.463,59.9328,0.281604
84.494,59.8805,0.281604
84.523,59.8295,0.292914
84.555,59.7747,0.292914
84.585,59.7215,0.292914
84.616,59.6667,0.292914
84.646,59.6122,0.292914
84.677,59.5561,0.292914
84.707,59.4978,0.292914
84.739,59.4390,0.292914
84.769,59.3824,0.320832
84.801,59.3203,0.320832
84.833,59.2596,0.320832
84.864,59.1991,0.320832
84.895,59.1405,0.320832
84.926,59.0804,0.320832
84.957,59.0231,0.320832
84.987,58.9668,0.320832
85.017,58.9135,0.320832
85.048,58.8569,0.343566
85.079,58.8019,0.343566
85.111,58.7459,0.343566
85.141,58.6941,0.343566
85.175,58.6365,0.343566
85.204,58.5883,0.343566
85.235,58.5358,0.343566
85.266,58.4861,0.194018
85.298,58.4344,0.194018
85.328,58.3865,0.194018
85.359,58.3376,0.194018
85.390,58.2909,0.194018
85.422,58.2425,0.194018
85.453,58.1959,0.194018
85.483,58.1507,0.194018
85.514,58.1068,0.031043
85.545,58.0628,0.031043
85.576,58.0195,0.031043
85.608,57.9765,0.031043
85.639,57.9337,0.031043
85.670,57.8934,0.031043
85.700,57.8535,0.031043
85.731,57.8141,0.031043
85.762,57.7742,0.031043
85.793,57.7373,0.031043
85.824,57.6993,0.017050
85.855,57.6622,0.017050
85.886,57.6262,0.017050
85.918,57.5898,0.017050
85.948,57.5563,0.017050
85.980,57.5219,0.017050
86.011,57.4880,0.017050
86.042,57.4561,0.015517
86.073,57.4247,0.015517
86.104,57.3938,0.015517
86.135,57.3633,0.015517
86.166,57.3343,0.015517
86.196,57.3053,0.015517
86.227,57.2772,0.015517
86.263,57.2459,0.015517
86.289,57.2239,0.014801
86.321,57.1973,0.014801
86.352,57.1723,0.014801
86.387,57.1444,0.014801
86.414,57.1233,0.014801
86.445,57.1008,0.014801
86.477,57.0783,0.014801
86.509,57.0554,0.014801
86.537,57.0370,0.014312
86.569,57.0166,0.014312
86.599,56.9976,0.014312
86.630,56.9790,0.014312
86.661,56.9616,0.014312
86.692,56.9435,0.014312
86.723,56.9273,0.014312
86.754,56.9119,0.014312
86.784,56.8972,0.013926
86.816,56.8825,0.013926
86.847,56.8692,0.013926
86.877,56.8566,0.013926
86.908,56.8448,0.013926
86.939,56.8332,0.013926
86.971,56.8222,0.013926
87.002,56.8123,0.013926
87.034,56.8032,0.013578
87.065,56.7947,0.013578
87.095,56.7872,0.013578
87.126,56.7802,0.013578
87.157,56.7741,0.013578
87.188,56.7685,0.013578
87.219,56.7638,0.013578
87.250,56.7597,0.013578
87.280,56.7563,0.013286
87.311,56.7537,0.013286
87.342,56.7519,0.013286
87.373,56.7508,0.013286
87.403,56.7503,0.013286
87.436,56.7503,0.013286
87.466,56.7503,0.013286
87.496,56.7503,0.013286
87.527,56.7503,0.013108
87.558,56.7505,0.013108
87.589,56.7514,0.013108
87.620,56.7531,0.013108
87.650,56.7555,0.013108
87.682,56.7586,0.013108
87.711,56.7623,0.013108
87.742,56.7669,0.013108
87.772,56.7719,0.012985
87.803,56.7779,0.012985
87.834,56.7846,0.012985
87.866,56.7922,0.012985
87.896,56.8001,0.012985
87.927,56.8093,0.012985
87.958,56.8186,0.012985
87.989,56.8292,0.012985
88.020,56.8399,0.012778
88.051,56.8518,0.012778
88.086,56.8660,0.012778
88.113,56.8775,0.012778
88.145,56.8919,0.012778
88.175,56.9060,0.012778
88.206,56.9217,0.012778
88.237,56.9379,0.012778
88.268,56.9548,0.012778
88.299,56.9722,0.012393
88.331,56.9911,0.012393
88.361,57.0097,0.012393
88.392,57.0297,0.012393
88.423,57.0500,0.012393
88.454,57.0715,0.012393
88.485,57.0933,0.012393
88.515,57.1155,0.011894
88.547,57.1398,0.011894
88.578,57.1639,0.011894
88.609,57.1883,0.011894
88.639,57.2140,0.011894
88.670,57.2399,0.011894
88.701,57.2675,0.011894
88.732,57.2947,0.011894
88.764,57.3236,0.011894
88.793,57.3518,0.011339
88.824,57.3817,0.011339
88.855,57.4123,0.011339
88.887,57.4448,0.011339
88.918,57.4777,0.011339
88.949,57.5099,0.011339
88.981,57.5438,0.011339
89.009,57.5759,0.010595
89.041,57.6111,0.010595
89.072,57.6471,0.010595
89.103,57.6838,0.010595
89.134,57.7206,0.010595
89.165,57.7587,0.010595
89.195,57.7958,0.010595
89.226,57.8355,0.010595
89.256,57.8742,0.010595
89.287,57.9158,0.009476
89.318,57.9564,0.009476
89.350,57.9996,0.009476
89.380,58.0420,0.009476
89.412,58.0865,0.009476
89.442,58.1288,0.009476
89.473,58.1762,0.009476
89.504,58.2221,0.009476
89.535,58.2677,0.009476
89.565,58.3136,0.008008
89.597,58.3625,0.008008
89.627,58.4103,0.008008
89.659,58.4611,0.008008
89.691,58.5123,0.008008
89.721,58.5640,0.008008
89.752,58.6132,0.008008
89.782,58.6658,0.008008
89.813,58.7180,0.005938
89.844,58.7717,0.005938
89.875,58.8262,0.005938
89.907,58.8826,0.005938
89.936,58.9364,0.005938
89.967,58.9936,0.005938
89.998,59.0517,0.005938
90.030,59.1098,0.002701
90.061,59.1696,0.002701
90.092,59.2281,0.002701
90.123,59.2905,0.002701
90.154,59.3491,0.002701
90.185,59.4086,0.002701
90.216,59.4661,0.002701
90.247,59.5237,0.002701
90.278,59.5810,0.002701
90.309,59.6348,-0.003105
90.340,59.6895,-0.003105
90.370,59.7431,-0.003105
90.401,59.7974,-0.003105
90.433,59.8504,-0.003105
90.464,59.9037,-0.003105
90.495,59.9537,-0.003105
90.526,60.0068,-0.003105
90.557,60.0550,-0.013823
90.589,60.1071,-0.013823
90.619,60.1542,-0.013823
90.650,60.2010,-0.013823
90.680,60.2471,-0.013823
90.712,60.2945,-0.013823
90.742,60.3391,-0.013823
90.775,60.3856,-0.013823
90.805,60.4292,-0.035823
90.836,60.4723,-0.035823
90.866,60.5149,-0.035823
90.898,60.5570,-0.035823
90.928,60.5981,-0.035823
90.960,60.6389,-0.035823
90.990,60.6790,-0.035823
91.022,60.7187,-0.076407
91.053,60.7568,-0.076407
91.083,60.7948,-0.076407
91.114,60.8310,-0.076407
91.145,60.8681,-0.076407
91.176,60.9029,-0.076407
91.207,60.9379,-0.076407
91.239,60.9722,-0.076407
91.277,61.0131,-0.131002
91.317,61.0545,-0.131002
91.348,61.0858,-0.131002
91.380,61.1176,-0.131002
91.414,61.1504,-0.131002
91.441,61.1760,-0.131002
91.473,61.2056,-0.131002
91.503,61.2320,-0.131002
91.535,61.2596,-0.195533
91.565,61.2859,-0.195533
91.597,61.3117,-0.195533
91.632,61.3401,-0.195533
91.659,61.3611,-0.195533
91.690,61.3847,-0.195533
91.720,61.4065,-0.195533
91.754,61.4307,-0.195533
91.783,61.4500,-0.195533
91.814,61.4706,-0.292472
91.845,61.4907,-0.292472
91.876,61.5097,-0.292472
91.908,61.5284,-0.292472
91.937,61.5451,-0.292472
91.970,61.5628,-0.292472
92.003,61.5809,-0.292472
92.031,61.5941,-0.491628
92.062,61.6090,-0.491628
92.093,61.6229,-0.491628
92.124,61.6363,-0.491628
92.155,61.6490,-0.491628
92.186,61.6604,-0.491628
92.217,61.6716,-0.491628
92.248,61.6818,-0.491628
92.279,61.6917,-0.787205
92.310,61.7005,-0.787205
92.342,61.7089,-0.787205
92.372,61.7159,-0.787205
92.404,61.7230,-0.787205
92.436,61.7289,-0.787205
92.466,61.7342,-0.787205
92.497,61.7386,-0.787205
92.529,61.7425,-1.094393
92.560,61.7454,-1.094393
92.591,61.7478,-1.094393
92.622,61.7493,-1.094393
92.653,61.7502,-1.094393
92.684,61.7503,-1.094393
92.714,61.7503,-1.094393
92.745,61.7503,-1.094393
92.775,61.7503,-1.094393
92.806,61.7503,-1.216154
92.838,61.7503,-1.216154
92.869,61.7503,-1.216154
92.900,61.7503,-1.216154
92.932,61.7503,-1.216154
92.962,61.7503,-1.216154
92.994,61.7503,-1.216154
93.025,61.7503,-1.033860
93.057,61.7503,-1.033860
93.088,61.7503,-1.033860
93.119,61.7503,-1.033860
93.151,61.7503,-1.033860
93.183,61.7503,-1.033860
93.214,61.7503,-1.033860
93.244,61.7503,-1.033860
93.278,61.7503,-1.033860
93.306,61.7503,-0.792624
93.336,61.7503,-0.792624
93.368,61.7503,-0.792624
93.398,61.7503,-0.792624
93.429,61.7503,-0.792624
93.461,61.7503,-0.792624
93.492,61.7503,-0.792624
93.523,61.7503,-0.792624
93.553,61.7503,-0.655196
93.585,61.7503,-0.655196
93.615,61.7503,-0.655196
93.647,61.7503,-0.655196
93.678,61.7503,-0.655196
93.710,61.7503,-0.655196
93.741,61.7503,-0.655196
93.771,61.7503,-0.570509
93.802,61.7503,-0.570509
93.834,61.7503,-0.570509
93.865,61.7503,-0.570509
