Elapsed Time (s),Position (mm),Force (N)
-0.019,77.3003,-0.002418
0.011,77.3003,-0.002418
0.042,77.3003,-0.001675
0.078,77.3003,-0.001675
0.104,77.3003,-0.001675
0.135,77.3003,-0.001675
0.166,77.3003,-0.001675
0.197,77.3003,-0.001675
0.229,77.3003,-0.001675
0.260,77.3003,-0.001675
0.291,77.3003,-0.001336
0.322,77.3003,-0.001336
0.353,77.3003,-0.001336
0.384,77.3003,-0.001336
0.416,77.3003,-0.001336
0.447,77.3003,-0.001336
0.477,77.3003,-0.001336
0.508,77.3003,-0.001336
0.538,77.3003,-0.001214
0.569,77.3003,-0.001214
0.600,77.3003,-0.001214
0.632,77.3003,-0.001214
0.663,77.3003,-0.001214
0.694,77.3003,-0.001214
0.725,77.3003,-0.001214
0.757,77.3003,-0.001214
0.787,77.3003,-0.001110
0.818,77.3003,-0.001110
0.848,77.3003,-0.001110
0.879,77.3003,-0.001110
0.910,77.3003,-0.001110
0.941,77.3003,-0.001110
0.973,77.3003,-0.001110
1.003,77.3003,-0.001110
1.035,77.3003,-0.001044
1.066,77.3003,-0.001044
1.097,77.3003,-0.001044
1.128,77.3003,-0.001044
1.159,77.3003,-0.001044
1.191,77.3003,-0.001044
1.221,77.3003,-0.001044
1.252,77.3003,-0.001044
1.282,77.3003,-0.001007
1.313,77.3003,-0.001007
1.344,77.3003,-0.001007
1.375,77.3003,-0.001007
1.406,77.3003,-0.001007
1.438,77.3003,-0.001007
1.469,77.3003,-0.001007
1.501,77.3003,-0.001007
1.532,77.3003,-0.000960
1.563,77.3003,-0.000960
1.596,77.3003,-0.000960
1.624,77.3003,-0.000960
1.655,77.3003,-0.000960
1.686,77.3003,-0.000960
1.718,77.3003,-0.000960
1.749,77.3003,-0.000960
1.779,77.3003,-0.000960
1.810,77.3003,-0.000988
1.841,77.3003,-0.000988
1.872,77.3003,-0.000988
1.906,77.3003,-0.000988
1.934,77.3003,-0.000988
1.965,77.3003,-0.000988
1.996,77.3003,-0.000988
2.026,77.3003,-0.000988
2.058,77.3003,-0.001026
2.088,77.3003,-0.001026
2.119,77.3003,-0.001026
2.156,77.3003,-0.001026
2.182,77.3003,-0.001026
2.212,77.3003,-0.001026
2.243,77.3003,-0.001026
2.273,77.3003,-0.001026
2.304,77.3003,-0.001026
2.335,77.3003,-0.000950
2.367,77.3003,-0.000950
2.397,77.3003,-0.000950
2.428,77.3003,-0.000950
2.459,77.3003,-0.000950
2.490,77.3003,-0.000950
2.522,77.3003,-0.000950
2.551,77.3003,-0.000941
2.583,77.3003,-0.000941
2.614,77.3003,-0.000941
2.644,77.3003,-0.000941
2.675,77.3003,-0.000941
2.706,77.3003,-0.000941
2.737,77.3003,-0.000941
2.767,77.3003,-0.000941
2.797,77.3003,-0.000941
2.830,77.3003,-0.000969
2.859,77.3003,-0.000969
2.891,77.3003,-0.000969
2.921,77.3003,-0.000969
2.954,77.3003,-0.000969
2.983,77.3003,-0.000969
3.015,77.3003,-0.000969
3.046,77.3003,-0.000950
3.076,77.3003,-0.000950
3.108,77.3003,-0.000950
3.139,77.3003,-0.000950
3.171,77.3003,-0.000950
3.203,77.3003,-0.000950
3.234,77.3003,-0.000950
3.265,77.3003,-0.000950
3.295,77.3003,-0.000913
3.327,77.3003,-0.000913
3.358,77.3003,-0.000913
3.390,77.3003,-0.000913
3.421,77.3003,-0.000913
3.452,77.3003,-0.000913
3.482,77.3003,-0.000913
3.513,77.3003,-0.000913
3.544,77.3003,-0.000885
3.576,77.3003,-0.000885
3.606,77.3003,-0.000885
3.636,77.3003,-0.000885
3.668,77.3003,-0.000885
3.699,77.3003,-0.000885
3.731,77.3003,-0.000885
3.761,77.3003,-0.000885
3.792,77.3003,-0.000922
3.823,77.3003,-0.000922
3.854,77.3003,-0.000922
3.885,77.3003,-0.000922
3.917,77.3003,-0.000922
3.948,77.3003,-0.000922
3.979,77.3003,-0.000922
4.010,77.3003,-0.000922
4.041,77.3003,-0.000866
4.072,77.3003,-0.000866
4.103,77.3003,-0.000866
4.133,77.3001,-0.000866
4.164,77.2991,-0.000866
4.194,77.2975,-0.000866
4.225,77.2950,-0.000866
4.255,77.2920,-0.000866
4.287,77.2882,-0.000781
4.318,77.2835,-0.000781
4.349,77.2781,-0.000781
4.379,77.2723,-0.000781
4.410,77.2656,-0.000781
4.441,77.2580,-0.000781
4.472,77.2501,-0.000781
4.503,77.2409,-0.000781
4.534,77.2315,-0.000781
4.565,77.2211,-0.000066
4.595,77.2103,-0.000066
4.626,77.1985,-0.000066
4.656,77.1864,-0.000066
4.689,77.1721,-0.000066
4.720,77.1583,-0.000066
4.750,77.1442,-0.000066
4.781,77.1283,0.001251
4.812,77.1124,0.001251
4.846,77.0937,0.001251
4.873,77.0778,0.001251
4.905,77.0596,0.001251
4.936,77.0401,0.001251
4.967,77.0208,0.001251
4.997,77.0008,0.001251
5.028,76.9786,0.001251
5.060,76.9567,0.001251
5.090,76.9342,0.002371
5.122,76.9099,0.002371
5.151,76.8876,0.002371
5.182,76.8633,0.002371
5.214,76.8360,0.002371
5.244,76.8108,0.002371
5.276,76.7830,0.002371
5.306,76.7566,0.002371
5.337,76.7271,0.003378
5.368,76.6986,0.003378
5.399,76.6684,0.003378
5.430,76.6371,0.003378
5.461,76.6062,0.003378
5.493,76.5737,0.003378
5.524,76.5407,0.003378
5.555,76.5075,0.004366
5.585,76.4735,0.004366
5.617,76.4381,0.004366
5.648,76.4007,0.004366
5.679,76.3653,0.004366
5.710,76.3285,0.004366
5.740,76.2908,0.004366
5.773,76.2501,0.004366
5.802,76.2134,0.005392
5.833,76.1728,0.005392
5.865,76.1313,0.005392
5.896,76.0895,0.005392
5.927,76.0465,0.005392
5.957,76.0043,0.005392
5.988,75.9619,0.005392
6.017,75.9195,0.006399
6.049,75.8733,0.006399
6.080,75.8273,0.006399
6.111,75.7806,0.006399
6.142,75.7328,0.006399
6.172,75.6862,0.006399
6.202,75.6392,0.006399
6.234,75.5887,0.006399
6.265,75.5381,0.006399
6.297,75.4848,0.007274
6.328,75.4335,0.007274
6.360,75.3798,0.007274
6.391,75.3251,0.007274
6.421,75.2733,0.007274
6.452,75.2177,0.007274
6.484,75.1619,0.007274
6.515,75.1064,0.007274
6.545,75.0509,0.008102
6.577,74.9916,0.008102
6.607,74.9352,0.008102
6.639,74.8729,0.008102
6.669,74.8152,0.008102
6.700,74.7541,0.008102
6.731,74.6958,0.008102
6.763,74.6352,0.008102
6.793,74.5783,0.008864
6.824,74.5202,0.008864
6.855,74.4642,0.008864
6.886,74.4075,0.008864
6.916,74.3525,0.008864
6.947,74.2977,0.008864
6.978,74.2423,0.008864
7.009,74.1896,0.008864
7.040,74.1380,0.009184
7.072,74.0835,0.009184
7.102,74.0336,0.009184
7.133,73.9838,0.009184
7.164,73.9343,0.009184
7.195,73.8842,0.009184
7.227,73.8355,0.009184
7.259,73.7850,0.009184
7.289,73.7402,0.009184
7.319,73.6955,0.009193
7.350,73.6491,0.009193
7.381,73.6057,0.009193
7.413,73.5602,0.009193
7.444,73.5161,0.009193
7.475,73.4727,0.009193
7.506,73.4308,0.009193
7.537,73.3898,0.009212
7.569,73.3493,0.009212
7.600,73.3101,0.009212
7.631,73.2707,0.009212
7.661,73.2326,0.009212
7.692,73.1962,0.009212
7.723,73.1584,0.009212
7.755,73.1224,0.009212
7.787,73.0861,0.009212
7.817,73.0524,0.009193
7.848,73.0183,0.009193
7.879,72.9857,0.009193
7.912,72.9516,0.009193
7.942,72.9211,0.009193
7.974,72.8888,0.009193
8.005,72.8592,0.009193
8.037,72.8283,0.009062
8.067,72.8006,0.009062
8.099,72.7709,0.009062
8.130,72.7452,0.009062
8.159,72.7199,0.009062
8.191,72.6940,0.009062
8.221,72.6688,0.009062
8.252,72.6444,0.009062
8.283,72.6213,0.009062
8.313,72.5972,0.009062
8.345,72.5765,0.008892
8.376,72.5548,0.008892
8.407,72.5340,0.008892
8.438,72.5140,0.008892
8.468,72.4954,0.008892
8.499,72.4769,0.008892
8.530,72.4591,0.008892
8.562,72.4417,0.008807
8.594,72.4247,0.008807
8.625,72.4095,0.008807
8.654,72.3952,0.008807
8.686,72.3809,0.008807
8.717,72.3674,0.008807
8.748,72.3545,0.008807
8.779,72.3424,0.008807
8.810,72.3311,0.008619
8.841,72.3212,0.008619
8.872,72.3112,0.008619
8.903,72.3021,0.008619
8.934,72.2940,0.008619
8.964,72.2866,0.008619
8.995,72.2796,0.008619
9.028,72.2732,0.008619
9.056,72.2682,0.008337
9.087,72.2635,0.008337
9.118,72.2594,0.008337
9.150,72.2561,0.008337
9.180,72.2536,0.008337
9.211,72.2518,0.008337
9.243,72.2507,0.008337
9.273,72.2503,0.008130
9.304,72.2503,0.008130
9.335,72.2503,0.008130
9.366,72.2503,0.008130
9.398,72.2503,0.008130
9.428,72.2503,0.008130
9.460,72.2508,0.008130
9.491,72.2521,0.008130
9.522,72.2541,0.008130
9.553,72.2568,0.008036
9.583,72.2601,0.008036
9.615,72.2644,0.008036
9.647,72.2693,0.008036
9.678,72.2749,0.008036
9.709,72.2814,0.008036
9.741,72.2887,0.008036
9.772,72.2966,0.007782
9.803,72.3053,0.007782
9.834,72.3143,0.007782
9.865,72.3243,0.007782
9.895,72.3352,0.007782
9.926,72.3466,0.007782
9.957,72.3586,0.007782
9.989,72.3718,0.007782
10.022,72.3862,0.007782
10.050,72.3995,0.007782
10.082,72.4148,0.007462
10.112,72.4307,0.007462
10.144,72.4474,0.007462
10.176,72.4649,0.007462
10.206,72.4828,0.007462
10.237,72.5017,0.007462
10.268,72.5210,0.007462
10.299,72.5407,0.007198
10.330,72.5623,0.007198
10.361,72.5840,0.007198
10.392,72.6065,0.007198
10.426,72.6321,0.007198
10.455,72.6537,0.007198
10.486,72.6779,0.007198
10.516,72.7027,0.007198
10.548,72.7298,0.006916
10.578,72.7556,0.006916
10.609,72.7830,0.006916
10.640,72.8112,0.006916
10.672,72.8409,0.006916
10.703,72.8713,0.006916
10.734,72.9007,0.006916
10.766,72.9335,0.006916
10.797,72.9655,0.006502
10.827,72.9973,0.006502
10.858,73.0310,0.006502
10.889,73.0649,0.006502
10.920,73.0990,0.006502
10.951,73.1346,0.006502
10.983,73.1723,0.006502
11.014,73.2089,0.006502
11.044,73.2454,0.006502
11.075,73.2847,0.005985
11.106,73.3236,0.005985
11.138,73.3643,0.005985
11.170,73.4051,0.005985
11.200,73.4466,0.005985
11.231,73.4874,0.005985
11.263,73.5321,0.005985
11.293,73.5738,0.005269
11.324,73.6185,0.005269
11.354,73.6617,0.005269
11.385,73.7071,0.005269
11.416,73.7550,0.005269
11.447,73.8013,0.005269
11.480,73.8525,0.005269
11.508,73.8960,0.005269
11.538,73.9440,0.005269
11.569,73.9947,0.005269
11.601,74.0453,0.004216
11.631,74.0962,0.004216
11.662,74.1482,0.004216
11.693,74.2024,0.004216
11.725,74.2567,0.004216
11.756,74.3116,0.004216
11.788,74.3672,0.004216
11.819,74.4246,0.002926
11.852,74.4834,0.002926
11.881,74.5391,0.002926
11.912,74.5965,0.002926
11.945,74.6586,0.002926
11.974,74.7151,0.002926
12.005,74.7740,0.002926
12.036,74.8352,0.001317
12.067,74.8928,0.001317
12.101,74.9568,0.001317
12.129,75.0074,0.001317
12.160,75.0648,0.001317
12.192,75.1221,0.001317
12.222,75.1771,0.001317
12.254,75.2330,0.001317
12.284,75.2856,-0.000245
12.315,75.3384,-0.000245
12.346,75.3907,-0.000245
12.376,75.4402,-0.000245
12.408,75.4921,-0.000245
12.439,75.5445,-0.000245
12.470,75.5927,-0.000245
12.502,75.6433,-0.000245
12.532,75.6903,-0.000245
12.564,75.7375,-0.001421
12.595,75.7845,-0.001421
12.626,75.8303,-0.001421
12.657,75.8747,-0.001421
12.689,75.9206,-0.001421
12.719,75.9630,-0.001421
12.750,76.0062,-0.001421
12.780,76.0477,-0.001421
12.812,76.0904,-0.002447
12.844,76.1318,-0.002447
12.874,76.1707,-0.002447
12.905,76.2098,-0.002447
12.937,76.2497,-0.002447
12.968,76.2879,-0.002447
12.998,76.3239,-0.002447
13.029,76.3599,-0.002447
13.061,76.3961,-0.003322
13.092,76.4309,-0.003322
13.122,76.4650,-0.003322
13.158,76.5034,-0.003322
13.199,76.5466,-0.003322
13.229,76.5778,-0.003322
13.260,76.6082,-0.003322
13.292,76.6385,-0.003849
13.322,76.6678,-0.003849
13.355,76.6987,-0.003849
13.384,76.7241,-0.003849
13.416,76.7525,-0.003849
13.448,76.7796,-0.003849
13.479,76.8055,-0.003849
13.511,76.8321,-0.003849
13.541,76.8548,-0.003849
13.572,76.8792,-0.004056
13.603,76.9014,-0.004056
13.634,76.9237,-0.004056
13.665,76.9455,-0.004056
13.696,76.9657,-0.004056
13.727,76.9859,-0.004056
13.758,77.0052,-0.004056
13.790,77.0240,-0.003999
13.820,77.0416,-0.003999
13.851,77.0584,-0.003999
13.881,77.0742,-0.003999
13.912,77.0897,-0.003999
13.942,77.1044,-0.003999
13.974,77.1189,-0.003999
14.005,77.1324,-0.003999
14.037,77.1453,-0.003726
14.068,77.1575,-0.003726
14.099,77.1686,-0.003726
14.133,77.1804,-0.003726
14.161,77.1890,-0.003726
14.192,77.1983,-0.003726
14.223,77.2065,-0.003726
14.253,77.2141,-0.003726
14.282,77.2206,-0.003726
14.316,77.2273,-0.003726
14.347,77.2327,-0.003143
14.380,77.2378,-0.003143
14.409,77.2413,-0.003143
14.439,77.2445,-0.003143
14.471,77.2471,-0.003143
14.503,77.2490,-0.003143
14.533,77.2500,-0.003143
14.564,77.2504,-0.002240
14.596,77.2504,-0.002240
14.627,77.2504,-0.002240
14.659,77.2504,-0.002240
14.688,77.2504,-0.002240
14.720,77.2504,-0.002240
14.752,77.2504,-0.002240
14.782,77.2504,-0.001515
14.813,77.2504,-0.001515
14.844,77.2504,-0.001515
14.875,77.2504,-0.001515
14.906,77.2504,-0.001515
14.940,77.2504,-0.001515
14.966,77.2504,-0.001515
14.999,77.2504,-0.001515
15.031,77.2504,-0.001515
15.062,77.2504,-0.001214
15.093,77.2504,-0.001214
15.124,77.2504,-0.001214
15.155,77.2504,-0.001214
15.186,77.2504,-0.001214
15.217,77.2504,-0.001214
15.248,77.2504,-0.001214
15.278,77.2504,-0.001082
15.308,77.2504,-0.001082
15.339,77.2504,-0.001082
15.370,77.2504,-0.001082
15.400,77.2504,-0.001082
15.432,77.2504,-0.001082
15.463,77.2504,-0.001082
15.494,77.2504,-0.001082
15.525,77.2504,-0.001044
15.557,77.2504,-0.001044
15.588,77.2504,-0.001044
15.619,77.2504,-0.001044
15.649,77.2504,-0.001044
15.680,77.2504,-0.001044
15.712,77.2504,-0.001044
15.743,77.2504,-0.001044
15.773,77.2504,-0.001026
15.807,77.2504,-0.001026
15.835,77.2504,-0.001026
15.866,77.2504,-0.001026
15.898,77.2504,-0.001026
15.928,77.2504,-0.001026
15.959,77.2504,-0.001026
15.989,77.2504,-0.001026
16.020,77.2504,-0.001026
16.051,77.2504,-0.000950
16.083,77.2504,-0.000950
16.113,77.2504,-0.000950
16.145,77.2504,-0.000950
16.175,77.2504,-0.000950
16.207,77.2504,-0.000950
16.237,77.2504,-0.000950
16.275,77.2504,-0.000950
16.315,77.2504,-0.000932
16.347,77.2504,-0.000932
16.377,77.2504,-0.000932
16.409,77.2504,-0.000932
16.439,77.2504,-0.000932
16.471,77.2504,-0.000932
16.502,77.2504,-0.000932
16.534,77.2504,-0.000932
16.565,77.2504,-0.000913
16.596,77.2504,-0.000913
16.628,77.2504,-0.000913
16.659,77.2504,-0.000913
16.691,77.2504,-0.000913
16.722,77.2504,-0.000913
16.753,77.2504,-0.000913
16.784,77.2504,-0.000913
16.815,77.2504,-0.000856
16.846,77.2504,-0.000856
16.877,77.2504,-0.000856
16.908,77.2504,-0.000856
16.938,77.2504,-0.000856
16.969,77.2504,-0.000856
17.000,77.2504,-0.000856
17.031,77.2504,-0.000790
17.062,77.2504,-0.000790
17.093,77.2504,-0.000790
17.125,77.2504,-0.000790
17.155,77.2504,-0.000790
17.186,77.2504,-0.000790
17.220,77.2504,-0.000790
17.248,77.2504,-0.000790
17.280,77.2504,-0.000790
17.312,77.2504,-0.000819
17.343,77.2504,-0.000819
17.375,77.2504,-0.000819
17.406,77.2504,-0.000819
17.437,77.2504,-0.000819
17.468,77.2504,-0.000819
17.503,77.2504,-0.000819
17.530,77.2504,-0.000837
17.562,77.2504,-0.000837
17.593,77.2504,-0.000837
17.624,77.2504,-0.000837
17.655,77.2504,-0.000837
17.686,77.2504,-0.000837
17.717,77.2504,-0.000837
17.749,77.2504,-0.000837
17.779,77.2504,-0.000837
17.809,77.2504,-0.000790
17.842,77.2504,-0.000790
17.872,77.2504,-0.000790
17.903,77.2504,-0.000790
17.934,77.2504,-0.000790
17.965,77.2504,-0.000790
17.995,77.2504,-0.000790
18.026,77.2504,-0.000790
18.057,77.2504,-0.000790
18.089,77.2504,-0.000790
18.119,77.2504,-0.000790
18.150,77.2504,-0.000790
18.182,77.2504,-0.000790
18.212,77.2504,-0.000790
18.243,77.2504,-0.000790
18.274,77.2504,-0.000790
18.305,77.2504,-0.000772
18.337,77.2504,-0.000772
18.366,77.2504,-0.000772
18.397,77.2504,-0.000772
18.428,77.2504,-0.000772
18.459,77.2504,-0.000772
18.490,77.2504,-0.000772
18.522,77.2504,-0.000772
18.551,77.2504,-0.000734
18.583,77.2504,-0.000734
18.612,77.2504,-0.000734
18.644,77.2504,-0.000734
18.675,77.2504,-0.000734
18.705,77.2504,-0.000734
18.739,77.2504,-0.000734
18.768,77.2504,-0.000734
18.799,77.2504,-0.000734
18.830,77.2504,-0.000734
18.862,77.2504,-0.000734
18.892,77.2504,-0.000734
18.924,77.2504,-0.000734
18.955,77.2504,-0.000734
18.986,77.2502,-0.000734
19.017,77.2496,-0.000734
19.050,77.2480,-0.000762
19.078,77.2460,-0.000762
19.110,77.2430,-0.000762
19.142,77.2394,-0.000762
19.175,77.2345,-0.000762
19.203,77.2301,-0.000762
19.234,77.2241,-0.000762
19.264,77.2180,-0.000320
19.295,77.2108,-0.000320
19.326,77.2027,-0.000320
19.356,77.1943,-0.000320
19.387,77.1846,-0.000320
19.418,77.1748,-0.000320
19.450,77.1637,-0.000320
19.481,77.1523,-0.000320
19.511,77.1400,-0.000320
19.543,77.1268,0.000743
19.573,77.1129,0.000743
19.606,77.0976,0.000743
19.635,77.0837,0.000743
19.667,77.0675,0.000743
19.697,77.0509,0.000743
19.729,77.0333,0.000743
19.758,77.0161,0.000743
19.790,76.9970,0.001863
19.821,76.9774,0.001863
19.852,76.9568,0.001863
19.883,76.9357,0.001863
19.914,76.9143,0.001863
19.945,76.8912,0.001863
19.976,76.8681,0.001863
20.007,76.8439,0.001863
20.038,76.8195,0.001863
20.068,76.7946,0.002926
20.100,76.7685,0.002926
20.131,76.7412,0.002926
20.164,76.7115,0.002926
20.193,76.6860,0.002926
20.224,76.6569,0.002926
20.255,76.6270,0.002926
20.286,76.5954,0.004056
20.318,76.5645,0.004056
20.349,76.5318,0.004056
20.381,76.4985,0.004056
20.412,76.4652,0.004056
20.443,76.4309,0.004056
20.473,76.3977,0.004056
20.503,76.3619,0.004056
20.534,76.3260,0.004056
20.566,76.2874,0.004997
20.598,76.2486,0.004997
20.629,76.2093,0.004997
20.661,76.1690,0.004997
20.692,76.1298,0.004997
20.722,76.0902,0.004997
20.753,76.0498,0.004997
20.783,76.0080,0.004997
20.815,75.9647,0.005938
20.846,75.9201,0.005938
20.878,75.8754,0.005938
20.908,75.8308,0.005938
20.941,75.7822,0.005938
20.970,75.7388,0.005938
21.000,75.6925,0.005938
21.032,75.6438,0.005938
21.066,75.5905,0.006897
21.096,75.5418,0.006897
21.124,75.4964,0.006897
21.156,75.4430,0.006897
21.187,75.3921,0.006897
21.219,75.3384,0.006897
21.250,75.2846,0.006897
21.282,75.2295,0.006897
21.315,75.1716,0.007744
21.340,75.1256,0.007744
21.375,75.0632,0.007744
21.406,75.0070,0.007744
21.437,74.9501,0.007744
21.467,74.8923,0.007744
21.499,74.8314,0.007744
21.530,74.7719,0.007744
21.561,74.7131,0.008544
21.592,74.6526,0.008544
21.623,74.5944,0.008544
21.654,74.5346,0.008544
21.685,74.4769,0.008544
21.716,74.4191,0.008544
21.747,74.3628,0.008544
21.779,74.3060,0.008544
21.810,74.2512,0.008544
21.841,74.1965,0.009033
21.871,74.1438,0.009033
21.903,74.0906,0.009033
21.933,74.0379,0.009033
21.966,73.9844,0.009033
21.996,73.9348,0.009033
22.027,73.8855,0.009033
22.059,73.8347,0.009174
22.090,73.7865,0.009174
22.121,73.7388,0.009174
22.152,73.6921,0.009174
22.182,73.6466,0.009174
22.213,73.6010,0.009174
22.244,73.5572,0.009174
22.275,73.5127,0.009174
22.306,73.4705,0.009203
22.336,73.4287,0.009203
22.368,73.3859,0.009203
22.399,73.3442,0.009203
22.430,73.3039,0.009203
22.461,73.2637,0.009203
22.492,73.2248,0.009203
22.523,73.1867,0.009203
22.554,73.1491,0.009221
22.586,73.1114,0.009221
22.617,73.0756,0.009221
22.647,73.0399,0.009221
22.678,73.0064,0.009221
22.708,72.9725,0.009221
22.740,72.9397,0.009221
22.770,72.9069,0.009221
22.803,72.8749,0.009221
22.833,72.8433,0.009212
22.865,72.8134,0.009212
22.896,72.7829,0.009212
22.926,72.7550,0.009212
22.958,72.7265,0.009212
22.988,72.6999,0.009212
23.019,72.6730,0.009212
23.051,72.6467,0.009212
23.082,72.6217,0.009109
23.112,72.5980,0.009109
23.150,72.5691,0.009109
23.189,72.5407,0.009109
23.221,72.5177,0.009109
23.252,72.4967,0.009109
23.283,72.4763,0.009109
23.313,72.4575,0.008873
23.344,72.4382,0.008873
23.375,72.4205,0.008873
23.406,72.4029,0.008873
23.437,72.3859,0.008873
23.469,72.3693,0.008873
23.499,72.3544,0.008873
23.530,72.3398,0.008873
23.562,72.3256,0.008647
23.593,72.3124,0.008647
23.624,72.3002,0.008647
23.655,72.2881,0.008647
23.685,72.2778,0.008647
23.716,72.2676,0.008647
23.747,72.2580,0.008647
23.777,72.2491,0.008647
23.808,72.2413,0.008440
23.840,72.2339,0.008440
23.872,72.2270,0.008440
23.908,72.2202,0.008440
23.948,72.2138,0.008440
23.979,72.2098,0.008440
24.011,72.2063,0.008440
24.042,72.2037,0.008224
24.072,72.2019,0.008224
24.104,72.2007,0.008224
24.138,72.2002,0.008224
24.164,72.2002,0.008224
24.195,72.2002,0.008224
24.226,72.2002,0.008224
24.256,72.2002,0.008224
24.287,72.2002,0.008036
24.319,72.2005,0.008036
24.349,72.2015,0.008036
24.381,72.2032,0.008036
24.413,72.2058,0.008036
24.442,72.2088,0.008036
24.473,72.2126,0.008036
24.504,72.2172,0.008036
24.535,72.2226,0.007895
24.566,72.2289,0.007895
24.600,72.2361,0.007895
24.630,72.2434,0.007895
24.661,72.2518,0.007895
24.692,72.2609,0.007895
24.724,72.2707,0.007895
24.755,72.2812,0.007895
24.785,72.2923,0.007895
24.816,72.3042,0.007669
24.847,72.3171,0.007669
24.878,72.3300,0.007669
24.911,72.3451,0.007669
24.941,72.3597,0.007669
24.971,72.3752,0.007669
25.003,72.3919,0.007669
25.033,72.4084,0.007669
25.066,72.4271,0.007358
25.095,72.4444,0.007358
25.127,72.4642,0.007358
25.157,72.4835,0.007358
25.188,72.5042,0.007358
25.219,72.5253,0.007358
25.250,72.5478,0.007358
25.281,72.5707,0.007104
25.313,72.5950,0.007104
25.343,72.6182,0.007104
25.374,72.6431,0.007104
25.404,72.6691,0.007104
25.435,72.6947,0.007104
25.469,72.7245,0.007104
25.497,72.7495,0.007104
25.528,72.7786,0.007104
25.558,72.8068,0.006794
25.589,72.8377,0.006794
25.621,72.8687,0.006794
25.651,72.9002,0.006794
25.683,72.9326,0.006794
25.714,72.9657,0.006794
25.745,72.9996,0.006794
25.777,73.0358,0.006314
25.809,73.0715,0.006314
25.840,73.1070,0.006314
25.870,73.1429,0.006314
25.902,73.1818,0.006314
25.933,73.2195,0.006314
25.964,73.2594,0.006314
25.995,73.2986,0.006314
26.027,73.3392,0.005655
26.058,73.3803,0.005655
26.088,73.4201,0.005655
26.118,73.4624,0.005655
26.150,73.5065,0.005655
26.180,73.5494,0.005655
26.211,73.5934,0.005655
26.242,73.6397,0.005655
26.273,73.6851,0.004761
26.303,73.7317,0.004761
26.334,73.7793,0.004761
26.366,73.8278,0.004761
26.397,73.8769,0.004761
26.427,73.9264,0.004761
26.458,73.9760,0.004761
26.489,74.0279,0.004761
26.519,74.0773,0.004761
26.550,74.1309,0.004761
26.581,74.1836,0.003679
26.613,74.2396,0.003679
26.643,74.2921,0.003679
26.675,74.3493,0.003679
26.705,74.4038,0.003679
26.737,74.4639,0.003679
26.768,74.5194,0.003679
26.799,74.5805,0.002277
26.831,74.6407,0.002277
26.861,74.6981,0.002277
26.892,74.7585,0.002277
26.926,74.8236,0.002277
26.953,74.8753,0.002277
26.984,74.9325,0.002277
27.015,74.9883,0.002277
27.045,75.0437,0.002277
27.076,75.0989,0.000630
27.107,75.1549,0.000630
27.141,75.2138,0.000630
27.169,75.2616,0.000630
27.201,75.3153,0.000630
27.232,75.3681,0.000630
27.263,75.4190,0.000630
27.295,75.4724,0.000630
27.326,75.5226,-0.000819
27.358,75.5726,-0.000819
27.388,75.6197,-0.000819
27.419,75.6658,-0.000819
27.452,75.7163,-0.000819
27.481,75.7598,-0.000819
27.513,75.8059,-0.000819
27.543,75.8498,-0.001948
27.574,75.8939,-0.001948
27.605,75.9358,-0.001948
27.637,75.9807,-0.001948
27.666,76.0204,-0.001948
27.697,76.0616,-0.001948
27.729,76.1025,-0.001948
27.762,76.1448,-0.001948
27.789,76.1787,-0.001948
27.821,76.2181,-0.002861
27.853,76.2557,-0.002861
27.883,76.2930,-0.002861
27.915,76.3290,-0.002861
27.946,76.3643,-0.002861
27.976,76.3977,-0.002861
28.007,76.4319,-0.002861
28.039,76.4657,-0.002861
28.070,76.4975,-0.003472
28.101,76.5293,-0.003472
28.132,76.5602,-0.003472
28.163,76.5914,-0.003472
28.193,76.6192,-0.003472
28.225,76.6487,-0.003472
28.258,76.6786,-0.003472
28.288,76.7045,-0.003830
28.318,76.7309,-0.003830
28.349,76.7561,-0.003830
28.380,76.7813,-0.003830
28.413,76.8068,-0.003830
28.442,76.8294,-0.003830
28.473,76.8519,-0.003830
28.507,76.8762,-0.003830
28.535,76.8958,-0.003830
28.566,76.9160,-0.003952
28.597,76.9360,-0.003952
28.628,76.9553,-0.003952
28.659,76.9740,-0.003952
28.690,76.9916,-0.003952
28.721,77.0086,-0.003952
28.752,77.0251,-0.003952
28.782,77.0403,-0.003952
28.813,77.0553,-0.003952
28.844,77.0694,-0.003745
28.875,77.0827,-0.003745
28.907,77.0961,-0.003745
28.938,77.1079,-0.003745
28.970,77.1195,-0.003745
29.001,77.1298,-0.003745
29.033,77.1397,-0.003745
29.064,77.1488,-0.003284
29.095,77.1572,-0.003284
29.125,77.1647,-0.003284
29.156,77.1714,-0.003284
29.187,77.1774,-0.003284
29.218,77.1829,-0.003284
29.249,77.1875,-0.003284
29.282,77.1917,-0.003284
29.311,77.1947,-0.002578
29.343,77.1971,-0.002578
29.373,77.1989,-0.002578
29.404,77.2000,-0.002578
29.434,77.2002,-0.002578
29.465,77.2002,-0.002578
29.496,77.2002,-0.002578
29.527,77.2002,-0.002578
29.558,77.2002,-0.001703
29.589,77.2002,-0.001703
29.623,77.2002,-0.001703
29.651,77.2002,-0.001703
29.682,77.2002,-0.001703
29.714,77.2002,-0.001703
29.746,77.2002,-0.001703
29.776,77.2002,-0.001703
29.808,77.2002,-0.001176
29.840,77.2002,-0.001176
29.870,77.2002,-0.001176
29.901,77.2002,-0.001176
29.934,77.2002,-0.001176
29.963,77.2002,-0.001176
29.995,77.2002,-0.001176
30.025,77.2002,-0.001026
30.056,77.2002,-0.001026
30.088,77.2002,-0.001026
30.121,77.2002,-0.001026
30.150,77.2002,-0.001026
30.181,77.2002,-0.001026
30.212,77.2002,-0.001026
30.243,77.2002,-0.001026
30.274,77.2002,-0.000885
30.305,77.2002,-0.000885
30.336,77.2002,-0.000885
30.367,77.2002,-0.000885
30.398,77.2002,-0.000885
30.429,77.2002,-0.000885
30.461,77.2002,-0.000885
30.491,77.2002,-0.000885
30.522,77.2002,-0.000885
30.553,77.2002,-0.000819
30.586,77.2002,-0.000819
30.614,77.2002,-0.000819
30.646,77.2002,-0.000819
30.676,77.2002,-0.000819
30.708,77.2002,-0.000819
30.740,77.2002,-0.000819
30.770,77.2002,-0.000819
30.801,77.2002,-0.000819
30.833,77.2002,-0.000819
30.864,77.2002,-0.000819
30.894,77.2002,-0.000819
30.925,77.2002,-0.000819
30.956,77.2002,-0.000819
30.988,77.2002,-0.000819
31.019,77.2002,-0.000819
31.050,77.2002,-0.000828
31.081,77.2002,-0.000828
31.112,77.2002,-0.000828
31.143,77.2002,-0.000828
31.175,77.2002,-0.000828
31.206,77.2002,-0.000828
31.236,77.2002,-0.000828
31.267,77.2002,-0.000828
31.298,77.2002,-0.000762
31.330,77.2002,-0.000762
31.361,77.2002,-0.000762
31.391,77.2002,-0.000762
31.423,77.2002,-0.000762
31.457,77.2002,-0.000762
31.485,77.2002,-0.000762
31.515,77.2002,-0.000762
31.547,77.2002,-0.000762
31.578,77.2002,-0.000743
31.608,77.2002,-0.000743
31.639,77.2002,-0.000743
31.670,77.2002,-0.000743
31.702,77.2002,-0.000743
31.734,77.2002,-0.000743
31.764,77.2002,-0.000743
31.796,77.2002,-0.000753
31.827,77.2002,-0.000753
31.858,77.2002,-0.000753
31.889,77.2002,-0.000753
31.920,77.2002,-0.000753
31.953,77.2002,-0.000753
31.985,77.2002,-0.000753
32.018,77.2002,-0.000753
32.045,77.2002,-0.000687
32.076,77.2002,-0.000687
32.108,77.2002,-0.000687
32.138,77.2002,-0.000687
32.170,77.2002,-0.000687
32.204,77.2002,-0.000687
32.232,77.2002,-0.000687
32.263,77.2002,-0.000687
32.293,77.2002,-0.000687
32.325,77.2002,-0.000677
32.356,77.2002,-0.000677
32.387,77.2002,-0.000677
32.418,77.2002,-0.000677
32.449,77.2002,-0.000677
32.480,77.2002,-0.000677
32.511,77.2002,-0.000677
32.542,77.2002,-0.000677
32.573,77.2002,-0.000659
32.604,77.2002,-0.000659
32.635,77.2002,-0.000659
32.666,77.2002,-0.000659
32.698,77.2002,-0.000659
32.729,77.2002,-0.000659
32.761,77.2002,-0.000659
32.791,77.2002,-0.000621
32.822,77.2002,-0.000621
32.853,77.2002,-0.000621
32.887,77.2002,-0.000621
32.915,77.2002,-0.000621
32.945,77.2002,-0.000621
32.977,77.2002,-0.000621
33.008,77.2002,-0.000621
33.038,77.2002,-0.000630
33.070,77.2002,-0.000630
33.102,77.2002,-0.000630
33.132,77.2002,-0.000630
33.164,77.2002,-0.000630
33.194,77.2002,-0.000630
33.225,77.2002,-0.000630
33.256,77.2002,-0.000630
33.286,77.2002,-0.000630
33.321,77.2002,-0.000630
33.349,77.2002,-0.000630
33.380,77.2002,-0.000630
33.411,77.2002,-0.000630
33.442,77.2002,-0.000630
33.473,77.2002,-0.000630
33.504,77.2002,-0.000630
33.536,77.2002,-0.000630
33.567,77.2002,-0.000630
33.599,77.2002,-0.000630
33.630,77.2002,-0.000630
33.660,77.2002,-0.000630
33.691,77.2002,-0.000630
33.721,77.2002,-0.000630
33.752,77.2002,-0.000630
33.782,77.1996,-0.000668
33.813,77.1983,-0.000668
33.846,77.1960,-0.000668
33.874,77.1936,-0.000668
33.906,77.1900,-0.000668
33.937,77.1857,-0.000668
33.968,77.1808,-0.000668
33.999,77.1748,-0.000668
34.029,77.1687,-0.000668
34.060,77.1616,-0.000320
34.093,77.1532,-0.000320
34.123,77.1451,-0.000320
34.154,77.1358,-0.000320
34.185,77.1256,-0.000320
34.216,77.1147,-0.000320
34.247,77.1033,-0.000320
34.277,77.0912,0.000696
34.310,77.0777,0.000696
34.338,77.0651,0.000696
34.369,77.0506,0.000696
34.400,77.0359,0.000696
34.431,77.0197,0.000696
34.465,77.0017,0.000696
34.492,76.9864,0.000696
34.522,76.9689,0.000696
34.554,76.9497,0.001854
34.585,76.9301,0.001854
34.616,76.9107,0.001854
34.648,76.8886,0.001854
34.679,76.8674,0.001854
34.709,76.8447,0.001854
34.740,76.8222,0.001854
34.770,76.7985,0.001854
34.803,76.7731,0.002936
34.834,76.7484,0.002936
34.865,76.7223,0.002936
34.899,76.6926,0.002936
34.927,76.6669,0.002936
34.959,76.6388,0.002936
34.989,76.6103,0.002936
35.022,76.5783,0.002936
35.052,76.5491,0.003999
35.084,76.5171,0.003999
35.115,76.4855,0.003999
35.146,76.4531,0.003999
35.177,76.4195,0.003999
35.207,76.3857,0.003999
35.238,76.3519,0.003999
35.269,76.3158,0.003999
35.301,76.2785,0.004987
35.332,76.2418,0.004987
35.364,76.2021,0.004987
35.393,76.1665,0.004987
35.424,76.1274,0.004987
35.455,76.0876,0.004987
35.487,76.0460,0.004987
35.517,76.0057,0.005956
35.548,75.9631,0.005956
35.579,75.9206,0.005956
35.611,75.8765,0.005956
35.642,75.8307,0.005956
35.673,75.7861,0.005956
35.707,75.7374,0.005956
35.735,75.6955,0.005956
35.766,75.6475,0.005956
35.797,75.5996,0.005956
35.828,75.5525,0.006841
35.858,75.5030,0.006841
35.889,75.4530,0.006841
35.920,75.4025,0.006841
35.950,75.3523,0.006841
35.982,75.2992,0.006841
36.013,75.2455,0.006841
36.043,75.1926,0.007707
36.075,75.1384,0.007707
36.106,75.0830,0.007707
36.137,75.0267,0.007707
36.168,74.9707,0.007707
36.200,74.9115,0.007707
36.230,74.8550,0.007707
36.262,74.7949,0.007707
36.292,74.7363,0.008506
36.325,74.6731,0.008506
36.354,74.6156,0.008506
36.386,74.5535,0.008506
36.416,74.4975,0.008506
36.447,74.4391,0.008506
36.478,74.3817,0.008506
36.509,74.3255,0.008506
36.540,74.2703,0.009109
36.572,74.2131,0.009109
36.603,74.1578,0.009109
36.634,74.1061,0.009109
36.665,74.0519,0.009109
36.696,74.0002,0.009109
36.727,73.9487,0.009109
36.759,73.8954,0.009109
36.789,73.8470,0.009344
36.821,73.7962,0.009344
36.852,73.7482,0.009344
36.886,73.6947,0.009344
36.913,73.6542,0.009344
36.944,73.6075,0.009344
36.975,73.5625,0.009344
37.006,73.5182,0.009344
37.037,73.4736,0.009372
37.067,73.4307,0.009372
37.097,73.3888,0.009372
37.128,73.3473,0.009372
37.160,73.3055,0.009372
37.191,73.2644,0.009372
37.222,73.2248,0.009372
37.253,73.1846,0.009372
37.283,73.1477,0.009334
37.315,73.1082,0.009334
37.346,73.0720,0.009334
37.378,73.0342,0.009334
37.408,73.0001,0.009334
37.440,72.9639,0.009334
37.471,72.9311,0.009334
37.502,72.8965,0.009334
37.532,72.8646,0.009212
37.563,72.8326,0.009212
37.594,72.8024,0.009212
37.626,72.7703,0.009212
37.656,72.7420,0.009212
37.688,72.7117,0.009212
37.720,72.6826,0.009212
37.749,72.6567,0.009212
37.787,72.6242,0.009090
37.827,72.5909,0.009090
37.858,72.5666,0.009090
37.889,72.5425,0.009090
37.919,72.5197,0.009090
37.950,72.4964,0.009090
37.982,72.4737,0.009090
38.012,72.4531,0.009090
38.043,72.4322,0.008911
38.074,72.4123,0.008911
38.105,72.3930,0.008911
38.136,72.3752,0.008911
38.167,72.3570,0.008911
38.197,72.3405,0.008911
38.228,72.3240,0.008911
38.259,72.3088,0.008911
38.291,72.2936,0.008742
38.322,72.2796,0.008742
38.354,72.2660,0.008742
38.384,72.2535,0.008742
38.415,72.2417,0.008742
38.446,72.2303,0.008742
38.477,72.2198,0.008742
38.510,72.2095,0.008742
38.539,72.2014,0.008742
38.571,72.1929,0.008525
38.603,72.1852,0.008525
38.635,72.1779,0.008525
38.663,72.1727,0.008525
38.695,72.1673,0.008525
38.726,72.1627,0.008525
38.759,72.1584,0.008525
38.788,72.1556,0.008525
38.820,72.1531,0.008318
38.851,72.1514,0.008318
38.882,72.1505,0.008318
38.912,72.1503,0.008318
38.944,72.1503,0.008318
38.975,72.1503,0.008318
39.006,72.1503,0.008318
39.037,72.1509,0.008168
39.068,72.1524,0.008168
39.099,72.1544,0.008168
39.130,72.1572,0.008168
39.160,72.1607,0.008168
39.192,72.1650,0.008168
39.223,72.1700,0.008168
39.254,72.1758,0.008168
39.285,72.1823,0.007979
39.317,72.1897,0.007979
39.348,72.1976,0.007979
39.380,72.2068,0.007979
39.411,72.2162,0.007979
39.441,72.2260,0.007979
39.472,72.2367,0.007979
39.502,72.2480,0.007979
39.534,72.2604,0.007725
39.564,72.2732,0.007725
39.595,72.2868,0.007725
39.626,72.3017,0.007725
39.657,72.3166,0.007725
39.688,72.3326,0.007725
39.718,72.3487,0.007725
39.749,72.3661,0.007725
39.780,72.3839,0.007725
39.811,72.4029,0.007452
39.842,72.4221,0.007452
39.873,72.4428,0.007452
39.905,72.4643,0.007452
39.935,72.4849,0.007452
39.966,72.5073,0.007452
39.997,72.5306,0.007452
40.028,72.5552,0.007142
40.059,72.5794,0.007142
40.090,72.6044,0.007142
40.120,72.6302,0.007142
40.152,72.6570,0.007142
40.183,72.6849,0.007142
40.215,72.7139,0.007142
40.245,72.7425,0.007142
40.277,72.7726,0.007142
40.307,72.8026,0.006813
40.340,72.8355,0.006813
40.372,72.8692,0.006813
40.401,72.8989,0.006813
40.432,72.9327,0.006813
40.462,72.9661,0.006813
40.493,72.9998,0.006813
40.524,73.0353,0.006342
40.555,73.0718,0.006342
40.586,73.1093,0.006342
40.616,73.1457,0.006342
40.648,73.1854,0.006342
40.678,73.2234,0.006342
40.709,73.2631,0.006342
40.739,73.3024,0.006342
40.770,73.3451,0.006342
40.800,73.3859,0.006342
40.832,73.4289,0.005749
40.863,73.4719,0.005749
40.895,73.5187,0.005749
40.924,73.5607,0.005749
40.956,73.6067,0.005749
40.986,73.6518,0.005749
41.018,73.7002,0.004865
41.049,73.7484,0.004865
41.080,73.7968,0.004865
41.115,73.8522,0.004865
41.143,73.8986,0.004865
41.175,73.9512,0.004865
41.206,74.0018,0.004865
41.237,74.0539,0.004865
41.268,74.1090,0.004865
41.299,74.1617,0.003679
41.330,74.2171,0.003679
41.361,74.2709,0.003679
41.393,74.3292,0.003679
41.425,74.3875,0.003679
41.455,74.4425,0.003679
41.485,74.4985,0.003679
41.516,74.5585,0.003679
41.548,74.6181,0.002164
41.580,74.6815,0.002164
41.614,74.7455,0.002164
41.641,74.7970,0.002164
41.675,74.8605,0.002164
41.704,74.9138,0.002164
41.735,74.9718,0.002164
41.766,75.0264,0.000583
41.797,75.0824,0.000583
41.827,75.1358,0.000583
41.858,75.1881,0.000583
41.889,75.2425,0.000583
41.920,75.2939,0.000583
41.951,75.3466,0.000583
41.982,75.3958,0.000583
42.012,75.4451,0.000583
42.042,75.4941,0.000583
42.075,75.5471,-0.000753
42.104,75.5905,-0.000753
42.135,75.6371,-0.000753
42.165,75.6826,-0.000753
42.196,75.7291,-0.000753
42.228,75.7756,-0.000753
42.262,75.8240,-0.000753
42.290,75.8634,-0.000753
42.321,75.9056,-0.001882
42.352,75.9480,-0.001882
42.381,75.9868,-0.001882
42.414,76.0300,-0.001882
42.445,76.0695,-0.001882
42.476,76.1100,-0.001882
42.507,76.1488,-0.001882
42.538,76.1862,-0.001882
42.570,76.2238,-0.002682
42.600,76.2598,-0.002682
42.631,76.2946,-0.002682
42.664,76.3328,-0.002682
42.693,76.3635,-0.002682
42.724,76.3972,-0.002682
42.755,76.4297,-0.002682
42.785,76.4614,-0.002682
42.819,76.4955,-0.003265
42.848,76.5236,-0.003265
42.879,76.5537,-0.003265
42.910,76.5827,-0.003265
42.939,76.6093,-0.003265
42.973,76.6402,-0.003265
43.004,76.6676,-0.003265
43.035,76.6924,-0.003265
43.068,76.7198,-0.003604
43.096,76.7419,-0.003604
43.128,76.7668,-0.003604
43.158,76.7892,-0.003604
43.189,76.8119,-0.003604
43.219,76.8336,-0.003604
43.250,76.8540,-0.003604
43.282,76.8752,-0.003604
43.315,76.8966,-0.003632
43.343,76.9136,-0.003632
43.375,76.9319,-0.003632
43.406,76.9498,-0.003632
43.438,76.9667,-0.003632
43.463,76.9801,-0.003632
43.500,76.9977,-0.003632
43.532,77.0131,-0.003632
43.563,77.0266,-0.003416
43.594,77.0399,-0.003416
43.624,77.0517,-0.003416
43.654,77.0632,-0.003416
43.686,77.0741,-0.003416
43.716,77.0838,-0.003416
43.747,77.0936,-0.003416
43.778,77.1023,-0.002983
43.812,77.1111,-0.002983
43.840,77.1176,-0.002983
43.871,77.1241,-0.002983
43.902,77.1299,-0.002983
43.933,77.1349,-0.002983
43.964,77.1392,-0.002983
43.995,77.1430,-0.002983
44.027,77.1459,-0.002258
44.059,77.1482,-0.002258
44.091,77.1495,-0.002258
44.122,77.1503,-0.002258
44.153,77.1503,-0.002258
44.184,77.1503,-0.002258
44.214,77.1503,-0.002258
44.246,77.1503,-0.002258
44.277,77.1503,-0.001449
44.309,77.1503,-0.001449
44.340,77.1503,-0.001449
44.371,77.1503,-0.001449
44.402,77.1503,-0.001449
44.432,77.1503,-0.001449
44.464,77.1503,-0.001449
44.494,77.1503,-0.001449
44.525,77.1503,-0.001449
44.556,77.1503,-0.000969
44.588,77.1503,-0.000969
44.619,77.1503,-0.000969
44.650,77.1503,-0.000969
44.682,77.1503,-0.000969
44.713,77.1503,-0.000969
44.744,77.1503,-0.000969
44.775,77.1503,-0.000837
44.806,77.1503,-0.000837
44.836,77.1503,-0.000837
44.867,77.1503,-0.000837
44.898,77.1503,-0.000837
44.929,77.1503,-0.000837
44.962,77.1503,-0.000837
44.992,77.1503,-0.000837
45.022,77.1503,-0.000837
45.053,77.1503,-0.000837
45.085,77.1503,-0.000828
45.116,77.1503,-0.000828
45.147,77.1503,-0.000828
45.178,77.1503,-0.000828
45.212,77.1503,-0.000828
45.240,77.1503,-0.000828
45.271,77.1503,-0.000828
45.302,77.1503,-0.000725
45.333,77.1503,-0.000725
45.365,77.1503,-0.000725
45.397,77.1503,-0.000725
45.428,77.1503,-0.000725
45.460,77.1503,-0.000725
45.492,77.1503,-0.000725
45.523,77.1503,-0.000725
45.554,77.1503,-0.000659
45.584,77.1503,-0.000659
45.614,77.1503,-0.000659
45.647,77.1503,-0.000659
45.678,77.1503,-0.000659
45.709,77.1503,-0.000659
45.740,77.1503,-0.000659
45.770,77.1503,-0.000640
45.801,77.1503,-0.000640
45.832,77.1503,-0.000640
45.863,77.1503,-0.000640
45.895,77.1503,-0.000640
45.926,77.1503,-0.000640
45.957,77.1503,-0.000640
45.988,77.1503,-0.000640
46.020,77.1503,-0.000640
46.050,77.1503,-0.000640
46.081,77.1503,-0.000640
46.112,77.1503,-0.000640
46.143,77.1503,-0.000640
46.173,77.1503,-0.000640
46.204,77.1503,-0.000640
46.236,77.1503,-0.000640
46.266,77.1503,-0.000621
46.297,77.1503,-0.000621
46.328,77.1503,-0.000621
46.358,77.1503,-0.000621
46.389,77.1503,-0.000621
46.420,77.1503,-0.000621
46.452,77.1503,-0.000621
46.483,77.1503,-0.000621
46.515,77.1503,-0.000621
46.546,77.1503,-0.000508
46.577,77.1503,-0.000508
46.608,77.1503,-0.000508
46.639,77.1503,-0.000508
46.669,77.1503,-0.000508
46.701,77.1503,-0.000508
46.732,77.1503,-0.000508
46.762,77.1503,-0.000508
46.793,77.1503,-0.000480
46.824,77.1503,-0.000480
46.855,77.1503,-0.000480
46.886,77.1503,-0.000480
46.919,77.1503,-0.000480
46.949,77.1503,-0.000480
46.982,77.1503,-0.000480
47.010,77.1503,-0.000480
47.041,77.1503,-0.000508
47.072,77.1503,-0.000508
47.106,77.1503,-0.000508
47.134,77.1503,-0.000508
47.165,77.1503,-0.000508
47.196,77.1503,-0.000508
47.227,77.1503,-0.000508
47.257,77.1503,-0.000508
47.290,77.1503,-0.000527
47.321,77.1503,-0.000527
47.352,77.1503,-0.000527
47.383,77.1503,-0.000527
47.414,77.1503,-0.000527
47.445,77.1503,-0.000527
47.476,77.1503,-0.000527
47.507,77.1503,-0.000527
47.538,77.1503,-0.000555
47.570,77.1503,-0.000555
47.601,77.1503,-0.000555
47.632,77.1503,-0.000555
47.663,77.1503,-0.000555
47.694,77.1503,-0.000555
47.725,77.1503,-0.000555
47.756,77.1503,-0.000555
47.787,77.1503,-0.000555
47.818,77.1503,-0.000536
47.849,77.1503,-0.000536
47.880,77.1503,-0.000536
47.911,77.1503,-0.000536
47.941,77.1503,-0.000536
47.972,77.1503,-0.000536
48.004,77.1503,-0.000536
48.036,77.1503,-0.000546
48.066,77.1503,-0.000546
48.097,77.1503,-0.000546
48.128,77.1503,-0.000546
48.159,77.1503,-0.000546
48.189,77.1503,-0.000546
48.220,77.1503,-0.000546
48.252,77.1503,-0.000546
48.283,77.1503,-0.000527
48.314,77.1503,-0.000527
48.344,77.1503,-0.000527
48.377,77.1503,-0.000527
48.406,77.1503,-0.000527
48.437,77.1496,-0.000527
48.469,77.1483,-0.000527
48.500,77.1463,-0.000527
48.533,77.1433,-0.000461
48.563,77.1398,-0.000461
48.594,77.1358,-0.000461
48.625,77.1307,-0.000461
48.656,77.1250,-0.000461
48.687,77.1184,-0.000461
48.719,77.1111,-0.000461
48.750,77.1031,-0.000461
48.781,77.0945,0.000160
48.811,77.0853,0.000160
48.843,77.0752,0.000160
48.873,77.0643,0.000160
48.900,77.0546,0.000160
48.935,77.0409,0.000160
48.966,77.0279,0.000160
48.997,77.0138,0.000160
49.029,76.9992,0.000160
49.059,76.9847,0.001299
49.090,76.9689,0.001299
49.122,76.9511,0.001299
49.152,76.9348,0.001299
49.184,76.9162,0.001299
49.214,76.8978,0.001299
49.246,76.8775,0.001299
49.277,76.8576,0.002352
49.313,76.8331,0.002352
49.339,76.8149,0.002352
49.371,76.7915,0.002352
49.402,76.7673,0.002352
49.432,76.7447,0.002352
49.463,76.7204,0.002352
49.494,76.6951,0.002352
49.525,76.6692,0.003435
49.556,76.6418,0.003435
49.587,76.6144,0.003435
49.618,76.5866,0.003435
49.650,76.5563,0.003435
49.678,76.5293,0.003435
49.709,76.4983,0.003435
49.740,76.4685,0.003435
49.773,76.4337,0.003435
49.801,76.4051,0.003435
49.832,76.3708,0.004498
49.863,76.3372,0.004498
49.895,76.3013,0.004498
49.925,76.2667,0.004498
49.957,76.2299,0.004498
49.988,76.1936,0.004498
50.018,76.1554,0.004498
50.050,76.1172,0.004498
50.080,76.0791,0.005401
50.112,76.0373,0.005401
50.143,75.9972,0.005401
50.174,75.9562,0.005401
50.205,75.9134,0.005401
50.236,75.8711,0.005401
50.267,75.8272,0.005401
50.301,75.7778,0.005401
50.328,75.7396,0.005401
50.359,75.6942,0.006276
50.389,75.6487,0.006276
50.421,75.6006,0.006276
50.453,75.5521,0.006276
50.483,75.5044,0.006276
50.515,75.4539,0.006276
50.545,75.4056,0.007198
50.576,75.3540,0.007198
50.606,75.3044,0.007198
50.638,75.2501,0.007198
50.668,75.1981,0.007198
50.699,75.1452,0.007198
50.730,75.0899,0.007198
50.762,75.0347,0.007198
50.793,74.9777,0.007198
50.824,74.9217,0.008017
50.856,74.8629,0.008017
50.886,74.8060,0.008017
50.917,74.7476,0.008017
50.947,74.6894,0.008017
50.978,74.6300,0.008017
51.011,74.5669,0.008017
51.040,74.5096,0.008017
51.072,74.4487,0.008836
51.103,74.3910,0.008836
51.134,74.3332,0.008836
51.165,74.2768,0.008836
51.198,74.2165,0.008836
51.229,74.1623,0.008836
51.260,74.1087,0.008836
51.291,74.0540,0.009240
51.324,73.9973,0.009240
51.352,73.9496,0.009240
51.383,73.8999,0.009240
51.414,73.8484,0.009240
51.447,73.7943,0.009240
51.476,73.7487,0.009240
51.507,73.7007,0.009240
51.537,73.6539,0.009240
51.569,73.6058,0.009297
51.600,73.5589,0.009297
51.631,73.5129,0.009297
51.662,73.4686,0.009297
51.693,73.4234,0.009297
51.725,73.3793,0.009297
51.756,73.3364,0.009297
51.788,73.2930,0.009334
51.821,73.2490,0.009334
51.849,73.2123,0.009334
51.879,73.1731,0.009334
51.910,73.1340,0.009334
51.941,73.0968,0.009334
51.971,73.0587,0.009334
52.003,73.0219,0.009334
52.034,72.9857,0.009278
52.065,72.9503,0.009278
52.095,72.9160,0.009278
52.129,72.8789,0.009278
52.158,72.8483,0.009278
52.189,72.8152,0.009278
52.220,72.7837,0.009278
52.251,72.7523,0.009278
52.282,72.7218,0.009278
52.313,72.6921,0.009231
52.344,72.6630,0.009231
52.375,72.6347,0.009231
52.406,72.6070,0.009231
52.440,72.5780,0.009231
52.468,72.5541,0.009231
52.500,72.5283,0.009231
52.530,72.5043,0.009231
52.561,72.4804,0.009165
52.592,72.4568,0.009165
52.623,72.4351,0.009165
52.654,72.4131,0.009165
52.685,72.3919,0.009165
52.716,72.3720,0.009165
52.747,72.3522,0.009165
52.778,72.3333,0.008949
52.810,72.3152,0.008949
52.839,72.2986,0.008949
52.870,72.2820,0.008949
52.901,72.2665,0.008949
52.932,72.2507,0.008949
52.963,72.2367,0.008949
52.994,72.2229,0.008949
53.025,72.2100,0.008685
53.056,72.1978,0.008685
53.087,72.1864,0.008685
53.118,72.1753,0.008685
53.149,72.1649,0.008685
53.181,72.1557,0.008685
53.212,72.1470,0.008685
53.243,72.1391,0.008685
53.273,72.1322,0.008685
53.305,72.1255,0.008478
53.336,72.1199,0.008478
53.366,72.1149,0.008478
53.398,72.1107,0.008478
53.429,72.1071,0.008478
53.460,72.1044,0.008478
53.491,72.1023,0.008478
53.522,72.1009,0.008478
53.551,72.1003,0.008318
53.583,72.1003,0.008318
53.614,72.1003,0.008318
53.646,72.1003,0.008318
53.677,72.1005,0.008318
53.708,72.1015,0.008318
53.739,72.1034,0.008318
53.770,72.1057,0.008318
53.800,72.1090,0.008149
53.832,72.1128,0.008149
53.863,72.1175,0.008149
53.893,72.1227,0.008149
53.924,72.1288,0.008149
53.955,72.1354,0.008149
53.986,72.1433,0.008149
54.017,72.1514,0.008149
54.049,72.1606,0.007904
54.080,72.1706,0.007904
54.112,72.1810,0.007904
54.141,72.1913,0.007904
54.172,72.2032,0.007904
54.202,72.2156,0.007904
54.233,72.2291,0.007904
54.264,72.2434,0.007603
54.295,72.2577,0.007603
54.325,72.2732,0.007603
54.356,72.2889,0.007603
54.387,72.3058,0.007603
54.419,72.3239,0.007603
54.449,72.3420,0.007603
54.480,72.3610,0.007603
54.511,72.3806,0.007603
54.541,72.4008,0.007603
54.573,72.4221,0.007377
54.605,72.4452,0.007377
54.634,72.4665,0.007377
54.665,72.4903,0.007377
54.696,72.5144,0.007377
54.727,72.5394,0.007377
54.761,72.5676,0.007377
54.789,72.5917,0.007377
54.821,72.6188,0.007133
54.851,72.6467,0.007133
54.882,72.6755,0.007133
54.914,72.7046,0.007133
54.944,72.7340,0.007133
54.976,72.7649,0.007133
55.007,72.7972,0.007133
55.037,72.8284,0.006784
55.069,72.8623,0.006784
55.099,72.8950,0.006784
55.131,72.9297,0.006784
55.164,72.9673,0.006784
55.194,73.0030,0.006784
55.225,73.0388,0.006784
55.256,73.0767,0.006784
55.288,73.1153,0.006239
55.319,73.1542,0.006239
55.350,73.1949,0.006239
55.380,73.2330,0.006239
55.412,73.2755,0.006239
55.442,73.3158,0.006239
55.474,73.3587,0.006239
55.505,73.4018,0.006239
55.539,73.4514,0.006239
55.566,73.4901,0.006239
55.597,73.5345,0.005523
55.628,73.5812,0.005523
55.659,73.6275,0.005523
55.690,73.6764,0.005523
55.721,73.7233,0.005523
55.752,73.7736,0.005523
55.783,73.8216,0.005523
55.813,73.8712,0.004601
55.845,73.9229,0.004601
55.876,73.9750,0.004601
55.908,74.0310,0.004601
55.940,74.0845,0.004601
55.971,74.1390,0.004601
56.002,74.1938,0.004601
56.033,74.2494,0.004601
56.064,74.3069,0.003293
56.095,74.3626,0.003293
56.126,74.4211,0.003293
56.157,74.4783,0.003293
56.187,74.5382,0.003293
56.219,74.5977,0.003293
56.250,74.6585,0.003293
56.281,74.7172,0.003293
56.313,74.7770,0.001675
56.343,74.8343,0.001675
56.374,74.8911,0.001675
56.405,74.9465,0.001675
56.436,75.0027,0.001675
56.467,75.0590,0.001675
56.501,75.1170,0.001675
56.528,75.1639,0.001675
56.560,75.2170,0.000198
56.591,75.2696,0.000198
56.622,75.3212,0.000198
56.653,75.3705,0.000198
56.683,75.4199,0.000198
56.715,75.4697,0.000198
56.746,75.5181,0.000198
56.777,75.5661,0.000198
56.808,75.6126,-0.000988
56.839,75.6595,-0.000988
56.869,75.7029,-0.000988
56.900,75.7479,-0.000988
56.931,75.7915,-0.000988
56.962,75.8345,-0.000988
56.993,75.8773,-0.000988
57.024,75.9202,-0.000988
57.054,75.9593,-0.000988
57.085,75.9997,-0.002014
57.116,76.0388,-0.002014
57.149,76.0812,-0.002014
57.179,76.1181,-0.002014
57.210,76.1560,-0.002014
57.243,76.1945,-0.002014
57.273,76.2289,-0.002014
57.304,76.2649,-0.002795
57.335,76.2988,-0.002795
57.366,76.3333,-0.002795
57.397,76.3654,-0.002795
57.428,76.3983,-0.002795
57.460,76.4304,-0.002795
57.490,76.4607,-0.002795
57.524,76.4938,-0.002795
57.552,76.5196,-0.003237
57.583,76.5484,-0.003237
57.614,76.5765,-0.003237
57.645,76.6039,-0.003237
57.676,76.6304,-0.003237
57.706,76.6554,-0.003237
57.737,76.6806,-0.003237
57.768,76.7045,-0.003237
57.799,76.7286,-0.003397
57.833,76.7529,-0.003397
57.862,76.7744,-0.003397
57.893,76.7951,-0.003397
57.924,76.8165,-0.003397
57.955,76.8362,-0.003397
57.988,76.8571,-0.003397
58.016,76.8737,-0.003397
58.047,76.8914,-0.003397
58.078,76.9083,-0.003397
58.109,76.9247,-0.003406
58.141,76.9404,-0.003406
58.172,76.9554,-0.003406
58.203,76.9699,-0.003406
58.234,76.9830,-0.003406
58.268,76.9971,-0.003406
58.297,77.0081,-0.003406
58.329,77.0197,-0.003133
58.359,77.0297,-0.003133
58.391,77.0401,-0.003133
58.419,77.0482,-0.003133
58.450,77.0565,-0.003133
58.481,77.0642,-0.003133
58.513,77.0713,-0.003133
58.545,77.0775,-0.003133
58.575,77.0828,-0.002522
58.607,77.0876,-0.002522
58.638,77.0915,-0.002522
58.669,77.0948,-0.002522
58.702,77.0973,-0.002522
58.732,77.0989,-0.002522
58.768,77.1000,-0.002522
58.809,77.1003,-0.001760
58.841,77.1003,-0.001760
58.870,77.1003,-0.001760
58.901,77.1003,-0.001760
58.933,77.1003,-0.001760
58.963,77.1003,-0.001760
58.995,77.1003,-0.001760
59.026,77.1003,-0.001760
59.056,77.1003,-0.001092
59.088,77.1003,-0.001092
59.119,77.1003,-0.001092
59.151,77.1003,-0.001092
59.184,77.1003,-0.001092
59.212,77.1003,-0.001092
59.244,77.1003,-0.001092
59.275,77.1003,-0.000743
59.305,77.1003,-0.000743
59.336,77.1003,-0.000743
59.367,77.1003,-0.000743
59.398,77.1003,-0.000743
59.428,77.1003,-0.000743
59.461,77.1003,-0.000743
59.491,77.1003,-0.000743
59.523,77.1003,-0.000743
59.553,77.1003,-0.000668
59.584,77.1003,-0.000668
59.616,77.1003,-0.000668
59.647,77.1003,-0.000668
59.678,77.1003,-0.000668
59.709,77.1003,-0.000668
59.740,77.1003,-0.000668
59.770,77.1003,-0.000668
59.804,77.1003,-0.000649
59.832,77.1003,-0.000649
59.863,77.1003,-0.000649
59.894,77.1003,-0.000649
59.925,77.1003,-0.000649
59.957,77.1003,-0.000649
59.987,77.1003,-0.000649
60.018,77.1003,-0.000649
60.050,77.1003,-0.000583
60.080,77.1003,-0.000583
60.111,77.1003,-0.000583
60.141,77.1003,-0.000583
60.173,77.1003,-0.000583
60.205,77.1003,-0.000583
60.236,77.1003,-0.000583
60.266,77.1003,-0.000536
60.297,77.1003,-0.000536
60.329,77.1003,-0.000536
60.359,77.1003,-0.000536
60.389,77.1003,-0.000536
60.420,77.1003,-0.000536
60.450,77.1003,-0.000536
60.482,77.1003,-0.000536
60.515,77.1003,-0.000536
60.543,77.1003,-0.000536
60.574,77.1003,-0.000555
60.605,77.1003,-0.000555
60.637,77.1003,-0.000555
60.668,77.1003,-0.000555
60.698,77.1003,-0.000555
60.729,77.1003,-0.000555
60.760,77.1003,-0.000555
60.790,77.1003,-0.000555
60.820,77.1003,-0.000508
60.851,77.1003,-0.000508
60.882,77.1003,-0.000508
60.914,77.1003,-0.000508
60.944,77.1003,-0.000508
60.975,77.1003,-0.000508
61.005,77.1003,-0.000508
61.036,77.1003,-0.000508
61.074,77.1003,-0.000480
61.115,77.1003,-0.000480
61.146,77.1003,-0.000480
61.178,77.1003,-0.000480
61.209,77.1003,-0.000480
61.242,77.1003,-0.000480
61.272,77.1003,-0.000480
61.303,77.1003,-0.000499
61.334,77.1003,-0.000499
61.366,77.1003,-0.000499
61.395,77.1003,-0.000499
61.426,77.1003,-0.000499
61.457,77.1003,-0.000499
61.488,77.1003,-0.000499
61.519,77.1003,-0.000499
61.550,77.1003,-0.000489
61.582,77.1003,-0.000489
61.613,77.1003,-0.000489
61.644,77.1003,-0.000489
61.674,77.1003,-0.000489
61.706,77.1003,-0.000489
61.737,77.1003,-0.000489
61.768,77.1003,-0.000489
61.800,77.1003,-0.000499
61.831,77.1003,-0.000499
61.861,77.1003,-0.000499
61.892,77.1003,-0.000499
61.923,77.1003,-0.000499
61.953,77.1003,-0.000499
61.984,77.1003,-0.000499
62.016,77.1003,-0.000499
62.047,77.1003,-0.000452
62.078,77.1003,-0.000452
62.110,77.1003,-0.000452
62.140,77.1003,-0.000452
62.170,77.1003,-0.000452
62.201,77.1003,-0.000452
62.232,77.1003,-0.000452
62.263,77.1003,-0.000452
62.295,77.1003,-0.000414
62.325,77.1003,-0.000414
62.356,77.1003,-0.000414
62.386,77.1003,-0.000414
62.417,77.1003,-0.000414
62.448,77.1003,-0.000414
62.479,77.1003,-0.000414
62.510,77.1003,-0.000414
62.541,77.1003,-0.000414
62.572,77.1003,-0.000386
62.603,77.1003,-0.000386
62.634,77.1003,-0.000386
62.664,77.1003,-0.000386
62.696,77.1003,-0.000386
62.726,77.1003,-0.000386
62.758,77.1003,-0.000386
62.788,77.1003,-0.000423
62.818,77.1003,-0.000423
62.850,77.1003,-0.000423
62.884,77.1003,-0.000423
62.913,77.1003,-0.000423
62.944,77.1003,-0.000423
62.976,77.1003,-0.000423
63.007,77.1003,-0.000423
63.038,77.1003,-0.000423
63.069,77.1003,-0.000405
63.100,77.1003,-0.000405
63.131,77.1000,-0.000405
63.163,77.0992,-0.000405
63.195,77.0974,-0.000405
63.225,77.0952,-0.000405
63.256,77.0920,-0.000405
63.286,77.0883,-0.000358
63.319,77.0834,-0.000358
63.349,77.0782,-0.000358
63.380,77.0723,-0.000358
63.410,77.0656,-0.000358
63.442,77.0580,-0.000358
63.473,77.0497,-0.000358
63.504,77.0410,-0.000358
63.535,77.0313,0.000282
63.566,77.0209,0.000282
63.596,77.0100,0.000282
63.627,76.9978,0.000282
63.658,76.9853,0.000282
63.688,76.9727,0.000282
63.719,76.9588,0.000282
63.750,76.9439,0.000282
63.781,76.9285,0.001543
63.812,76.9120,0.001543
63.845,76.8943,0.001543
63.874,76.8782,0.001543
63.905,76.8598,0.001543
63.936,76.8405,0.001543
63.968,76.8197,0.001543
63.999,76.7993,0.001543
64.030,76.7784,0.001543
64.061,76.7559,0.001543
64.093,76.7331,0.002588
64.124,76.7091,0.002588
64.155,76.6853,0.002588
64.186,76.6601,0.002588
64.216,76.6351,0.002588
64.248,76.6083,0.002588
64.279,76.5815,0.003538
64.310,76.5537,0.003538
64.340,76.5253,0.003538
64.372,76.4946,0.003538
64.403,76.4655,0.003538
64.434,76.4342,0.003538
64.465,76.4024,0.003538
64.496,76.3697,0.003538
64.526,76.3382,0.004545
64.557,76.3053,0.004545
64.588,76.2702,0.004545
64.620,76.2349,0.004545
64.651,76.1985,0.004545
64.682,76.1622,0.004545
64.713,76.1240,0.004545
64.744,76.0870,0.004545
64.777,76.0453,0.004545
64.805,76.0099,0.005580
64.835,75.9709,0.005580
64.866,75.9306,0.005580
64.897,75.8885,0.005580
64.928,75.8450,0.005580
64.959,75.8026,0.005580
64.990,75.7591,0.005580
65.021,75.7143,0.005580
65.053,75.6682,0.006502
65.083,75.6227,0.006502
65.115,75.5758,0.006502
65.146,75.5285,0.006502
65.177,75.4791,0.006502
65.208,75.4306,0.006502
65.239,75.3809,0.006502
65.271,75.3285,0.006502
65.302,75.2783,0.007340
65.333,75.2267,0.007340
65.364,75.1747,0.007340
65.396,75.1183,0.007340
65.426,75.0670,0.007340
65.458,75.0093,0.007340
65.488,74.9555,0.007340
65.518,74.8997,0.007340
65.550,74.8437,0.008168
65.581,74.7835,0.008168
65.613,74.7250,0.008168
65.644,74.6652,0.008168
65.675,74.6036,0.008168
65.706,74.5443,0.008168
65.733,74.4933,0.008168
65.769,74.4251,0.008168
65.800,74.3666,0.008168
65.830,74.3096,0.008967
65.861,74.2537,0.008967
65.891,74.1981,0.008967
65.922,74.1416,0.008967
65.954,74.0870,0.008967
65.986,74.0310,0.008967
66.018,73.9761,0.008967
66.048,73.9244,0.009344
66.080,73.8706,0.009344
66.110,73.8215,0.009344
66.142,73.7696,0.009344
66.172,73.7210,0.009344
66.204,73.6713,0.009344
66.235,73.6225,0.009344
66.266,73.5757,0.009344
66.297,73.5282,0.009334
66.329,73.4812,0.009334
66.358,73.4389,0.009334
66.390,73.3927,0.009334
66.419,73.3517,0.009334
66.450,73.3081,0.009334
66.480,73.2671,0.009334
66.512,73.2242,0.009334
66.543,73.1842,0.009334
66.575,73.1425,0.009344
66.605,73.1041,0.009344
66.634,73.0670,0.009344
66.665,73.0293,0.009344
66.696,72.9921,0.009344
66.727,72.9547,0.009344
66.758,72.9193,0.009344
66.789,72.8835,0.009316
66.820,72.8491,0.009316
66.845,72.8221,0.009316
66.882,72.7827,0.009316
66.913,72.7502,0.009316
66.945,72.7183,0.009316
66.975,72.6877,0.009316
67.009,72.6553,0.009316
67.038,72.6281,0.009316
67.069,72.5996,0.009212
67.100,72.5710,0.009212
67.132,72.5437,0.009212
67.164,72.5164,0.009212
67.195,72.4908,0.009212
67.226,72.4654,0.009212
67.257,72.4406,0.009212
67.288,72.4177,0.009212
67.319,72.3948,0.009071
67.352,72.3721,0.009071
67.383,72.3503,0.009071
67.413,72.3305,0.009071
67.444,72.3109,0.009071
67.475,72.2913,0.009071
67.506,72.2730,0.009071
67.536,72.2558,0.009071
67.567,72.2391,0.008864
67.598,72.2228,0.008864
67.629,72.2073,0.008864
67.660,72.1926,0.008864
67.691,72.1788,0.008864
67.721,72.1656,0.008864
67.752,72.1530,0.008864
67.783,72.1412,0.008638
67.814,72.1302,0.008638
67.844,72.1201,0.008638
67.877,72.1100,0.008638
67.907,72.1009,0.008638
67.938,72.0930,0.008638
67.969,72.0854,0.008638
68.000,72.0787,0.008638
68.031,72.0725,0.008365
68.063,72.0672,0.008365
68.093,72.0626,0.008365
68.123,72.0589,0.008365
68.154,72.0558,0.008365
68.185,72.0533,0.008365
68.216,72.0515,0.008365
68.247,72.0505,0.008365
68.277,72.0503,0.008111
68.307,72.0503,0.008111
68.338,72.0503,0.008111
68.369,72.0503,0.008111
68.401,72.0503,0.008111
68.431,72.0503,0.008111
68.462,72.0503,0.008111
68.492,72.0508,0.008111
68.526,72.0523,0.008111
68.554,72.0540,0.008111
68.585,72.0569,0.008102
68.616,72.0602,0.008102
68.647,72.0644,0.008102
68.677,72.0692,0.008102
68.708,72.0749,0.008102
68.741,72.0813,0.008102
68.771,72.0885,0.008102
68.802,72.0963,0.008102
68.833,72.1047,0.007829
68.865,72.1143,0.007829
68.894,72.1237,0.007829
68.927,72.1351,0.007829
68.959,72.1469,0.007829
68.990,72.1591,0.007829
69.021,72.1721,0.007829
69.053,72.1860,0.007490
69.084,72.2009,0.007490
69.115,72.2157,0.007490
69.145,72.2310,0.007490
69.176,72.2476,0.007490
69.207,72.2652,0.007490
69.238,72.2830,0.007490
69.270,72.3023,0.007490
69.301,72.3219,0.007330
69.331,72.3416,0.007330
69.362,72.3622,0.007330
69.393,72.3843,0.007330
69.424,72.4062,0.007330
69.455,72.4301,0.007330
69.486,72.4536,0.007330
69.518,72.4787,0.007330
69.549,72.5040,0.007114
69.581,72.5310,0.007114
69.615,72.5610,0.007114
69.644,72.5871,0.007114
69.675,72.6147,0.007114
69.706,72.6440,0.007114
69.738,72.6744,0.007114
69.768,72.7040,0.007114
69.799,72.7352,0.007114
69.830,72.7677,0.007114
69.860,72.7985,0.006803
69.890,72.8318,0.006803
69.921,72.8645,0.006803
69.953,72.9012,0.006803
69.983,72.9357,0.006803
70.015,72.9732,0.006803
70.045,73.0092,0.006323
70.076,73.0461,0.006323
70.107,73.0856,0.006323
70.138,73.1241,0.006323
70.169,73.1651,0.006323
70.200,73.2041,0.006323
70.231,73.2449,0.006323
70.262,73.2879,0.006323
70.292,73.3300,0.005674
70.324,73.3736,0.005674
70.358,73.4226,0.005674
70.386,73.4635,0.005674
70.417,73.5088,0.005674
70.447,73.5542,0.005674
70.479,73.6027,0.005674
70.506,73.6454,0.005674
70.540,73.6978,0.005674
70.571,73.7478,0.004790
70.603,73.7982,0.004790
70.634,73.8483,0.004790
70.665,73.9011,0.004790
70.700,73.9600,0.004790
70.727,74.0073,0.004790
70.759,74.0610,0.004790
70.789,74.1145,0.003670
70.820,74.1699,0.003670
70.851,74.2247,0.003670
70.882,74.2826,0.003670
70.913,74.3390,0.003670
70.948,74.4048,0.003670
70.974,74.4552,0.003670
71.006,74.5154,0.003670
71.037,74.5755,0.002164
71.067,74.6338,0.002164
71.099,74.6945,0.002164
71.130,74.7524,0.002164
71.160,74.8077,0.002164
71.191,74.8659,0.002164
71.222,74.9223,0.002164
71.253,74.9761,0.002164
71.284,75.0315,0.002164
71.315,75.0849,0.000649
71.347,75.1402,0.000649
71.378,75.1911,0.000649
71.409,75.2449,0.000649
71.440,75.2939,0.000649
71.471,75.3450,0.000649
71.502,75.3935,0.000649
71.532,75.4425,0.000649
71.563,75.4897,-0.000593
71.595,75.5383,-0.000593
71.630,75.5910,-0.000593
71.658,75.6312,-0.000593
71.689,75.6764,-0.000593
71.721,75.7231,-0.000593
71.752,75.7664,-0.000593
71.783,75.8082,-0.001675
71.814,75.8505,-0.001675
71.844,75.8911,-0.001675
71.875,75.9315,-0.001675
71.905,75.9712,-0.001675
71.936,76.0102,-0.001675
71.967,76.0488,-0.001675
71.999,76.0881,-0.001675
72.031,76.1252,-0.002475
72.062,76.1616,-0.002475
72.092,76.1962,-0.002475
72.123,76.2314,-0.002475
72.155,76.2662,-0.002475
72.185,76.2990,-0.002475
72.215,76.3312,-0.002475
72.247,76.3631,-0.002475
72.276,76.3935,-0.003021
72.310,76.4258,-0.003021
72.337,76.4524,-0.003021
72.368,76.4818,-0.003021
72.401,76.5120,-0.003021
72.429,76.5375,-0.003021
72.460,76.5639,-0.003021
72.491,76.5898,-0.003021
72.523,76.6160,-0.003021
72.553,76.6408,-0.003021
72.585,76.6647,-0.003331
72.616,76.6884,-0.003331
72.647,76.7110,-0.003331
72.678,76.7328,-0.003331
72.709,76.7539,-0.003331
72.741,76.7750,-0.003331
72.773,76.7949,-0.003331
72.805,76.8142,-0.003331
72.838,76.8339,-0.003331
72.866,76.8495,-0.003331
72.897,76.8665,-0.003331
72.928,76.8824,-0.003331
72.963,76.9005,-0.003331
72.989,76.9118,-0.003331
73.020,76.9258,-0.003331
73.050,76.9381,-0.003077
73.081,76.9507,-0.003077
73.112,76.9620,-0.003077
73.142,76.9729,-0.003077
73.173,76.9830,-0.003077
73.203,76.9926,-0.003077
73.234,77.0013,-0.003077
73.265,77.0095,-0.003077
73.296,77.0169,-0.002597
73.327,77.0234,-0.002597
73.358,77.0292,-0.002597
73.392,77.0349,-0.002597
73.421,77.0389,-0.002597
73.452,77.0427,-0.002597
73.483,77.0457,-0.002597
73.514,77.0479,-0.002597
73.545,77.0494,-0.001920
73.575,77.0502,-0.001920
73.606,77.0503,-0.001920
73.641,77.0503,-0.001920
73.668,77.0503,-0.001920
73.699,77.0503,-0.001920
73.730,77.0503,-0.001920
73.761,77.0503,-0.001920
73.792,77.0503,-0.001186
73.824,77.0503,-0.001186
73.855,77.0503,-0.001186
73.887,77.0503,-0.001186
73.916,77.0503,-0.001186
73.948,77.0503,-0.001186
73.978,77.0503,-0.001186
74.009,77.0503,-0.001186
74.039,77.0503,-0.000772
74.070,77.0503,-0.000772
74.101,77.0503,-0.000772
74.133,77.0503,-0.000772
74.164,77.0503,-0.000772
74.195,77.0503,-0.000772
74.227,77.0503,-0.000772
74.257,77.0503,-0.000772
74.289,77.0503,-0.000772
74.319,77.0503,-0.000687
74.350,77.0503,-0.000687
74.381,77.0503,-0.000687
74.413,77.0503,-0.000687
74.445,77.0503,-0.000687
74.475,77.0503,-0.000687
74.505,77.0503,-0.000687
74.537,77.0503,-0.000630
74.567,77.0503,-0.000630
74.598,77.0503,-0.000630
74.633,77.0503,-0.000630
74.659,77.0503,-0.000630
74.690,77.0503,-0.000630
74.722,77.0503,-0.000630
74.753,77.0503,-0.000630
74.784,77.0503,-0.000593
74.815,77.0503,-0.000593
74.845,77.0503,-0.000593
74.876,77.0503,-0.000593
74.908,77.0503,-0.000593
74.939,77.0503,-0.000593
74.970,77.0503,-0.000593
75.003,77.0503,-0.000593
75.033,77.0503,-0.000593
75.065,77.0503,-0.000565
75.095,77.0503,-0.000565
75.127,77.0503,-0.000565
75.157,77.0503,-0.000565
75.187,77.0503,-0.000565
75.218,77.0503,-0.000565
75.253,77.0503,-0.000565
75.279,77.0503,-0.000565
75.311,77.0503,-0.000565
75.342,77.0503,-0.000565
75.375,77.0503,-0.000565
75.403,77.0503,-0.000565
75.435,77.0503,-0.000565
75.466,77.0503,-0.000565
75.496,77.0503,-0.000565
75.528,77.0503,-0.000518
75.558,77.0503,-0.000518
75.590,77.0503,-0.000518
75.622,77.0503,-0.000518
75.653,77.0503,-0.000518
75.685,77.0503,-0.000518
75.717,77.0503,-0.000518
75.746,77.0503,-0.000518
75.785,77.0503,-0.000518
75.825,77.0503,-0.000461
75.856,77.0503,-0.000461
75.887,77.0503,-0.000461
75.921,77.0503,-0.000461
75.949,77.0503,-0.000461
75.981,77.0503,-0.000461
76.013,77.0503,-0.000461
76.044,77.0503,-0.000461
76.075,77.0503,-0.000499
76.106,77.0503,-0.000499
76.137,77.0503,-0.000499
76.169,77.0503,-0.000499
76.199,77.0503,-0.000499
76.231,77.0503,-0.000499
76.261,77.0503,-0.000499
76.292,77.0503,-0.000423
76.323,77.0503,-0.000423
76.355,77.0503,-0.000423
76.386,77.0503,-0.000423
76.417,77.0503,-0.000423
76.448,77.0503,-0.000423
76.480,77.0503,-0.000423
76.512,77.0503,-0.000423
76.543,77.0503,-0.000423
76.572,77.0503,-0.000348
76.603,77.0503,-0.000348
76.634,77.0503,-0.000348
76.665,77.0503,-0.000348
76.696,77.0503,-0.000348
76.727,77.0503,-0.000348
76.759,77.0503,-0.000348
76.788,77.0503,-0.000348
76.819,77.0503,-0.000311
76.850,77.0503,-0.000311
76.882,77.0503,-0.000311
76.913,77.0503,-0.000311
76.947,77.0503,-0.000311
76.976,77.0503,-0.000311
77.006,77.0503,-0.000311
77.037,77.0503,-0.000311
77.068,77.0503,-0.000311
77.099,77.0503,-0.000320
77.129,77.0503,-0.000320
77.162,77.0503,-0.000320
77.191,77.0503,-0.000320
77.222,77.0503,-0.000320
77.255,77.0503,-0.000320
77.284,77.0503,-0.000320
77.315,77.0503,-0.000358
77.345,77.0503,-0.000358
77.377,77.0503,-0.000358
77.407,77.0503,-0.000358
77.438,77.0503,-0.000358
77.470,77.0503,-0.000358
77.500,77.0503,-0.000358
77.531,77.0503,-0.000311
77.562,77.0503,-0.000311
77.592,77.0503,-0.000311
77.623,77.0503,-0.000311
77.654,77.0503,-0.000311
77.685,77.0503,-0.000311
77.717,77.0503,-0.000311
77.747,77.0503,-0.000311
77.779,77.0503,-0.000311
77.812,77.0503,-0.000348
77.840,77.0503,-0.000348
77.871,77.0503,-0.000348
77.902,77.0503,-0.000348
77.933,77.0503,-0.000348
77.963,77.0497,-0.000348
77.994,77.0483,-0.000348
78.025,77.0463,-0.000358
78.056,77.0435,-0.000358
78.088,77.0399,-0.000358
78.119,77.0357,-0.000358
78.150,77.0307,-0.000358
78.183,77.0245,-0.000358
78.211,77.0187,-0.000358
78.242,77.0116,-0.000358
78.274,77.0035,-0.000358
78.305,76.9949,0.000207
78.337,76.9852,0.000207
78.371,76.9743,0.000207
78.399,76.9645,0.000207
78.429,76.9533,0.000207
78.461,76.9402,0.000207
78.491,76.9281,0.000207
78.522,76.9145,0.000207
78.553,76.9001,0.001261
78.584,76.8850,0.001261
78.614,76.8690,0.001261
78.646,76.8524,0.001261
78.676,76.8351,0.001261
78.707,76.8176,0.001261
78.738,76.7982,0.001261
78.768,76.7798,0.001261
78.799,76.7590,0.002277
78.829,76.7390,0.002277
78.860,76.7171,0.002277
78.892,76.6942,0.002277
78.923,76.6717,0.002277
78.954,76.6475,0.002277
78.986,76.6221,0.002277
79.017,76.5966,0.003256
79.048,76.5707,0.003256
79.078,76.5447,0.003256
79.109,76.5168,0.003256
79.141,76.4882,0.003256
79.172,76.4596,0.003256
79.202,76.4306,0.003256
79.234,76.3998,0.003256
79.265,76.3687,0.003256
79.295,76.3370,0.004291
79.327,76.3043,0.004291
79.357,76.2711,0.004291
79.389,76.2367,0.004291
79.420,76.2016,0.004291
79.450,76.1669,0.004291
79.483,76.1288,0.004291
79.513,76.0928,0.004291
79.544,76.0549,0.004291
79.575,76.0163,0.005241
79.612,75.9704,0.005241
79.653,75.9172,0.005241
79.685,75.8749,0.005241
79.715,75.8346,0.005241
79.747,75.7907,0.005241
79.778,75.7482,0.006182
79.808,75.7051,0.006182
79.838,75.6616,0.006182
79.869,75.6163,0.006182
79.900,75.5710,0.006182
79.931,75.5243,0.006182
79.962,75.4762,0.006182
79.992,75.4297,0.006182
80.023,75.3817,0.006182
80.054,75.3313,0.007038
80.085,75.2811,0.007038
80.115,75.2293,0.007038
80.147,75.1769,0.007038
80.177,75.1260,0.007038
80.208,75.0742,0.007038
80.238,75.0200,0.007038
80.270,74.9649,0.007038
80.300,74.9097,0.007791
80.332,74.8541,0.007791
80.363,74.7968,0.007791
80.394,74.7389,0.007791
80.425,74.6815,0.007791
80.454,74.6233,0.007791
80.486,74.5629,0.007791
80.517,74.5021,0.007791
80.548,74.4436,0.007791
80.579,74.3837,0.008704
80.610,74.3250,0.008704
80.641,74.2680,0.008704
80.671,74.2123,0.008704
80.703,74.1552,0.008704
80.733,74.1007,0.008704
80.763,74.0467,0.008704
80.794,73.9916,0.009184
80.825,73.9398,0.009184
80.856,73.8866,0.009184
80.890,73.8295,0.009184
80.919,73.7824,0.009184
80.951,73.7293,0.009184
80.980,73.6828,0.009184
81.011,73.6346,0.009184
81.042,73.5860,0.009184
81.073,73.5372,0.009231
81.104,73.4905,0.009231
81.135,73.4446,0.009231
81.166,73.3986,0.009231
81.197,73.3545,0.009231
81.228,73.3090,0.009231
81.259,73.2668,0.009231
81.287,73.2285,0.009231
81.321,73.1828,0.009297
81.352,73.1408,0.009297
81.384,73.1003,0.009297
81.415,73.0587,0.009297
81.448,73.0188,0.009297
81.477,72.9835,0.009297
81.508,72.9457,0.009297
81.539,72.9089,0.009278
81.573,72.8695,0.009278
81.601,72.8378,0.009278
81.632,72.8025,0.009278
81.663,72.7696,0.009278
81.694,72.7358,0.009278
81.725,72.7043,0.009278
81.755,72.6724,0.009278
81.787,72.6411,0.009278
81.819,72.6104,0.009165
81.849,72.5820,0.009165
81.879,72.5532,0.009165
81.910,72.5262,0.009165
81.941,72.4990,0.009165
81.972,72.4722,0.009165
82.003,72.4457,0.009165
82.034,72.4213,0.009014
82.065,72.3966,0.009014
82.097,72.3720,0.009014
82.128,72.3496,0.009014
82.159,72.3269,0.009014
82.190,72.3058,0.009014
82.222,72.2848,0.009014
82.252,72.2651,0.009014
82.283,72.2459,0.009014
82.314,72.2277,0.008892
82.349,72.2069,0.008892
82.377,72.1922,0.008892
82.406,72.1762,0.008892
82.437,72.1611,0.008892
82.467,72.1460,0.008892
82.498,72.1322,0.008892
82.530,72.1178,0.008892
82.560,72.1060,0.008685
82.591,72.0940,0.008685
82.622,72.0828,0.008685
82.655,72.0715,0.008685
82.684,72.0622,0.008685
82.714,72.0535,0.008685
82.744,72.0450,0.008685
82.776,72.0372,0.008685
82.806,72.0303,0.008403
82.838,72.0240,0.008403
82.868,72.0185,0.008403
82.899,72.0140,0.008403
82.930,72.0099,0.008403
82.962,72.0064,0.008403
82.993,72.0038,0.008403
83.023,72.0019,0.008403
83.055,72.0008,0.008224
83.084,72.0003,0.008224
83.116,72.0003,0.008224
83.147,72.0003,0.008224
83.178,72.0003,0.008224
83.209,72.0003,0.008224
83.241,72.0003,0.008224
83.272,72.0007,0.008224
83.303,72.0019,0.008064
83.334,72.0039,0.008064
83.365,72.0064,0.008064
83.396,72.0099,0.008064
83.427,72.0140,0.008064
83.459,72.0188,0.008064
83.489,72.0243,0.008064
83.521,72.0307,0.008064
83.552,72.0378,0.007791
83.583,72.0456,0.007791
83.614,72.0536,0.007791
83.645,72.0631,0.007791
83.676,72.0729,0.007791
83.707,72.0838,0.007791
83.738,72.0951,0.007791
83.769,72.1071,0.007575
83.800,72.1201,0.007575
83.830,72.1333,0.007575
83.862,72.1477,0.007575
83.893,72.1627,0.007575
83.924,72.1785,0.007575
83.955,72.1954,0.007575
83.986,72.2124,0.007575
84.017,72.2304,0.007575
84.050,72.2500,0.007368
84.078,72.2677,0.007368
84.108,72.2869,0.007368
84.139,72.3084,0.007368
84.171,72.3305,0.007368
84.201,72.3513,0.007368
84.232,72.3742,0.007368
84.263,72.3981,0.007368
84.294,72.4229,0.007368
84.324,72.4473,0.007114
84.355,72.4732,0.007114
84.386,72.4996,0.007114
84.417,72.5265,0.007114
84.448,72.5550,0.007114
84.480,72.5840,0.007114
84.511,72.6135,0.007114
84.542,72.6440,0.006813
84.573,72.6750,0.006813
84.605,72.7075,0.006813
84.635,72.7391,0.006813
84.666,72.7727,0.006813
84.697,72.8060,0.006813
84.728,72.8408,0.006813
84.759,72.8762,0.006813
84.790,72.9128,0.006813
84.821,72.9488,0.006323
84.852,72.9866,0.006323
84.883,73.0254,0.006323
84.914,73.0636,0.006323
84.946,73.1043,0.006323
84.978,73.1460,0.006323
85.008,73.1870,0.006323
85.040,73.2304,0.006323
85.071,73.2718,0.006323
85.102,73.3166,0.005778
85.133,73.3601,0.005778
85.164,73.4054,0.005778
85.196,73.4511,0.005778
85.226,73.4970,0.005778
85.257,73.5429,0.005778
85.289,73.5930,0.005778
85.321,73.6439,0.005072
85.351,73.6903,0.005072
85.382,73.7405,0.005072
85.414,73.7931,0.005072
85.444,73.8432,0.005072
85.474,73.8938,0.005072
85.506,73.9471,0.005072
85.541,74.0080,0.005072
85.567,74.0539,0.003971
85.600,74.1118,0.003971
85.630,74.1665,0.003971
85.661,74.2220,0.003971
85.694,74.2850,0.003971
85.723,74.3367,0.003971
85.754,74.3969,0.003971
85.785,74.4557,0.003971
85.816,74.5172,0.002531
85.847,74.5760,0.002531
85.879,74.6378,0.002531
85.908,74.6918,0.002531
85.938,74.7490,0.002531
85.969,74.8042,0.002531
86.001,74.8613,0.002531
86.032,74.9172,0.001026
86.065,74.9751,0.001026
86.094,75.0262,0.001026
86.125,75.0798,0.001026
86.156,75.1328,0.001026
86.186,75.1823,0.001026
86.218,75.2353,0.001026
86.250,75.2859,0.001026
86.280,75.3363,-0.000292
86.312,75.3852,-0.000292
86.344,75.4353,-0.000292
86.375,75.4823,-0.000292
86.409,75.5334,-0.000292
86.437,75.5737,-0.000292
86.468,75.6211,-0.000292
86.498,75.6625,-0.000292
86.529,75.7071,-0.001402
86.560,75.7502,-0.001402
86.592,75.7930,-0.001402
86.623,75.8352,-0.001402
86.653,75.8751,-0.001402
86.684,75.9142,-0.001402
86.715,75.9533,-0.001402
86.745,75.9915,-0.001402
86.777,76.0301,-0.001402
86.806,76.0654,-0.002230
86.838,76.1025,-0.002230
86.869,76.1379,-0.002230
86.899,76.1730,-0.002230
86.930,76.2066,-0.002230
86.967,76.2479,-0.002230
87.007,76.2890,-0.002230
87.037,76.3208,-0.002813
87.068,76.3508,-0.002813
87.101,76.3833,-0.002813
87.129,76.4102,-0.002813
87.161,76.4401,-0.002813
87.192,76.4679,-0.002813
87.223,76.4958,-0.002813
87.253,76.5216,-0.002813
87.285,76.5486,-0.003143
87.316,76.5734,-0.003143
87.347,76.5977,-0.003143
87.378,76.6216,-0.003143
87.409,76.6452,-0.003143
87.442,76.6693,-0.003143
87.471,76.6891,-0.003143
87.502,76.7101,-0.003143
87.535,76.7312,-0.003190
87.565,76.7503,-0.003190
87.596,76.7690,-0.003190
87.626,76.7865,-0.003190
87.658,76.8042,-0.003190
87.689,76.8205,-0.003190
87.720,76.8366,-0.003190
87.751,76.8514,-0.003190
87.782,76.8661,-0.003190
87.813,76.8795,-0.002983
87.844,76.8924,-0.002983
87.875,76.9046,-0.002983
87.906,76.9160,-0.002983
87.936,76.9262,-0.002983
87.967,76.9363,-0.002983
87.997,76.9451,-0.002983
88.028,76.9538,-0.002550
88.059,76.9620,-0.002550
88.090,76.9688,-0.002550
88.121,76.9754,-0.002550
88.152,76.9810,-0.002550
88.183,76.9861,-0.002550
88.215,76.9902,-0.002550
88.246,76.9937,-0.002550
88.277,76.9965,-0.001873
88.307,76.9985,-0.001873
88.337,76.9997,-0.001873
88.368,77.0003,-0.001873
88.398,77.0003,-0.001873
88.429,77.0003,-0.001873
88.460,77.0003,-0.001873
88.491,77.0003,-0.001873
88.522,77.0003,-0.001873
