Elapsed Time (s),Position (mm),Force (N)
-0.016,56.6001,-0.039879
0.000,56.6001,-0.041087
0.016,56.6001,-0.041087
0.032,56.6001,-0.043504
0.049,56.6001,-0.041087
0.063,56.6001,-0.043504
0.090,56.6001,-0.038670
0.112,56.6001,-0.036253
0.128,56.6001,-0.036253
0.144,56.6001,-0.035045
0.159,56.6001,-0.038670
0.176,56.6001,-0.041087
0.193,56.6001,-0.037462
0.208,56.6001,-0.036253
0.223,56.6001,-0.036253
0.239,56.6001,-0.036253
0.256,56.6001,-0.038670
0.272,56.6001,-0.039879
0.289,56.6001,-0.039879
0.303,56.6001,-0.035045
0.322,56.6001,-0.041087
0.336,56.6001,-0.037462
0.351,56.6001,-0.033837
0.367,56.6001,-0.031420
0.386,56.6001,-0.035045
0.399,56.6001,-0.035045
0.416,56.6001,-0.037462
0.432,56.6001,-0.038670
0.450,56.6001,-0.038670
0.464,56.6001,-0.038670
0.479,56.6001,-0.038670
0.495,56.6001,-0.033837
0.512,56.6001,-0.035045
0.527,56.6001,-0.041087
0.544,56.6001,-0.039879
0.559,56.6001,-0.037462
0.576,56.6001,-0.033837
0.592,56.6001,-0.033837
0.607,56.6001,-0.038670
0.623,56.6001,-0.039879
0.639,56.6001,-0.038670
0.655,56.6001,-0.035045
0.671,56.6001,-0.039879
0.687,56.6001,-0.037462
0.704,56.6001,-0.033837
0.720,56.6001,-0.035045
0.735,56.6001,-0.036253
0.752,56.6001,-0.030211
0.767,56.6001,-0.038670
0.783,56.6001,-0.033837
0.799,56.6001,-0.043504
0.815,56.6001,-0.041087
0.832,56.6001,-0.036253
0.847,56.6001,-0.038670
0.865,56.6001,-0.033837
0.879,56.6001,-0.041087
0.896,56.6001,-0.035045
0.912,56.6001,-0.031420
0.927,56.6001,-0.036253
0.943,56.6001,-0.038670
0.964,56.6001,-0.038670
0.975,56.6001,-0.035045
0.990,56.6001,-0.031420
1.007,56.6001,-0.037462
1.024,56.6001,-0.036253
1.039,56.6001,-0.041087
1.055,56.6001,-0.036253
1.071,56.6001,-0.037462
1.087,56.6001,-0.031420
1.103,56.6001,-0.032628
1.119,56.6001,-0.035045
1.136,56.6001,-0.031420
1.151,56.6001,-0.038670
1.167,56.6001,-0.037462
1.183,56.6001,-0.037462
1.202,56.6001,-0.037462
1.215,56.6001,-0.035045
1.231,56.6001,-0.035045
1.247,56.6001,-0.027794
1.265,56.6001,-0.037462
1.279,56.6001,-0.036253
1.296,56.6001,-0.032628
1.311,56.6001,-0.032628
1.328,56.6001,-0.030211
1.344,56.6001,-0.030211
1.359,56.6001,-0.031420
1.375,56.6001,-0.032628
1.391,56.6001,-0.032628
1.408,56.6001,-0.036253
1.423,56.6001,-0.037462
1.439,56.6001,-0.035045
1.455,56.6001,-0.025377
1.471,56.6001,-0.025377
1.487,56.6001,-0.038670
1.506,56.6001,-0.038670
1.519,56.6001,-0.035045
1.535,56.6001,-0.031420
1.551,56.6001,-0.027794
1.570,56.6001,-0.026586
1.583,56.6001,-0.032628
1.599,56.6001,-0.026586
1.619,56.6001,-0.030211
1.631,56.6001,-0.030211
1.647,56.6001,-0.033837
1.663,56.6001,-0.031420
1.679,56.6001,-0.032628
1.695,56.6001,-0.031420
1.712,56.6001,-0.031420
1.727,56.6001,-0.030211
1.743,56.6001,-0.031420
1.760,56.6001,-0.031420
1.775,56.6001,-0.036253
1.791,56.6001,-0.036253
1.807,56.6001,-0.031420
1.823,56.6001,-0.029003
1.840,56.6001,-0.029003
1.855,56.6001,-0.031420
1.870,56.6001,-0.037462
1.887,56.6001,-0.033837
1.903,56.6001,-0.035045
1.919,56.6001,-0.032628
1.935,56.6001,-0.029003
1.951,56.6001,-0.029003
1.969,56.6001,-0.029003
1.983,56.6001,-0.036253
1.999,56.6001,-0.033837
2.014,56.6001,-0.031420
2.031,56.6001,-0.030211
2.047,56.6001,-0.036253
2.064,56.6001,-0.031420
2.079,56.6001,-0.031420
2.094,56.6001,-0.032628
2.111,56.6001,-0.032628
2.127,56.6001,-0.027794
2.144,56.6001,-0.036253
2.172,56.6001,-0.029003
2.192,56.6001,-0.033837
2.204,56.6001,-0.029003
2.220,56.6001,-0.035045
2.236,56.6001,-0.035045
2.252,56.6001,-0.029003
2.267,56.6001,-0.032628
2.284,56.6001,-0.032628
2.301,56.6001,-0.030211
2.316,56.6001,-0.029003
2.332,56.6001,-0.032628
2.348,56.6001,-0.027794
2.364,56.6001,-0.033837
2.380,56.6001,-0.037462
2.395,56.6001,-0.035045
2.412,56.6001,-0.033837
2.431,56.6001,-0.027794
2.444,56.6001,-0.025377
2.459,56.6001,-0.030211
2.477,56.6001,-0.033837
2.491,56.6001,-0.038670
2.507,56.6001,-0.039879
2.523,56.6001,-0.030211
2.543,56.6001,-0.030211
2.556,56.6001,-0.032628
2.571,56.6001,-0.031420
2.587,56.6001,-0.030211
2.604,56.6001,-0.025377
2.620,56.6001,-0.030211
2.638,56.6001,-0.029003
2.651,56.6001,-0.031420
2.669,56.6001,-0.029003
2.684,56.6001,-0.026586
2.700,56.6001,-0.035045
2.723,56.6001,-0.036253
2.740,56.6001,-0.033837
2.755,56.6001,-0.037462
2.771,56.6001,-0.027794
2.788,56.6001,-0.031420
2.803,56.6001,-0.030211
2.820,56.6001,-0.030211
2.835,56.6001,-0.030211
2.852,56.6001,-0.030211
2.868,56.6001,-0.029003
2.884,56.6001,-0.029003
2.899,56.6001,-0.033837
2.916,56.6001,-0.031420
2.932,56.6001,-0.033837
2.947,56.6001,-0.027794
2.965,56.6001,-0.030211
2.979,56.6001,-0.030211
2.996,56.6001,-0.030211
3.011,56.6001,-0.031420
3.027,56.6001,-0.030211
3.043,56.6001,-0.027794
3.059,56.6001,-0.035045
3.078,56.6001,-0.030211
3.091,56.6001,-0.026586
3.108,56.6001,-0.031420
3.123,56.6001,-0.030211
3.144,56.6001,-0.022961
3.155,56.6001,-0.022961
3.171,56.6001,-0.029003
3.187,56.6001,-0.027794
3.206,56.6001,-0.039879
3.219,56.6001,-0.032628
3.235,56.6001,-0.027794
3.251,56.6001,-0.027794
3.267,56.6001,-0.025377
3.283,56.6001,-0.033837
3.299,56.6001,-0.029003
3.315,56.6001,-0.032628
3.331,56.6001,-0.029003
3.347,56.6001,-0.025377
3.363,56.6001,-0.029003
3.379,56.6001,-0.038670
3.397,56.6001,-0.031420
3.411,56.6001,-0.029003
3.427,56.6001,-0.026586
3.443,56.6001,-0.031420
3.459,56.6001,-0.031420
3.476,56.6001,-0.027794
3.491,56.6001,-0.030211
3.507,56.6001,-0.026586
3.525,56.6001,-0.031420
3.539,56.6001,-0.027794
3.555,56.6001,-0.031420
3.571,56.6001,-0.031420
3.588,56.6001,-0.026586
3.603,56.6001,-0.027794
3.621,56.6001,-0.027794
3.635,56.6001,-0.026586
3.652,56.6001,-0.026586
3.668,56.6001,-0.025377
3.683,56.6001,-0.027794
3.699,56.6001,-0.032628
3.715,56.6001,-0.022961
3.731,56.6001,-0.022961
3.747,56.6001,-0.030211
3.764,56.6001,-0.031420
3.795,56.6001,-0.030211
3.810,56.6001,-0.031420
3.826,56.6001,-0.027794
3.842,56.6001,-0.026586
3.858,56.6001,-0.027794
3.874,56.6001,-0.027794
3.890,56.6001,-0.035045
3.906,56.6001,-0.039879
3.923,56.6001,-0.031420
3.938,56.6001,-0.030211
3.954,56.6001,-0.029003
3.971,56.6001,-0.029003
3.986,56.6001,-0.032628
4.002,56.6001,-0.025377
4.018,56.6001,-0.026586
4.034,56.6001,-0.035045
4.051,56.6001,-0.038670
4.066,56.6001,-0.031420
4.082,56.6001,-0.033837
4.099,56.6001,-0.032628
4.114,56.6001,-0.022961
4.129,56.6001,-0.026586
4.147,56.6001,-0.027794
4.162,56.6001,-0.032628
4.180,56.6001,-0.031420
4.193,56.6001,-0.030211
4.209,56.6001,-0.025377
4.226,56.6001,-0.031420
4.242,56.6001,-0.025377
4.266,56.6001,-0.022961
4.288,56.6001,-0.030211
4.306,56.6001,-0.029003
4.334,56.6001,-0.030211
4.349,56.6001,-0.027794
4.365,56.6001,-0.030211
4.381,56.6001,-0.032628
4.402,56.6001,-0.032628
4.413,56.6001,-0.031420
4.429,56.6001,-0.025377
4.446,56.6001,-0.026586
4.462,56.6001,-0.026586
4.478,56.6001,-0.022961
4.494,56.6001,-0.030211
4.510,56.6001,-0.027794
4.526,56.6001,-0.031420
4.541,56.6001,-0.031420
4.559,56.6001,-0.029003
4.574,56.6001,-0.025377
4.590,56.6001,-0.025377
4.605,56.6001,-0.029003
4.623,56.6001,-0.029003
4.637,56.6001,-0.029003
4.653,56.6001,-0.026586
4.669,56.6001,-0.024169
4.686,56.6001,-0.031420
4.702,56.6001,-0.031420
4.718,56.6001,-0.032628
4.733,56.6001,-0.029003
4.749,56.6001,-0.029003
4.766,56.6001,-0.026586
4.781,56.6001,-0.026586
4.797,56.6001,-0.027794
4.813,56.6001,-0.027794
4.830,56.6001,-0.029003
4.846,56.6001,-0.026586
4.861,56.6001,-0.031420
4.878,56.6001,-0.024169
4.893,56.6001,-0.026586
4.909,56.6001,-0.025377
4.925,56.6001,-0.030211
4.942,56.6001,-0.030211
4.958,56.6001,-0.022961
4.974,56.6001,-0.029003
4.989,56.6001,-0.027794
5.007,56.6001,-0.031420
5.022,56.6001,-0.026586
5.040,56.6001,-0.029003
5.053,56.6001,-0.036253
5.070,56.6001,-0.036253
5.086,56.6001,-0.031420
5.103,56.6001,-0.029003
5.117,56.6001,-0.031420
5.133,56.6001,-0.026586
5.149,56.6001,-0.026586
5.165,56.6001,-0.026586
5.181,56.6001,-0.026586
5.197,56.6001,-0.020544
5.213,56.6001,-0.030211
5.229,56.6001,-0.032628
5.249,56.6001,-0.025377
5.261,56.6001,-0.026586
5.277,56.6001,-0.027794
5.293,56.6001,-0.026586
5.309,56.6001,-0.026586
5.325,56.6001,-0.031420
5.341,56.6001,-0.031420
5.357,56.6001,-0.033837
5.373,56.6001,-0.033837
5.389,56.6001,-0.033837
5.405,56.6001,-0.027794
5.432,56.6001,-0.031420
5.448,56.6001,-0.029003
5.464,56.6001,-0.032628
5.480,56.6001,-0.032628
5.496,56.6001,-0.031420
5.512,56.6001,-0.029003
5.529,56.6001,-0.025377
5.544,56.6001,-0.036253
5.560,56.6001,-0.036253
5.576,56.6001,-0.026586
5.592,56.6001,-0.029003
5.611,56.6001,-0.030211
5.624,56.6001,-0.030211
5.640,56.6001,-0.021752
5.656,56.6001,-0.024169
5.672,56.6001,-0.026586
5.688,56.6001,-0.027794
5.704,56.6001,-0.030211
5.720,56.6001,-0.032628
5.737,56.6001,-0.026586
5.752,56.6001,-0.026586
5.768,56.6001,-0.026586
5.784,56.6001,-0.025377
5.802,56.6001,-0.025377
5.817,56.6001,-0.029003
5.832,56.6001,-0.033837
5.848,56.6001,-0.030211
5.864,56.6001,-0.029003
5.880,56.6001,-0.029003
5.896,56.6001,-0.027794
5.912,56.6001,-0.032628
5.931,56.6001,-0.027794
5.944,56.6001,-0.029003
5.961,56.6001,-0.031420
5.976,56.6001,-0.025377
5.992,56.6001,-0.024169
6.008,56.6001,-0.031420
6.024,56.6001,-0.029003
6.040,56.6001,-0.029003
6.057,56.6001,-0.025377
6.072,56.6001,-0.025377
6.088,56.6001,-0.025377
6.104,56.6001,-0.032628
6.120,56.6001,-0.026586
6.137,56.6001,-0.030211
6.152,56.6001,-0.024169
6.168,56.6001,-0.024169
6.185,56.6001,-0.027794
6.200,56.6001,-0.027794
6.218,56.6001,-0.027794
6.232,56.6001,-0.031420
6.249,56.6001,-0.035045
6.264,56.6001,-0.026586
6.281,56.6001,-0.029003
6.296,56.6001,-0.030211
6.314,56.6001,-0.033837
6.329,56.6001,-0.033837
6.343,56.6001,-0.026586
6.360,56.6001,-0.030211
6.376,56.6001,-0.026586
6.392,56.6001,-0.026586
6.408,56.6001,-0.029003
6.423,56.6001,-0.025377
6.440,56.6001,-0.026586
6.455,56.6001,-0.026586
6.475,56.6001,-0.022961
6.488,56.6001,-0.026586
6.504,56.6001,-0.027794
6.519,56.6001,-0.022961
6.540,56.6001,-0.024169
6.556,56.6001,-0.025377
6.572,56.6001,-0.029003
6.588,56.6001,-0.022961
6.604,56.6001,-0.026586
6.622,56.6001,-0.026586
6.637,56.6001,-0.033837
6.653,56.6001,-0.025377
6.668,56.6001,-0.025377
6.684,56.6001,-0.032628
6.700,56.6001,-0.027794
6.716,56.6001,-0.025377
6.732,56.6001,-0.025377
6.749,56.6001,-0.032628
6.764,56.6001,-0.037462
6.782,56.6001,-0.033837
6.797,56.6001,-0.022961
6.813,56.6001,-0.029003
6.828,56.6001,-0.026586
6.846,56.6001,-0.021752
6.861,56.6001,-0.024169
6.876,56.6001,-0.030211
6.892,56.6001,-0.025377
6.909,56.6001,-0.030211
6.924,56.6001,-0.026586
6.940,56.6001,-0.030211
6.956,56.6001,-0.033837
6.972,56.6001,-0.027794
6.988,56.6001,-0.030211
7.004,56.6001,-0.025377
7.021,56.6001,-0.030211
7.037,56.6001,-0.035045
7.052,56.6001,-0.031420
7.069,56.6001,-0.027794
7.094,56.6001,-0.026586
7.112,56.6001,-0.026586
7.126,56.6001,-0.026586
7.142,56.6001,-0.025377
7.158,56.6001,-0.029003
7.173,56.6001,-0.031420
7.190,56.6001,-0.032628
7.205,56.6001,-0.027794
7.222,56.6001,-0.022961
7.237,56.6001,-0.022961
7.255,56.6001,-0.027794
7.269,56.6001,-0.029003
7.286,56.6001,-0.026586
7.301,56.6001,-0.026586
7.317,56.6001,-0.031420
7.333,56.6001,-0.026586
7.349,56.6001,-0.026586
7.366,56.6001,-0.029003
7.381,56.6001,-0.029003
7.397,56.6001,-0.031420
7.413,56.6001,-0.029003
7.429,56.6001,-0.036253
7.445,56.6001,-0.032628
7.463,56.6001,-0.032628
7.477,56.6001,-0.026586
7.493,56.6001,-0.021752
7.509,56.6001,-0.021752
7.529,56.6001,-0.026586
7.541,56.6001,-0.029003
7.557,56.6001,-0.027794
7.573,56.6001,-0.029003
7.596,56.6001,-0.033837
7.620,56.6001,-0.030211
7.637,56.6001,-0.026586
7.652,56.6001,-0.026586
7.668,56.6001,-0.025377
7.685,56.6001,-0.025377
7.700,56.6001,-0.036253
7.716,56.6001,-0.029003
7.734,56.6001,-0.029003
7.748,56.6001,-0.025377
7.764,56.6001,-0.029003
7.780,56.6001,-0.024169
7.796,56.6001,-0.022961
7.812,56.6001,-0.027794
7.828,56.6001,-0.026586
7.845,56.6001,-0.026586
7.860,56.6001,-0.026586
7.876,56.6001,-0.031420
7.892,56.6001,-0.027794
7.916,56.6001,-0.027794
7.939,56.6001,-0.026586
7.957,56.6001,-0.027794
7.973,56.6001,-0.029003
7.988,56.6001,-0.029003
8.004,56.6001,-0.025377
8.020,56.6001,-0.031420
8.037,56.6001,-0.031420
8.052,56.6001,-0.029003
8.068,56.6001,-0.030211
8.084,56.6001,-0.032628
8.100,56.6001,-0.030211
8.116,56.6001,-0.029003
8.133,56.6001,-0.025377
8.157,56.6001,-0.029003
8.173,56.6001,-0.029003
8.189,56.6001,-0.027794
8.205,56.6001,-0.024169
8.222,56.6001,-0.027794
8.237,56.6001,-0.029003
8.253,56.6001,-0.025377
8.269,56.6001,-0.033837
8.286,56.6001,-0.030211
8.302,56.6001,-0.024169
8.318,56.6001,-0.026586
8.333,56.6001,-0.025377
8.349,56.6001,-0.025377
8.365,56.6001,-0.025377
8.381,56.6001,-0.026586
8.397,56.6001,-0.025377
8.413,56.6001,-0.027794
8.429,56.6001,-0.021752
8.445,56.6001,-0.030211
8.461,56.6001,-0.030211
8.477,56.6001,-0.025377
8.492,56.6001,-0.027794
8.509,56.6001,-0.026586
8.525,56.6001,-0.029003
8.540,56.6001,-0.029003
8.560,56.6001,-0.029003
8.573,56.6001,-0.035045
8.589,56.6001,-0.032628
8.605,56.6001,-0.026586
8.621,56.6001,-0.026586
8.636,56.6001,-0.024169
8.652,56.6001,-0.029003
8.680,56.6001,-0.027794
8.695,56.6001,-0.025377
8.712,56.6001,-0.025377
8.728,56.6001,-0.024169
8.745,56.6001,-0.018127
8.759,56.6001,-0.027794
8.777,56.6001,-0.022961
8.792,56.6001,-0.026586
8.808,56.6001,-0.024169
8.824,56.6001,-0.026586
8.839,56.6001,-0.031420
8.856,56.6001,-0.027794
8.872,56.6001,-0.027794
8.890,56.6001,-0.026586
8.904,56.6001,-0.030211
8.932,56.6001,-0.031420
8.952,56.6001,-0.020544
8.969,56.6001,-0.020544
8.983,56.6001,-0.029003
8.999,56.6001,-0.029003
9.015,56.6001,-0.025377
9.032,56.6001,-0.025377
9.047,56.6001,-0.027794
9.063,56.6001,-0.027794
9.079,56.6001,-0.027794
9.095,56.6001,-0.027794
9.112,56.6001,-0.029003
9.128,56.6001,-0.029003
9.143,56.6001,-0.027794
9.159,56.6001,-0.026586
9.176,56.6001,-0.029003
9.191,56.6001,-0.031420
9.219,56.6001,-0.029003
9.235,56.6001,-0.026586
9.251,56.6001,-0.029003
9.267,56.6001,-0.032628
9.285,56.6001,-0.027794
9.300,56.6001,-0.031420
9.316,56.6001,-0.026586
9.331,56.6001,-0.024169
9.348,56.6001,-0.025377
9.363,56.6001,-0.021752
9.381,56.6001,-0.025377
9.395,56.6001,-0.024169
9.415,56.6001,-0.025377
9.427,56.6001,-0.031420
9.443,56.6001,-0.030211
9.459,56.6001,-0.029003
9.476,56.6001,-0.029003
9.491,56.6001,-0.025377
9.507,56.6001,-0.029003
9.523,56.6001,-0.025377
9.540,56.6001,-0.025377
9.556,56.6001,-0.029003
9.571,56.6001,-0.029003
9.591,56.6001,-0.020544
9.603,56.6001,-0.027794
9.619,56.6001,-0.029003
9.635,56.6001,-0.027794
9.657,56.6001,-0.032628
9.672,56.6001,-0.032628
9.683,56.6001,-0.027794
9.700,56.6001,-0.025377
9.716,56.6001,-0.029003
9.732,56.6001,-0.029003
9.749,56.6001,-0.030211
9.777,56.6001,-0.027794
9.794,56.6001,-0.027794
9.808,56.6001,-0.031420
9.824,56.6001,-0.029003
9.840,56.6001,-0.029003
9.856,56.6001,-0.026586
9.872,56.6001,-0.026586
9.888,56.6001,-0.033837
9.904,56.6001,-0.026586
9.920,56.6001,-0.025377
9.936,56.6001,-0.026586
9.952,56.6001,-0.029003
9.968,56.6001,-0.024169
9.984,56.6001,-0.026586
10.000,56.6001,-0.026586
10.017,56.6001,-0.033837
10.032,56.6001,-0.030211
10.048,56.6001,-0.030211
10.064,56.6001,-0.021752
10.080,56.6001,-0.024169
10.096,56.6001,-0.027794
10.112,56.6001,-0.026586
10.128,56.6001,-0.029003
10.144,56.6001,-0.024169
10.160,56.6001,-0.020544
10.176,56.6001,-0.020544
10.192,56.6001,-0.021752
10.208,56.6001,-0.029003
10.224,56.6001,-0.031420
10.242,56.6001,-0.020544
10.256,56.6001,-0.025377
10.272,56.6001,-0.024169
10.288,56.6001,-0.026586
10.305,56.6001,-0.026586
10.320,56.6001,-0.026586
10.336,56.6001,-0.029003
10.352,56.6001,-0.026586
10.370,56.6001,-0.026586
10.384,56.6001,-0.029003
10.399,56.6001,-0.029003
10.416,56.6001,-0.026586
10.433,56.6001,-0.026586
10.449,56.6001,-0.025377
10.465,56.6001,-0.031420
10.479,56.6001,-0.031420
10.497,56.6001,-0.027794
10.512,56.6001,-0.027794
10.528,56.6001,-0.016918
10.546,56.6001,-0.021752
10.560,56.6001,-0.027794
10.576,56.6001,-0.033837
10.591,56.6001,-0.031420
10.607,56.6001,-0.020544
10.624,56.6001,-0.025377
10.639,56.6001,-0.026586
10.655,56.6001,-0.022961
10.675,56.6001,-0.025377
10.688,56.6001,-0.027794
10.703,56.6001,-0.029003
10.720,56.6001,-0.033837
10.738,56.6001,-0.030211
10.752,56.6001,-0.021752
10.767,56.6001,-0.019335
10.783,56.6001,-0.021752
10.800,56.6001,-0.021752
10.816,56.6001,-0.025377
10.832,56.6001,-0.029003
10.863,56.6001,-0.024169
10.879,56.6001,-0.024169
10.895,56.6001,-0.024169
10.910,56.6001,-0.024169
10.927,56.6001,-0.029003
10.943,56.6001,-0.025377
10.958,56.6001,-0.027794
10.975,56.6001,-0.031420
10.991,56.6001,-0.025377
11.007,56.6001,-0.026586
11.023,56.6001,-0.025377
11.038,56.6001,-0.025377
11.054,56.6001,-0.026586
11.071,56.6001,-0.026586
11.086,56.6001,-0.029003
11.103,56.5435,0.076132
11.119,56.4361,0.076132
11.135,56.3295,0.022961
11.155,56.1976,0.043504
11.167,56.1180,0.071298
11.182,56.0120,0.071298
11.199,55.9053,0.079758
11.214,55.8060,0.108760
11.230,55.6986,0.108760
11.247,55.5899,0.136555
11.262,55.4885,0.148639
11.280,55.3665,0.163140
11.294,55.2744,0.187309
11.311,55.1684,0.211478
11.326,55.0637,0.245315
11.343,54.9497,0.273109
11.358,54.8522,0.287611
11.374,54.7462,0.310571
11.397,54.5931,0.326281
11.413,54.4851,0.337157
11.430,54.3798,0.335948
11.444,54.2750,0.315405
11.462,54.1664,0.315405
11.477,54.0637,0.267067
11.493,53.9543,0.151056
11.509,53.8522,0.151056
11.526,53.7369,0.018127
11.542,53.6355,0.018127
11.558,53.5281,0.006042
11.573,53.4281,0.009668
11.589,53.3168,0.009668
11.605,53.2160,0.004834
11.621,53.1099,0.004834
11.637,52.9987,0.007251
11.653,52.8933,0.003625
11.669,52.7886,-0.001208
11.685,52.6852,0.009668
11.702,52.5666,0.007251
11.717,52.4731,0.008459
11.733,52.3678,0.006042
11.749,52.2584,0.009668
11.765,52.1551,0.007251
11.781,52.0443,0.002417
11.798,51.9317,0.008459
11.813,51.8356,0.010876
11.833,51.7024,0.009668
11.845,51.6229,0.006042
11.861,51.5129,0.006042
11.878,51.4021,0.004834
11.894,51.2994,0.008459
11.909,51.2013,0.008459
11.926,51.0848,0.001208
11.950,50.9237,0.003625
11.966,50.8229,0.003625
11.982,50.7143,0.006042
11.998,50.6109,0.001208
12.014,50.5501,-0.004834
12.030,50.5501,-0.029003
12.046,50.5501,0.013293
12.062,50.5501,0.000000
12.078,50.5501,0.006042
12.094,50.5501,0.002417
12.113,50.5501,0.002417
12.127,50.5501,0.002417
12.142,50.5501,0.006042
12.158,50.5501,0.001208
12.174,50.5501,0.000000
12.191,50.5501,0.000000
12.206,50.5501,-0.002417
12.222,50.5501,0.004834
12.238,50.5501,0.002417
12.256,50.5501,0.008459
12.270,50.5501,0.000000
12.286,50.5501,-0.004834
12.302,50.5501,0.001208
12.318,50.5501,0.006042
12.334,50.5501,-0.002417
12.350,50.5501,0.002417
12.366,50.5501,0.009668
12.382,50.5501,0.004834
12.398,50.5501,0.000000
12.415,50.6159,-0.009668
12.431,50.7194,-0.009668
12.448,50.8320,-0.002417
12.474,51.0036,0.007251
12.490,51.1143,-0.001208
12.506,51.2190,0.004834
12.522,51.3224,-0.010876
12.539,51.4383,0.002417
12.554,51.5371,0.002417
12.570,51.6431,0.002417
12.586,51.7472,0.001208
12.603,51.8651,0.006042
12.618,51.9586,0.000000
12.635,52.0719,-0.002417
12.650,52.1719,0.000000
12.666,52.2813,0.003625
12.682,52.3880,0.003625
12.697,52.4881,0.006042
12.714,52.6034,0.006042
12.735,52.7392,0.006042
12.746,52.8115,0.002417
12.762,52.9168,-0.003625
12.778,53.0229,-0.001208
12.796,53.1376,0.002417
12.810,53.2343,-0.001208
12.826,53.3417,-0.002417
12.843,53.4517,-0.002417
12.858,53.5590,0.000000
12.875,53.6704,-0.002417
12.890,53.7671,0.004834
12.906,53.8726,0.002417
12.922,53.9806,0.006042
12.938,54.0793,-0.001208
12.954,54.1899,-0.002417
12.969,54.2894,-0.004834
12.986,54.3987,-0.004834
13.013,54.5816,0.000000
13.029,54.6870,-0.006042
13.045,54.7937,-0.002417
13.062,54.9011,-0.006042
13.079,55.0190,-0.009668
13.094,55.1171,-0.004834
13.109,55.2185,-0.004834
13.126,55.3292,-0.008459
13.142,55.4325,-0.007251
13.158,55.5405,-0.013293
13.173,55.6420,-0.021752
13.190,55.7540,-0.024169
13.206,55.8573,-0.030211
13.221,55.9641,-0.041087
13.237,56.0654,-0.044713
13.253,56.1768,-0.055589
13.269,56.2775,-0.067673
13.285,56.3842,-0.087008
13.302,56.4995,-0.087008
13.317,56.5501,-0.100301
13.333,56.5501,-0.043504
13.349,56.5501,-0.091842
13.366,56.5501,-0.097884
13.382,56.5501,-0.094259
13.400,56.5501,-0.078549
13.413,56.5501,-0.078549
13.430,56.5501,-0.078549
13.446,56.5501,-0.082174
13.462,56.5501,-0.072507
13.477,56.5501,-0.079758
13.495,56.5501,-0.079758
13.509,56.5501,-0.076132
13.528,56.5501,-0.060422
13.551,56.5501,-0.064048
13.567,56.5501,-0.067673
13.584,56.5501,-0.068882
13.599,56.5501,-0.060422
13.615,56.5501,-0.067673
13.632,56.5501,-0.055589
13.648,56.5501,-0.055589
13.663,56.5501,-0.058005
13.680,56.5501,-0.058005
13.696,56.5501,-0.056797
13.712,56.5501,-0.056797
13.727,56.5501,-0.059214
13.744,56.5501,-0.054380
13.759,56.5501,-0.058005
13.775,56.5501,-0.054380
13.792,56.5501,-0.054380
13.808,56.5501,-0.061631
13.825,56.5501,-0.056797
13.839,56.5501,-0.055589
13.858,56.5501,-0.055589
13.871,56.5501,-0.054380
13.887,56.5501,-0.050755
13.903,56.5501,-0.047129
13.919,56.5501,-0.053172
13.935,56.5501,-0.049546
13.951,56.5501,-0.051963
13.967,56.5501,-0.050755
13.983,56.5501,-0.054380
13.999,56.5501,-0.058005
14.016,56.5501,-0.051963
14.031,56.5501,-0.049546
14.048,56.5501,-0.048338
14.063,56.5501,-0.048338
14.079,56.5501,-0.042296
14.095,56.5501,-0.051963
14.118,56.5501,-0.048338
14.133,56.5501,-0.058005
14.149,56.5501,-0.048338
14.165,56.5501,-0.045921
14.184,56.5501,-0.045921
14.197,56.5501,-0.049546
14.213,56.5501,-0.045921
14.229,56.5501,-0.045921
14.246,56.5501,-0.054380
14.261,56.5501,-0.054380
14.277,56.5501,-0.050755
14.294,56.5501,-0.047129
14.314,56.5501,-0.047129
14.325,56.5501,-0.043504
14.341,56.5501,-0.048338
14.357,56.5501,-0.044713
14.373,56.5501,-0.043504
14.389,56.5501,-0.047129
14.405,56.5501,-0.047129
14.425,56.5501,-0.042296
14.437,56.5501,-0.041087
14.453,56.5501,-0.039879
14.469,56.5501,-0.048338
14.489,56.5501,-0.048338
14.501,56.5501,-0.038670
14.517,56.5501,-0.038670
14.532,56.5501,-0.044713
14.549,56.5501,-0.036253
14.566,56.5501,-0.036253
14.582,56.5501,-0.042296
14.597,56.5501,-0.042296
14.613,56.5501,-0.043504
14.629,56.5501,-0.043504
14.645,56.5501,-0.037462
14.669,56.5501,-0.039879
14.685,56.5501,-0.037462
14.701,56.5501,-0.037462
14.717,56.5501,-0.043504
14.733,56.5501,-0.045921
14.749,56.5501,-0.045921
14.765,56.5501,-0.041087
14.781,56.5501,-0.043504
14.798,56.5501,-0.043504
14.813,56.5501,-0.043504
14.830,56.5501,-0.041087
14.844,56.5501,-0.033837
14.861,56.5501,-0.033837
14.877,56.5501,-0.049546
14.892,56.5501,-0.041087
14.909,56.5501,-0.038670
14.924,56.5501,-0.036253
14.941,56.5501,-0.038670
14.957,56.5501,-0.041087
14.972,56.5501,-0.036253
14.989,56.5501,-0.039879
15.004,56.5501,-0.038670
15.021,56.5501,-0.033837
15.036,56.5501,-0.041087
15.053,56.5501,-0.042296
15.068,56.5501,-0.038670
15.085,56.5501,-0.042296
15.100,56.5501,-0.042296
15.116,56.5501,-0.042296
15.132,56.5501,-0.039879
15.148,56.5501,-0.041087
15.166,56.5501,-0.037462
15.181,56.5501,-0.035045
15.198,56.5501,-0.035045
15.223,56.5501,-0.033837
15.238,56.5501,-0.039879
15.254,56.5501,-0.044713
15.270,56.5501,-0.036253
15.287,56.5501,-0.036253
15.302,56.5501,-0.033837
15.320,56.5501,-0.038670
15.334,56.5501,-0.038670
15.350,56.5501,-0.036253
15.367,56.5501,-0.036253
15.382,56.5501,-0.039879
15.399,56.5501,-0.039879
15.416,56.5501,-0.037462
15.431,56.5501,-0.032628
15.447,56.5501,-0.045921
15.463,56.5501,-0.045921
15.478,56.5501,-0.035045
15.494,56.5501,-0.041087
15.510,56.5501,-0.041087
15.526,56.5501,-0.032628
15.542,56.5501,-0.036253
15.558,56.5501,-0.039879
15.575,56.5501,-0.035045
15.590,56.5501,-0.039879
15.607,56.5501,-0.038670
15.622,56.5501,-0.038670
15.638,56.5501,-0.036253
15.654,56.5501,-0.037462
15.670,56.5501,-0.037462
15.686,56.5501,-0.036253
15.703,56.5501,-0.033837
15.719,56.5501,-0.035045
15.736,56.5501,-0.036253
15.762,56.5501,-0.033837
15.778,56.5501,-0.033837
15.795,56.5501,-0.030211
15.810,56.5501,-0.033837
15.829,56.5501,-0.038670
15.842,56.5501,-0.041087
15.858,56.5501,-0.044713
15.874,56.5501,-0.035045
15.893,56.5501,-0.036253
15.906,56.5501,-0.031420
15.923,56.5501,-0.029003
15.938,56.5501,-0.038670
15.956,56.5501,-0.036253
15.971,56.5501,-0.036253
15.987,56.5501,-0.033837
16.002,56.5501,-0.033837
16.018,56.5501,-0.035045
16.034,56.5501,-0.035045
16.050,56.5501,-0.035045
16.066,56.5501,-0.033837
16.082,56.5501,-0.039879
16.098,56.5501,-0.038670
16.114,56.5501,-0.033837
16.131,56.5501,-0.031420
16.146,56.5501,-0.032628
16.162,56.5501,-0.032628
16.178,56.5501,-0.031420
16.196,56.5501,-0.039879
16.210,56.5501,-0.039879
16.226,56.5501,-0.033837
16.242,56.5501,-0.032628
16.258,56.5501,-0.031420
16.274,56.5501,-0.033837
16.292,56.5501,-0.038670
16.316,56.5501,-0.036253
16.333,56.5501,-0.031420
16.348,56.5501,-0.036253
16.364,56.5501,-0.036253
16.380,56.5501,-0.032628
16.396,56.5501,-0.030211
16.414,56.5501,-0.031420
16.428,56.5501,-0.030211
16.445,56.5501,-0.038670
16.460,56.5501,-0.039879
16.477,56.5501,-0.035045
16.492,56.5501,-0.035045
16.508,56.5501,-0.032628
16.524,56.5501,-0.037462
16.540,56.5501,-0.031420
16.556,56.5501,-0.033837
16.572,56.5501,-0.033837
16.588,56.5501,-0.037462
16.604,56.5501,-0.030211
16.619,56.5501,-0.035045
16.636,56.5501,-0.031420
16.651,56.5501,-0.036253
16.668,56.5501,-0.036253
16.684,56.5501,-0.041087
16.700,56.5501,-0.032628
16.716,56.5501,-0.033837
16.732,56.5501,-0.033837
16.751,56.5501,-0.033837
16.764,56.5501,-0.030211
16.781,56.5501,-0.036253
16.796,56.5501,-0.030211
16.812,56.5501,-0.030211
16.827,56.5501,-0.033837
16.844,56.5501,-0.035045
16.868,56.5501,-0.030211
16.885,56.5501,-0.037462
16.900,56.5501,-0.037462
16.917,56.5501,-0.038670
16.932,56.5501,-0.037462
16.948,56.5501,-0.029003
16.964,56.5501,-0.030211
16.981,56.5501,-0.030211
16.995,56.5501,-0.035045
17.012,56.5501,-0.035045
17.028,56.5501,-0.032628
17.044,56.5501,-0.035045
17.059,56.5501,-0.039879
17.076,56.5501,-0.038670
17.092,56.5501,-0.038670
17.107,56.5501,-0.030211
17.123,56.5501,-0.030211
17.142,56.5501,-0.029003
17.156,56.5501,-0.031420
17.171,56.5501,-0.036253
17.187,56.5501,-0.037462
17.203,56.5501,-0.035045
17.219,56.5501,-0.030211
17.235,56.5501,-0.029003
17.251,56.5501,-0.033837
17.268,56.5501,-0.038670
17.284,56.5501,-0.036253
17.299,56.5501,-0.035045
17.316,56.5501,-0.037462
17.332,56.5501,-0.030211
17.348,56.5501,-0.033837
17.364,56.5501,-0.035045
17.379,56.5501,-0.035045
17.397,56.5501,-0.031420
17.423,56.5501,-0.032628
17.440,56.5501,-0.025377
17.455,56.5501,-0.041087
17.471,56.5501,-0.033837
17.488,56.5501,-0.032628
17.503,56.5501,-0.035045
17.520,56.5501,-0.039879
17.535,56.5501,-0.035045
17.551,56.5501,-0.033837
17.569,56.5501,-0.029003
17.583,56.5501,-0.030211
17.599,56.5501,-0.026586
17.616,56.5501,-0.030211
17.631,56.5501,-0.030211
17.649,56.5501,-0.036253
17.664,56.5501,-0.036253
17.680,56.5501,-0.036253
17.695,56.5501,-0.032628
17.711,56.5501,-0.032628
17.728,56.5501,-0.032628
17.744,56.5501,-0.037462
17.759,56.5501,-0.037462
17.775,56.5501,-0.030211
17.791,56.5501,-0.030211
17.807,56.5501,-0.035045
17.823,56.5501,-0.029003
17.839,56.5501,-0.029003
17.855,56.5501,-0.026586
17.871,56.5501,-0.025377
17.887,56.5501,-0.033837
17.903,56.5501,-0.033837
17.923,56.5501,-0.036253
17.935,56.5501,-0.027794
17.951,56.5501,-0.026586
17.967,56.5501,-0.031420
17.989,56.5501,-0.027794
18.005,56.5501,-0.032628
18.021,56.5501,-0.039879
18.037,56.5501,-0.033837
18.053,56.5501,-0.032628
18.069,56.5501,-0.036253
18.085,56.5501,-0.033837
18.101,56.5501,-0.032628
18.117,56.5501,-0.030211
18.133,56.5501,-0.035045
18.149,56.5501,-0.030211
18.165,56.5501,-0.036253
18.181,56.5501,-0.029003
18.197,56.5501,-0.026586
18.213,56.5501,-0.030211
18.229,56.5501,-0.030211
18.245,56.5501,-0.035045
18.261,56.5501,-0.029003
18.277,56.5501,-0.027794
18.293,56.5501,-0.027794
18.309,56.5501,-0.027794
18.325,56.5501,-0.029003
18.341,56.5501,-0.033837
18.357,56.5501,-0.025377
18.373,56.5501,-0.032628
18.389,56.5501,-0.032628
18.405,56.5501,-0.033837
18.422,56.5501,-0.033837
18.439,56.5501,-0.039879
18.455,56.5501,-0.027794
18.469,56.5501,-0.031420
18.489,56.5501,-0.031420
18.501,56.5501,-0.033837
18.517,56.5501,-0.032628
18.533,56.5501,-0.029003
18.557,56.5501,-0.027794
18.572,56.5501,-0.027794
18.588,56.5501,-0.032628
18.604,56.5501,-0.035045
18.621,56.5501,-0.035045
18.636,56.5501,-0.029003
18.655,56.5501,-0.031420
18.668,56.5501,-0.030211
18.685,56.5501,-0.024169
18.700,56.5501,-0.030211
18.716,56.5501,-0.036253
18.732,56.5501,-0.033837
18.752,56.5501,-0.033837
18.763,56.5501,-0.033837
18.780,56.5501,-0.030211
18.796,56.5501,-0.024169
18.812,56.5501,-0.024169
18.827,56.5501,-0.033837
18.844,56.5501,-0.031420
18.863,56.5501,-0.031420
18.876,56.5501,-0.030211
18.892,56.5501,-0.030211
18.908,56.5501,-0.027794
18.925,56.5501,-0.029003
18.940,56.5501,-0.029003
18.956,56.5501,-0.031420
18.971,56.5501,-0.032628
18.988,56.5501,-0.033837
19.003,56.5501,-0.033837
19.019,56.5501,-0.036253
19.036,56.5501,-0.030211
19.052,56.5501,-0.029003
19.067,56.5501,-0.027794
19.084,56.5501,-0.031420
19.112,56.5501,-0.033837
19.128,56.5501,-0.033837
19.144,56.5501,-0.036253
19.160,56.5501,-0.030211
19.177,56.5501,-0.030211
19.193,56.5501,-0.027794
19.209,56.5501,-0.025377
19.224,56.5501,-0.030211
19.240,56.5501,-0.031420
19.257,56.5501,-0.030211
19.272,56.5501,-0.032628
19.288,56.5501,-0.032628
19.305,56.5501,-0.026586
19.320,56.5501,-0.026586
19.336,56.5501,-0.035045
19.353,56.5501,-0.035045
19.368,56.5501,-0.035045
19.384,56.5501,-0.031420
19.400,56.5501,-0.029003
19.420,56.5501,-0.029003
19.433,56.5501,-0.031420
19.448,56.5501,-0.033837
19.464,56.5501,-0.024169
19.481,56.5501,-0.024169
19.497,56.5501,-0.030211
19.513,56.5501,-0.033837
19.528,56.5501,-0.027794
19.547,56.5501,-0.036253
19.560,56.5501,-0.031420
19.576,56.5501,-0.032628
19.592,56.5501,-0.033837
19.608,56.5501,-0.027794
19.625,56.5501,-0.032628
19.640,56.5501,-0.026586
19.663,56.5501,-0.027794
19.680,56.5501,-0.029003
19.695,56.5501,-0.025377
19.711,56.5501,-0.027794
19.729,56.5501,-0.030211
19.744,56.5501,-0.031420
19.759,56.5501,-0.029003
19.775,56.5501,-0.022961
19.793,56.5501,-0.022961
19.808,56.5501,-0.033837
19.823,56.5501,-0.031420
19.839,56.5501,-0.031420
19.855,56.5501,-0.031420
19.872,56.5501,-0.033837
19.887,56.5501,-0.032628
19.903,56.5501,-0.035045
19.919,56.5501,-0.030211
19.935,56.5501,-0.033837
19.951,56.5501,-0.029003
19.973,56.5501,-0.030211
19.983,56.5501,-0.035045
19.999,56.5501,-0.025377
20.015,56.5501,-0.027794
20.032,56.5501,-0.030211
20.048,56.5501,-0.029003
20.063,56.5501,-0.029003
20.079,56.5501,-0.027794
20.096,56.5501,-0.031420
20.111,56.5501,-0.030211
20.129,56.5501,-0.025377
20.143,56.5501,-0.025377
20.159,56.5501,-0.032628
20.176,56.5501,-0.030211
20.194,56.5501,-0.025377
20.218,56.5501,-0.037462
20.234,56.5501,-0.030211
20.250,56.5501,-0.025377
20.266,56.5501,-0.029003
20.283,56.5501,-0.029003
20.298,56.5501,-0.026586
20.316,56.5501,-0.031420
20.330,56.5501,-0.030211
20.346,56.5501,-0.031420
20.363,56.5501,-0.029003
20.378,56.5501,-0.031420
20.394,56.5501,-0.030211
20.410,56.5501,-0.033837
20.427,56.5501,-0.033837
20.442,56.5501,-0.033837
20.458,56.5501,-0.026586
20.474,56.5501,-0.020544
20.490,56.5501,-0.020544
20.507,56.5501,-0.030211
20.523,56.5501,-0.027794
20.538,56.5501,-0.029003
20.554,56.5501,-0.024169
20.570,56.5501,-0.026586
20.588,56.5501,-0.031420
20.602,56.5501,-0.021752
20.618,56.5501,-0.026586
20.634,56.5501,-0.026586
20.650,56.5501,-0.026586
20.666,56.5501,-0.026586
20.681,56.5501,-0.026586
20.698,56.5501,-0.026586
20.714,56.5501,-0.025377
20.730,56.5501,-0.025377
20.748,56.5501,-0.027794
20.771,56.5501,-0.026586
20.788,56.5501,-0.032628
20.803,56.5501,-0.036253
20.820,56.5501,-0.029003
20.838,56.5501,-0.026586
20.852,56.5501,-0.032628
20.867,56.5501,-0.030211
20.884,56.5501,-0.035045
20.901,56.5501,-0.035045
20.915,56.5501,-0.033837
20.933,56.5501,-0.025377
20.948,56.5501,-0.027794
20.964,56.5501,-0.021752
20.980,56.5501,-0.021752
20.995,56.5501,-0.032628
21.012,56.5501,-0.032628
21.029,56.5501,-0.027794
21.044,56.5501,-0.026586
21.059,56.5501,-0.026586
21.075,56.5501,-0.037462
21.092,56.5501,-0.032628
21.108,56.5501,-0.030211
21.123,56.5501,-0.026586
21.140,56.5501,-0.027794
21.155,56.5501,-0.027794
21.171,56.5501,-0.031420
21.187,56.5501,-0.026586
21.203,56.5501,-0.025377
21.219,56.5501,-0.024169
21.236,56.5501,-0.032628
21.251,56.5501,-0.027794
21.267,56.5501,-0.030211
21.283,56.5501,-0.030211
21.299,56.5501,-0.031420
21.329,56.5501,-0.025377
21.345,56.5501,-0.030211
21.361,56.5501,-0.030211
21.377,56.5501,-0.032628
21.396,56.5501,-0.027794
21.409,56.5501,-0.027794
21.426,56.5501,-0.027794
21.441,56.5501,-0.024169
21.458,56.5501,-0.029003
21.474,56.5501,-0.026586
21.489,56.5501,-0.027794
21.505,56.5501,-0.032628
21.521,56.5501,-0.032628
21.537,56.5501,-0.027794
21.553,56.5501,-0.033837
21.570,56.5501,-0.033837
21.585,56.5501,-0.027794
21.601,56.5501,-0.027794
21.617,56.5501,-0.031420
21.634,56.5501,-0.026586
21.650,56.5501,-0.026586
21.666,56.5501,-0.025377
21.682,56.5501,-0.025377
21.697,56.5501,-0.026586
21.715,56.5501,-0.029003
21.729,56.5501,-0.033837
21.745,56.5501,-0.033837
21.762,56.5501,-0.029003
21.777,56.5501,-0.029003
21.794,56.5501,-0.025377
21.809,56.5501,-0.025377
21.826,56.5501,-0.033837
21.841,56.5501,-0.033837
21.859,56.5501,-0.025377
21.883,56.5501,-0.030211
21.899,56.5501,-0.027794
21.916,56.5501,-0.025377
21.931,56.5501,-0.025377
21.948,56.5501,-0.032628
21.964,56.5501,-0.031420
21.980,56.5501,-0.031420
21.995,56.5501,-0.030211
22.012,56.5501,-0.030211
22.027,56.5501,-0.029003
22.043,56.5501,-0.030211
22.062,56.5501,-0.030211
22.075,56.5501,-0.036253
22.091,56.5501,-0.037462
22.107,56.5501,-0.025377
22.124,56.5501,-0.026586
22.139,56.5501,-0.022961
22.155,56.5501,-0.027794
22.171,56.5501,-0.026586
22.188,56.5501,-0.026586
22.203,56.5501,-0.029003
22.219,56.5501,-0.030211
22.237,56.5501,-0.030211
22.251,56.5501,-0.024169
22.268,56.5501,-0.024169
22.283,56.5501,-0.027794
22.300,56.5501,-0.027794
22.316,56.5501,-0.032628
22.332,56.5501,-0.027794
22.347,56.5501,-0.025377
22.364,56.5501,-0.030211
22.379,56.5501,-0.026586
22.397,56.5501,-0.032628
22.421,56.5501,-0.024169
22.437,56.5501,-0.027794
22.454,56.5501,-0.029003
22.469,56.5501,-0.031420
22.486,56.5501,-0.026586
22.501,56.5501,-0.029003
22.518,56.5501,-0.030211
22.533,56.5501,-0.026586
22.549,56.5501,-0.031420
22.565,56.5501,-0.031420
22.581,56.5501,-0.031420
22.597,56.5501,-0.029003
22.613,56.5501,-0.030211
22.629,56.5501,-0.030211
22.645,56.5501,-0.025377
22.662,56.5501,-0.027794
22.677,56.5501,-0.030211
22.693,56.5501,-0.030211
22.712,56.5501,-0.030211
22.725,56.5501,-0.026586
22.741,56.5501,-0.026586
22.756,56.5501,-0.025377
22.774,56.5501,-0.027794
22.789,56.5501,-0.027794
22.805,56.5501,-0.025377
22.821,56.5501,-0.031420
22.837,56.5501,-0.030211
22.853,56.5501,-0.026586
22.869,56.5501,-0.026586
22.885,56.5501,-0.026586
22.900,56.5501,-0.022961
22.917,56.5501,-0.032628
22.947,56.5501,-0.024169
22.961,56.5501,-0.024169
22.978,56.5501,-0.031420
22.994,56.5501,-0.022961
23.009,56.5501,-0.022961
23.025,56.5501,-0.030211
23.042,56.5501,-0.030211
23.058,56.5501,-0.030211
23.076,56.5501,-0.029003
23.090,56.5501,-0.029003
23.105,56.5501,-0.030211
23.122,56.5501,-0.033837
23.139,56.5501,-0.032628
23.153,56.5501,-0.025377
23.169,56.5501,-0.027794
23.185,56.5501,-0.026586
23.201,56.5501,-0.030211
23.218,56.5501,-0.026586
23.233,56.5501,-0.027794
23.249,56.5501,-0.022961
23.267,56.5501,-0.024169
23.282,56.5501,-0.029003
23.297,56.5501,-0.031420
23.316,56.5501,-0.027794
23.329,56.5501,-0.032628
23.345,56.5501,-0.029003
23.361,56.5501,-0.026586
23.379,56.5501,-0.027794
23.394,56.5501,-0.024169
23.410,56.5501,-0.025377
23.425,56.5501,-0.029003
23.443,56.5501,-0.026586
23.457,56.5501,-0.032628
23.473,56.5501,-0.022961
23.489,56.5501,-0.026586
23.505,56.5501,-0.032628
23.521,56.5501,-0.030211
23.538,56.5501,-0.035045
23.553,56.5501,-0.026586
23.569,56.5501,-0.021752
23.586,56.5501,-0.021752
23.601,56.5501,-0.029003
23.618,56.5501,-0.027794
23.633,56.5501,-0.033837
23.649,56.5501,-0.030211
23.666,56.5501,-0.026586
23.682,56.5501,-0.026586
23.697,56.5501,-0.020544
23.713,56.5501,-0.024169
23.729,56.5501,-0.022961
23.746,56.5501,-0.033837
23.762,56.5501,-0.033837
23.779,56.5501,-0.030211
23.793,56.5501,-0.027794
23.810,56.5501,-0.027794
23.826,56.5501,-0.030211
23.841,56.5501,-0.030211
23.857,56.5501,-0.026586
23.873,56.5501,-0.035045
23.890,56.5501,-0.030211
23.905,56.5501,-0.029003
23.921,56.5501,-0.029003
23.938,56.5501,-0.030211
23.953,56.5501,-0.026586
23.969,56.5501,-0.030211
23.986,56.5501,-0.031420
24.001,56.5501,-0.031420
24.017,56.5501,-0.029003
24.040,56.5501,-0.029003
24.056,56.5501,-0.026586
24.072,56.5501,-0.024169
24.088,56.5501,-0.029003
24.105,56.5501,-0.032628
24.121,56.5501,-0.032628
24.137,56.5501,-0.026586
24.153,56.5501,-0.026586
24.168,56.5501,-0.027794
24.185,56.5501,-0.026586
24.200,56.5501,-0.025377
24.216,56.5501,-0.031420
24.232,56.5501,-0.031420
24.248,56.5501,-0.030211
24.264,56.5501,-0.025377
24.280,56.5501,-0.025377
24.298,56.5501,-0.030211
24.315,56.5501,-0.029003
24.328,56.5501,-0.029003
24.344,56.5501,-0.029003
24.360,56.5501,-0.026586
24.377,56.5501,-0.026586
24.392,56.5501,-0.025377
24.409,56.5501,-0.021752
24.424,56.5501,-0.024169
24.441,56.5501,-0.024169
24.457,56.5501,-0.025377
24.472,56.5501,-0.025377
24.491,56.5501,-0.030211
24.504,56.5501,-0.030211
24.521,56.5501,-0.024169
24.536,56.5501,-0.025377
24.565,56.5501,-0.025377
24.580,56.5501,-0.033837
24.597,56.5501,-0.031420
24.613,56.5501,-0.029003
24.629,56.5501,-0.032628
24.645,56.5501,-0.022961
24.659,56.5501,-0.030211
24.676,56.5501,-0.027794
24.692,56.5501,-0.027794
24.707,56.5501,-0.030211
24.724,56.5501,-0.027794
24.740,56.5501,-0.026586
24.756,56.5501,-0.026586
24.772,56.5501,-0.029003
24.788,56.5501,-0.029003
24.804,56.5501,-0.029003
24.820,56.5501,-0.032628
24.836,56.5501,-0.029003
24.852,56.5501,-0.024169
24.868,56.5501,-0.024169
24.884,56.5501,-0.019335
24.900,56.5501,-0.029003
24.916,56.5501,-0.024169
24.932,56.5501,-0.030211
24.948,56.5501,-0.036253
24.965,56.5501,-0.032628
24.981,56.5501,-0.032628
24.996,56.5501,-0.022961
25.012,56.5501,-0.024169
25.028,56.5501,-0.022961
25.044,56.5501,-0.029003
25.060,56.5501,-0.027794
25.086,56.5501,-0.029003
25.101,56.5501,-0.026586
25.117,56.5501,-0.027794
25.134,56.5501,-0.031420
25.150,56.5501,-0.031420
25.165,56.5501,-0.027794
25.183,56.5501,-0.027794
25.198,56.5501,-0.030211
25.213,56.5501,-0.026586
25.231,56.5501,-0.026586
25.246,56.5501,-0.026586
25.262,56.5501,-0.027794
25.278,56.5501,-0.027794
25.294,56.5501,-0.031420
25.312,56.5501,-0.033837
25.325,56.5501,-0.030211
25.341,56.5501,-0.029003
25.357,56.5501,-0.024169
25.375,56.5501,-0.024169
25.390,56.5501,-0.027794
25.406,56.5501,-0.033837
25.423,56.5501,-0.033837
25.438,56.5501,-0.021752
25.453,56.5501,-0.025377
25.470,56.5501,-0.027794
25.487,56.5501,-0.026586
25.501,56.5501,-0.029003
25.518,56.5501,-0.026586
25.533,56.5501,-0.021752
25.550,56.5501,-0.027794
25.566,56.5501,-0.026586
25.582,56.5501,-0.029003
25.609,56.5501,-0.030211
25.625,56.5501,-0.027794
25.640,56.5501,-0.030211
25.656,56.5501,-0.029003
25.676,56.5501,-0.026586
25.688,56.5501,-0.027794
25.705,56.5501,-0.022961
25.721,56.5501,-0.027794
25.737,56.5501,-0.027794
25.753,56.5501,-0.029003
25.771,56.5501,-0.029003
25.784,56.5501,-0.032628
25.803,56.5501,-0.032628
25.817,56.5501,-0.032628
25.833,56.5501,-0.026586
25.848,56.5501,-0.021752
25.865,56.5501,-0.025377
25.881,56.5501,-0.025377
25.896,56.5501,-0.027794
25.912,56.5042,-0.020544
25.928,56.4016,0.024169
25.945,56.2895,0.000000
25.960,56.1835,0.044713
25.977,56.0659,0.049546
25.993,55.9619,0.070090
26.008,55.8579,0.084591
26.024,55.7485,0.109969
26.041,55.6302,0.123262
26.056,55.5304,0.138971
26.073,55.4183,0.152264
26.088,55.3149,0.175225
26.110,55.1607,0.198185
26.134,55.0017,0.213895
26.150,54.8874,0.221146
26.166,54.7829,0.222354
26.182,54.6734,0.222354
26.200,54.5572,0.222354
26.214,54.4593,0.203019
26.230,54.3499,0.183684
26.246,54.2372,0.181267
26.262,54.1318,0.147431
26.280,54.0061,0.107552
26.294,53.9144,0.024169
26.310,53.8063,0.014501
26.326,53.6935,0.013293
26.342,53.5841,0.006042
26.358,53.4788,0.004834
26.374,53.3665,0.008459
26.390,53.2634,0.008459
26.406,53.1505,0.006042
26.422,53.0458,0.002417
26.438,52.9364,0.008459
26.454,52.8229,0.012084
26.470,52.7204,0.007251
26.486,52.6089,0.006042
26.502,52.5015,0.006042
26.518,52.3941,0.006042
26.534,52.2792,0.000000
26.551,52.1692,0.000000
26.566,52.0665,0.007251
26.583,51.9524,0.004834
26.598,51.8497,0.012084
26.615,51.7349,0.010876
26.630,51.6296,0.013293
26.646,51.5229,0.004834
26.675,51.3210,0.007251
26.692,51.2124,0.006042
26.708,51.1009,0.004834
26.724,50.9948,0.006042
26.740,50.8807,0.007251
26.756,50.7753,0.002417
26.774,50.6503,0.007251
26.787,50.5606,0.004834
26.804,50.5001,-0.001208
26.820,50.5001,-0.078549
26.836,50.5001,0.006042
26.852,50.5001,0.008459
26.868,50.5001,0.008459
26.884,50.5001,0.001208
26.900,50.5001,0.001208
26.917,50.5001,0.009668
26.932,50.5001,0.009668
26.948,50.5001,0.003625
26.965,50.5001,0.000000
26.980,50.5001,0.006042
26.996,50.5001,0.003625
27.013,50.5001,0.003625
27.028,50.5001,0.007251
27.044,50.5001,0.006042
27.060,50.5001,-0.001208
27.078,50.5001,0.001208
27.092,50.5001,-0.002417
27.109,50.5001,-0.002417
27.124,50.5001,0.012084
27.140,50.5001,0.012084
27.156,50.5001,0.007251
27.172,50.5001,0.006042
27.197,50.5001,0.004834
27.213,50.5001,0.002417
27.230,50.5001,0.002417
27.245,50.5001,0.009668
27.261,50.5001,0.010876
27.277,50.5001,0.001208
27.293,50.5001,0.000000
27.309,50.5009,0.000000
27.325,50.5923,-0.084591
27.341,50.6968,-0.084591
27.357,50.8083,-0.002417
27.373,50.9136,0.006042
27.388,51.0204,0.018127
27.405,51.1372,0.001208
27.420,51.2385,0.001208
27.437,51.3534,-0.001208
27.455,51.4811,-0.001208
27.469,51.5688,0.010876
27.485,51.6809,0.008459
27.500,51.7815,0.007251
27.516,51.8915,-0.003625
27.532,51.9996,0.001208
27.548,52.1070,0.002417
27.565,52.2253,0.000000
27.581,52.3306,0.002417
27.596,52.4345,0.002417
27.613,52.5487,0.006042
27.629,52.6534,-0.001208
27.644,52.7601,-0.002417
27.660,52.8695,-0.003625
27.678,52.9878,0.004834
27.693,53.0923,-0.004834
27.709,53.2032,0.002417
27.733,53.3663,-0.001208
27.749,53.4743,0.000000
27.765,53.5817,0.002417
27.781,53.6911,0.002417
27.797,53.8005,-0.004834
27.814,53.9153,-0.003625
27.830,54.0200,-0.008459
27.845,54.1274,-0.008459
27.863,54.2552,-0.006042
27.881,54.3714,-0.007251
27.894,54.4542,0.001208
27.909,54.5609,-0.003625
27.925,54.6731,-0.013293
27.942,54.7845,-0.012084
27.958,54.8898,-0.010876
27.973,54.9952,-0.012084
27.990,55.1114,-0.009668
28.005,55.2134,-0.007251
28.021,55.3207,-0.007251
28.037,55.4294,-0.010876
28.054,55.5409,-0.020544
28.069,55.6509,-0.025377
28.086,55.7632,-0.030211
28.104,55.8827,-0.030211
28.119,55.9860,-0.043504
28.134,56.0900,-0.049546
28.149,56.1906,-0.058005
28.167,56.3115,-0.078549
28.181,56.4081,-0.078549
28.199,56.5001,-0.090634
28.213,56.5001,-0.030211
28.231,56.5001,-0.088217
28.246,56.5001,-0.091842
28.263,56.5001,-0.078549
28.288,56.5001,-0.076132
28.303,56.5001,-0.070090
28.319,56.5001,-0.080966
28.335,56.5001,-0.072507
28.351,56.5001,-0.072507
28.367,56.5001,-0.071298
28.385,56.5001,-0.060422
28.399,56.5001,-0.060422
28.415,56.5001,-0.066465
28.432,56.5001,-0.062839
28.449,56.5001,-0.062839
28.463,56.5001,-0.066465
28.479,56.5001,-0.066465
28.495,56.5001,-0.058005
28.511,56.5001,-0.058005
28.527,56.5001,-0.053172
28.543,56.5001,-0.053172
28.559,56.5001,-0.056797
28.575,56.5001,-0.053172
28.596,56.5001,-0.053172
28.607,56.5001,-0.053172
28.623,56.5001,-0.056797
28.639,56.5001,-0.058005
28.658,56.5001,-0.053172
28.671,56.5001,-0.047129
28.687,56.5001,-0.048338
28.703,56.5001,-0.047129
28.719,56.5001,-0.050755
28.735,56.5001,-0.051963
28.751,56.5001,-0.049546
28.768,56.5001,-0.054380
28.784,56.5001,-0.054380
28.799,56.5001,-0.049546
28.815,56.5001,-0.049546
28.843,56.5001,-0.050755
28.859,56.5001,-0.058005
28.875,56.5001,-0.054380
28.891,56.5001,-0.044713
28.907,56.5001,-0.048338
28.924,56.5001,-0.048338
28.942,56.5001,-0.045921
28.955,56.5001,-0.049546
28.971,56.5001,-0.048338
28.987,56.5001,-0.050755
29.003,56.5001,-0.051963
29.019,56.5001,-0.048338
29.035,56.5001,-0.041087
29.051,56.5001,-0.039879
29.067,56.5001,-0.045921
29.083,56.5001,-0.038670
29.099,56.5001,-0.038670
29.115,56.5001,-0.045921
29.131,56.5001,-0.045921
29.149,56.5001,-0.044713
29.163,56.5001,-0.042296
29.179,56.5001,-0.042296
29.197,56.5001,-0.049546
29.211,56.5001,-0.045921
29.227,56.5001,-0.047129
29.243,56.5001,-0.043504
29.268,56.5001,-0.043504
29.281,56.5001,-0.043504
29.291,56.5001,-0.044713
29.307,56.5001,-0.038670
29.323,56.5001,-0.051963
29.339,56.5001,-0.048338
29.357,56.5001,-0.042296
29.371,56.5001,-0.042296
29.387,56.5001,-0.048338
29.403,56.5001,-0.043504
29.419,56.5001,-0.042296
29.435,56.5001,-0.042296
29.452,56.5001,-0.042296
29.467,56.5001,-0.036253
29.485,56.5001,-0.045921
29.498,56.5001,-0.045921
29.516,56.5001,-0.047129
29.530,56.5001,-0.033837
29.546,56.5001,-0.037462
29.562,56.5001,-0.036253
29.579,56.5001,-0.038670
29.595,56.5001,-0.043504
29.610,56.5001,-0.043504
29.627,56.5001,-0.042296
29.642,56.5001,-0.037462
29.658,56.5001,-0.042296
29.674,56.5001,-0.038670
29.693,56.5001,-0.037462
29.707,56.5001,-0.044713
29.722,56.5001,-0.044713
29.738,56.5001,-0.042296
29.755,56.5001,-0.038670
29.770,56.5001,-0.038670
29.786,56.5001,-0.032628
29.803,56.5001,-0.038670
29.818,56.5001,-0.041087
29.834,56.5001,-0.042296
29.850,56.5001,-0.041087
29.868,56.5001,-0.038670
29.883,56.5001,-0.043504
29.901,56.5001,-0.038670
29.924,56.5001,-0.036253
29.940,56.5001,-0.035045
29.957,56.5001,-0.031420
29.972,56.5001,-0.035045
29.990,56.5001,-0.042296
30.006,56.5001,-0.043504
30.020,56.5001,-0.037462
30.036,56.5001,-0.032628
30.053,56.5001,-0.036253
30.069,56.5001,-0.035045
30.087,56.5001,-0.038670
30.100,56.5001,-0.032628
30.116,56.5001,-0.038670
30.133,56.5001,-0.035045
30.149,56.5001,-0.035045
30.164,56.5001,-0.037462
30.181,56.5001,-0.036253
30.197,56.5001,-0.031420
30.212,56.5001,-0.036253
30.229,56.5001,-0.036253
30.244,56.5001,-0.037462
30.260,56.5001,-0.037462
30.276,56.5001,-0.036253
30.292,56.5001,-0.033837
30.309,56.5001,-0.031420
30.324,56.5001,-0.037462
30.340,56.5001,-0.041087
30.357,56.5001,-0.035045
30.373,56.5001,-0.036253
30.388,56.5001,-0.036253
30.404,56.5001,-0.036253
30.423,56.5001,-0.035045
30.436,56.5001,-0.041087
30.452,56.5001,-0.037462
30.468,56.5001,-0.036253
30.489,56.5001,-0.037462
30.512,56.5001,-0.037462
30.527,56.5001,-0.031420
30.537,56.5001,-0.027794
30.553,56.5001,-0.035045
30.569,56.5001,-0.035045
30.585,56.5001,-0.035045
30.601,56.5001,-0.038670
30.617,56.5001,-0.038670
30.633,56.5001,-0.035045
30.649,56.5001,-0.035045
30.665,56.5001,-0.037462
30.681,56.5001,-0.037462
30.697,56.5001,-0.038670
30.713,56.5001,-0.037462
30.729,56.5001,-0.039879
30.745,56.5001,-0.038670
30.761,56.5001,-0.036253
30.777,56.5001,-0.032628
30.793,56.5001,-0.033837
30.810,56.5001,-0.033837
30.825,56.5001,-0.037462
30.841,56.5001,-0.037462
30.857,56.5001,-0.035045
30.873,56.5001,-0.033837
30.889,56.5001,-0.037462
30.905,56.5001,-0.035045
30.921,56.5001,-0.035045
30.938,56.5001,-0.037462
30.953,56.5001,-0.035045
30.969,56.5001,-0.038670
30.986,56.5001,-0.033837
31.002,56.5001,-0.033837
31.019,56.5001,-0.036253
31.043,56.5001,-0.032628
31.058,56.5001,-0.036253
31.074,56.5001,-0.036253
31.090,56.5001,-0.038670
31.108,56.5001,-0.035045
31.124,56.5001,-0.036253
31.138,56.5001,-0.037462
31.154,56.5001,-0.036253
31.170,56.5001,-0.032628
31.186,56.5001,-0.031420
31.202,56.5001,-0.031420
31.218,56.5001,-0.036253
31.234,56.5001,-0.026586
31.250,56.5001,-0.032628
31.266,56.5001,-0.031420
31.282,56.5001,-0.031420
31.298,56.5001,-0.036253
31.314,56.5001,-0.031420
31.329,56.5001,-0.038670
31.349,56.5001,-0.031420
31.362,56.5001,-0.030211
31.377,56.5001,-0.033837
31.394,56.5001,-0.035045
31.415,56.5001,-0.029003
31.427,56.5001,-0.030211
31.442,56.5001,-0.036253
31.457,56.5001,-0.032628
31.474,56.5001,-0.029003
31.490,56.5001,-0.031420
31.505,56.5001,-0.025377
31.522,56.5001,-0.033837
31.538,56.5001,-0.035045
31.555,56.5001,-0.036253
31.570,56.5001,-0.030211
31.595,56.5001,-0.030211
31.610,56.5001,-0.031420
31.625,56.5001,-0.035045
31.642,56.5001,-0.038670
31.658,56.5001,-0.037462
31.674,56.5001,-0.035045
31.690,56.5001,-0.033837
31.706,56.5001,-0.037462
31.721,56.5001,-0.038670
31.738,56.5001,-0.032628
31.755,56.5001,-0.030211
31.769,56.5001,-0.030211
31.786,56.5001,-0.033837
31.802,56.5001,-0.035045
31.817,56.5001,-0.030211
31.834,56.5001,-0.035045
31.850,56.5001,-0.030211
31.865,56.5001,-0.031420
31.881,56.5001,-0.024169
31.903,56.5001,-0.029003
31.914,56.5001,-0.029003
31.930,56.5001,-0.029003
31.946,56.5001,-0.033837
31.963,56.5001,-0.032628
31.977,56.5001,-0.029003
31.993,56.5001,-0.027794
32.010,56.5001,-0.030211
32.026,56.5001,-0.033837
32.041,56.5001,-0.033837
32.058,56.5001,-0.031420
32.073,56.5001,-0.031420
32.091,56.5001,-0.031420
32.106,56.5001,-0.032628
32.121,56.5001,-0.030211
32.152,56.5001,-0.030211
32.167,56.5001,-0.032628
32.184,56.5001,-0.033837
32.199,56.5001,-0.033837
32.216,56.5001,-0.035045
32.231,56.5001,-0.035045
32.247,56.5001,-0.031420
32.264,56.5001,-0.031420
32.282,56.5001,-0.032628
32.296,56.5001,-0.032628
32.313,56.5001,-0.033837
32.327,56.5001,-0.032628
32.344,56.5001,-0.030211
32.359,56.5001,-0.032628
32.375,56.5001,-0.025377
32.391,56.5001,-0.029003
32.407,56.5001,-0.027794
32.423,56.5001,-0.031420
32.439,56.5001,-0.031420
32.457,56.5001,-0.029003
32.471,56.5001,-0.031420
32.486,56.5001,-0.036253
32.503,56.5001,-0.032628
32.521,56.5001,-0.031420
32.535,56.5001,-0.035045
32.551,56.5001,-0.027794
32.567,56.5001,-0.031420
32.586,56.5001,-0.032628
32.601,56.5001,-0.031420
32.615,56.5001,-0.032628
32.631,56.5001,-0.029003
32.650,56.5001,-0.032628
32.663,56.5001,-0.030211
32.679,56.5001,-0.030211
32.710,56.5001,-0.030211
32.725,56.5001,-0.026586
32.742,56.5001,-0.026586
32.757,56.5001,-0.030211
32.773,56.5001,-0.029003
32.789,56.5001,-0.029003
32.805,56.5001,-0.024169
32.821,56.5001,-0.027794
32.846,56.5001,-0.026586
32.856,56.5001,-0.025377
32.869,56.5001,-0.031420
32.885,56.5001,-0.030211
32.902,56.5001,-0.030211
32.917,56.5001,-0.027794
32.933,56.5001,-0.029003
32.949,56.5001,-0.030211
32.970,56.5001,-0.026586
32.982,56.5001,-0.029003
32.997,56.5001,-0.035045
33.014,56.5001,-0.033837
33.030,56.5001,-0.033837
33.045,56.5001,-0.029003
33.062,56.5001,-0.029003
33.077,56.5001,-0.035045
33.095,56.5001,-0.032628
33.109,56.5001,-0.030211
33.125,56.5001,-0.032628
33.141,56.5001,-0.037462
33.158,56.5001,-0.032628
33.173,56.5001,-0.032628
33.189,56.5001,-0.030211
33.206,56.5001,-0.029003
33.221,56.5001,-0.031420
33.239,56.5001,-0.030211
33.264,56.5001,-0.032628
33.280,56.5001,-0.031420
33.296,56.5001,-0.025377
33.312,56.5001,-0.025377
33.328,56.5001,-0.030211
33.345,56.5001,-0.024169
33.360,56.5001,-0.035045
33.376,56.5001,-0.038670
33.396,56.5001,-0.037462
33.408,56.5001,-0.033837
33.424,56.5001,-0.026586
33.440,56.5001,-0.027794
33.456,56.5001,-0.027794
33.471,56.5001,-0.029003
33.487,56.5001,-0.029003
33.508,56.5001,-0.030211
33.519,56.5001,-0.030211
33.536,56.5001,-0.029003
33.552,56.5001,-0.026586
33.568,56.5001,-0.031420
33.583,56.5001,-0.030211
33.601,56.5001,-0.032628
33.617,56.5001,-0.032628
33.632,56.5001,-0.036253
33.648,56.5001,-0.033837
33.665,56.5001,-0.031420
33.680,56.5001,-0.031420
33.696,56.5001,-0.030211
33.711,56.5001,-0.032628
33.729,56.5001,-0.031420
33.743,56.5001,-0.033837
33.761,56.5001,-0.032628
33.785,56.5001,-0.033837
33.801,56.5001,-0.033837
33.816,56.5001,-0.032628
33.832,56.5001,-0.032628
33.849,56.5001,-0.030211
33.865,56.5001,-0.031420
33.881,56.5001,-0.029003
33.897,56.5001,-0.027794
33.913,56.5001,-0.031420
33.929,56.5001,-0.031420
33.946,56.5001,-0.035045
33.960,56.5001,-0.035045
33.976,56.5001,-0.027794
33.992,56.5001,-0.033837
34.009,56.5001,-0.033837
34.024,56.5001,-0.024169
34.040,56.5001,-0.024169
34.056,56.5001,-0.027794
34.072,56.5001,-0.031420
34.088,56.5001,-0.031420
34.105,56.5001,-0.036253
34.121,56.5001,-0.025377
34.136,56.5001,-0.030211
34.152,56.5001,-0.030211
34.168,56.5001,-0.030211
34.184,56.5001,-0.039879
34.200,56.5001,-0.033837
34.217,56.5001,-0.029003
34.233,56.5001,-0.031420
34.248,56.5001,-0.032628
34.264,56.5001,-0.032628
34.280,56.5001,-0.033837
34.296,56.5001,-0.031420
34.312,56.5001,-0.030211
34.342,56.5001,-0.032628
34.358,56.5001,-0.032628
34.374,56.5001,-0.027794
34.390,56.5001,-0.036253
34.408,56.5001,-0.032628
34.423,56.5001,-0.032628
34.439,56.5001,-0.029003
34.454,56.5001,-0.032628
34.472,56.5001,-0.032628
34.487,56.5001,-0.031420
34.504,56.5001,-0.026586
34.518,56.5001,-0.032628
34.535,56.5001,-0.030211
34.551,56.5001,-0.033837
34.566,56.5001,-0.030211
34.583,56.5001,-0.032628
34.598,56.5001,-0.033837
34.614,56.5001,-0.029003
34.630,56.5001,-0.027794
34.655,56.5001,-0.027794
34.677,56.5001,-0.027794
34.694,56.5001,-0.029003
34.710,56.5001,-0.033837
34.726,56.5001,-0.029003
34.742,56.5001,-0.021752
34.758,56.5001,-0.021752
34.775,56.5001,-0.029003
34.790,56.5001,-0.029003
34.806,56.5001,-0.026586
34.822,56.5001,-0.031420
34.838,56.5001,-0.033837
34.854,56.5001,-0.027794
34.872,56.5001,-0.027794
34.896,56.5001,-0.022961
34.912,56.5001,-0.025377
34.928,56.5001,-0.030211
34.944,56.5001,-0.030211
34.961,56.5001,-0.030211
34.976,56.5001,-0.025377
34.992,56.5001,-0.027794
35.008,56.5001,-0.030211
35.024,56.5001,-0.032628
35.041,56.5001,-0.029003
35.056,56.5001,-0.030211
35.072,56.5001,-0.030211
35.088,56.5001,-0.031420
35.104,56.5001,-0.032628
35.120,56.5001,-0.032628
35.136,56.5001,-0.030211
35.152,56.5001,-0.029003
35.169,56.5001,-0.032628
35.184,56.5001,-0.027794
35.200,56.5001,-0.026586
35.216,56.5001,-0.029003
35.232,56.5001,-0.027794
35.248,56.5001,-0.022961
35.264,56.5001,-0.024169
35.280,56.5001,-0.029003
35.296,56.5001,-0.027794
35.312,56.5001,-0.032628
35.329,56.5001,-0.032628
35.344,56.5001,-0.031420
35.360,56.5001,-0.031420
35.376,56.5001,-0.024169
35.392,56.5001,-0.027794
35.408,56.5001,-0.026586
35.424,56.5001,-0.030211
35.445,56.5001,-0.029003
35.461,56.5001,-0.025377
35.477,56.5001,-0.024169
35.493,56.5001,-0.035045
35.513,56.5001,-0.035045
35.525,56.5001,-0.029003
35.541,56.5001,-0.031420
35.557,56.5001,-0.024169
35.574,56.5001,-0.025377
35.589,56.5001,-0.027794
35.605,56.5001,-0.029003
35.621,56.5001,-0.031420
35.637,56.5001,-0.029003
35.653,56.5001,-0.030211
35.669,56.5001,-0.030211
35.684,56.5001,-0.029003
35.702,56.5001,-0.024169
35.717,56.5001,-0.032628
35.733,56.5001,-0.031420
35.748,56.5001,-0.031420
35.765,56.5001,-0.035045
35.781,56.5001,-0.030211
35.796,56.5001,-0.032628
35.813,56.5001,-0.029003
35.829,56.5001,-0.031420
35.845,56.5001,-0.031420
35.860,56.5001,-0.030211
35.885,56.5001,-0.030211
35.909,56.5001,-0.027794
35.925,56.5001,-0.031420
35.943,56.5001,-0.025377
35.957,56.5001,-0.024169
35.972,56.5001,-0.029003
35.988,56.5001,-0.032628
36.004,56.5001,-0.026586
36.020,56.5001,-0.026586
36.036,56.5001,-0.032628
36.053,56.5001,-0.025377
36.070,56.5001,-0.020544
36.085,56.5001,-0.025377
36.100,56.5001,-0.031420
36.117,56.5001,-0.030211
36.133,56.5001,-0.033837
36.148,56.5001,-0.033837
36.165,56.5001,-0.027794
36.180,56.5001,-0.027794
36.198,56.5001,-0.031420
36.213,56.5001,-0.029003
36.230,56.5001,-0.029003
36.244,56.5001,-0.020544
36.264,56.5001,-0.020544
36.277,56.5001,-0.030211
36.293,56.5001,-0.027794
36.308,56.5001,-0.024169
36.326,56.5001,-0.025377
36.341,56.5001,-0.025377
36.357,56.5001,-0.029003
36.373,56.5001,-0.031420
36.390,56.5001,-0.031420
36.405,56.5001,-0.029003
36.421,56.5001,-0.029003
36.436,56.5001,-0.027794
36.452,56.5001,-0.026586
36.469,56.5001,-0.025377
36.484,56.5001,-0.027794
36.501,56.5001,-0.025377
36.516,56.5001,-0.030211
36.532,56.5001,-0.026586
36.564,56.5001,-0.025377
36.579,56.5001,-0.036253
36.595,56.5001,-0.035045
36.611,56.5001,-0.033837
36.627,56.5001,-0.030211
36.644,56.5001,-0.024169
36.659,56.5001,-0.022961
36.680,56.5001,-0.022961
36.691,56.5001,-0.030211
36.707,56.5001,-0.031420
36.723,56.5001,-0.029003
36.740,56.5001,-0.027794
36.755,56.5001,-0.027794
36.771,56.5001,-0.026586
36.787,56.5001,-0.027794
36.803,56.5001,-0.027794
36.819,56.5001,-0.027794
36.835,56.5001,-0.029003
36.851,56.5001,-0.029003
36.868,56.5001,-0.032628
36.883,56.5001,-0.024169
36.900,56.5001,-0.022961
36.915,56.5001,-0.031420
36.931,56.5001,-0.030211
36.947,56.5001,-0.032628
36.966,56.5001,-0.027794
36.979,56.5001,-0.031420
36.995,56.5001,-0.025377
37.011,56.5001,-0.025377
37.027,56.5001,-0.025377
37.043,56.5001,-0.029003
37.059,56.5001,-0.027794
37.089,56.5001,-0.029003
37.108,56.5001,-0.030211
37.120,56.5001,-0.027794
37.136,56.5001,-0.021752
37.153,56.5001,-0.021752
37.168,56.5001,-0.031420
37.184,56.5001,-0.031420
37.200,56.5001,-0.030211
37.216,56.5001,-0.037462
37.232,56.5001,-0.024169
37.250,56.5001,-0.025377
37.264,56.5001,-0.027794
37.280,56.5001,-0.027794
37.296,56.5001,-0.027794
37.312,56.5001,-0.025377
37.328,56.5001,-0.027794
37.344,56.5001,-0.030211
37.360,56.5001,-0.030211
37.376,56.5001,-0.024169
37.393,56.5001,-0.027794
37.412,56.5001,-0.031420
37.424,56.5001,-0.033837
37.440,56.5001,-0.031420
37.457,56.5001,-0.026586
37.472,56.5001,-0.027794
37.488,56.5001,-0.025377
37.504,56.5001,-0.024169
37.524,56.5001,-0.024169
37.536,56.5001,-0.022961
37.552,56.5001,-0.032628
37.568,56.5001,-0.031420
37.584,56.5001,-0.026586
37.600,56.5001,-0.027794
37.616,56.5001,-0.031420
37.645,56.5001,-0.029003
37.661,56.5001,-0.027794
37.677,56.5001,-0.024169
37.693,56.5001,-0.030211
37.709,56.5001,-0.030211
37.724,56.5001,-0.024169
37.743,56.5001,-0.029003
37.757,56.5001,-0.032628
37.773,56.5001,-0.027794
37.788,56.5001,-0.030211
37.804,56.5001,-0.024169
37.820,56.5001,-0.024169
37.837,56.5001,-0.030211
37.853,56.5001,-0.026586
37.869,56.5001,-0.026586
37.885,56.5001,-0.031420
37.900,56.5001,-0.032628
37.917,56.5001,-0.027794
37.932,56.5001,-0.035045
37.949,56.5001,-0.035045
37.965,56.5001,-0.025377
37.980,56.5001,-0.025377
37.996,56.5001,-0.030211
38.013,56.5001,-0.030211
38.028,56.5001,-0.031420
38.045,56.5001,-0.030211
38.060,56.5001,-0.027794
38.076,56.5001,-0.026586
38.093,56.5001,-0.025377
38.108,56.5001,-0.024169
38.124,56.5001,-0.022961
38.141,56.5001,-0.032628
38.157,56.5001,-0.035045
38.172,56.5001,-0.027794
38.199,56.5001,-0.026586
38.216,56.5001,-0.027794
38.231,56.5001,-0.030211
38.247,56.5001,-0.026586
38.265,56.5001,-0.031420
38.279,56.5001,-0.031420
38.296,56.5001,-0.030211
38.311,56.5001,-0.030211
38.328,56.5001,-0.030211
38.344,56.5001,-0.025377
38.360,56.5001,-0.024169
38.375,56.5001,-0.035045
38.391,56.5001,-0.035045
38.408,56.5001,-0.033837
38.424,56.5001,-0.029003
38.439,56.5001,-0.027794
38.455,56.5001,-0.025377
38.471,56.5001,-0.025377
38.487,56.5001,-0.032628
38.503,56.5001,-0.025377
38.520,56.5001,-0.025377
38.535,56.5001,-0.026586
38.551,56.5001,-0.022961
38.577,56.5001,-0.022961
38.597,56.5001,-0.029003
38.616,56.5001,-0.030211
38.631,56.5001,-0.030211
38.648,56.5001,-0.029003
38.663,56.5001,-0.022961
38.679,56.5001,-0.022961
38.695,56.5001,-0.025377
38.723,56.5001,-0.029003
38.740,56.5001,-0.026586
38.755,56.5001,-0.027794
38.772,56.5001,-0.027794
38.787,56.5001,-0.021752
38.803,56.5001,-0.024169
38.820,56.5001,-0.024169
38.837,56.5001,-0.031420
38.852,56.5001,-0.035045
38.867,56.5001,-0.032628
38.884,56.5001,-0.029003
38.899,56.5001,-0.029003
38.915,56.5001,-0.030211
38.933,56.5001,-0.030211
38.947,56.5001,-0.026586
38.963,56.5001,-0.027794
38.979,56.5001,-0.027794
38.995,56.5001,-0.037462
39.011,56.5001,-0.037462
39.027,56.5001,-0.027794
39.043,56.5001,-0.020544
39.066,56.5001,-0.026586
39.076,56.5001,-0.032628
39.092,56.5001,-0.032628
39.108,56.5001,-0.030211
39.124,56.5001,-0.024169
39.139,56.5001,-0.022961
39.155,56.5001,-0.024169
39.171,56.5001,-0.024169
39.190,56.5001,-0.026586
39.203,56.5001,-0.031420
39.220,56.5001,-0.029003
39.235,56.5001,-0.026586
39.258,56.5001,-0.026586
39.275,56.5001,-0.027794
39.291,56.5001,-0.027794
39.307,56.5001,-0.026586
39.323,56.5001,-0.027794
39.339,56.5001,-0.027794
39.355,56.5001,-0.026586
39.371,56.5001,-0.029003
39.392,56.5001,-0.029003
39.403,56.5001,-0.026586
39.419,56.5001,-0.029003
39.435,56.5001,-0.027794
39.454,56.5001,-0.027794
39.467,56.5001,-0.026586
39.483,56.5001,-0.027794
39.499,56.5001,-0.018127
39.515,56.5001,-0.026586
39.531,56.5001,-0.026586
39.548,56.5001,-0.026586
39.563,56.5001,-0.031420
39.579,56.5001,-0.037462
39.595,56.5001,-0.032628
39.612,56.5001,-0.029003
39.627,56.5001,-0.026586
39.644,56.5001,-0.025377
39.659,56.5001,-0.024169
39.675,56.5001,-0.026586
39.691,56.5001,-0.026586
39.707,56.5001,-0.032628
39.723,56.5001,-0.025377
39.739,56.5001,-0.030211
39.758,56.5001,-0.021752
39.786,56.5001,-0.022961
39.801,56.5001,-0.025377
39.818,56.5001,-0.026586
39.834,56.5001,-0.029003
39.850,56.5001,-0.027794
39.866,56.5001,-0.026586
39.882,56.5001,-0.027794
39.899,56.5001,-0.030211
39.913,56.5001,-0.021752
39.930,56.5001,-0.027794
39.946,56.5001,-0.027794
39.962,56.5001,-0.027794
39.979,56.5001,-0.026586
39.995,56.5001,-0.027794
40.010,56.5001,-0.027794
40.026,56.5001,-0.026586
40.043,56.5001,-0.026586
40.057,56.5001,-0.022961
40.073,56.5001,-0.031420
40.089,56.5001,-0.031420
40.105,56.5001,-0.027794
40.121,56.5001,-0.026586
40.138,56.5001,-0.026586
40.153,56.5001,-0.024169
40.169,56.5001,-0.022961
40.185,56.5001,-0.026586
40.202,56.5001,-0.027794
40.218,56.5001,-0.024169
40.233,56.5001,-0.022961
40.249,56.5001,-0.029003
40.266,56.5001,-0.029003
40.281,56.5001,-0.033837
40.297,56.5001,-0.026586
40.313,56.5001,-0.022961
40.335,56.5001,-0.022961
40.351,56.5001,-0.022961
40.368,56.5001,-0.026586
40.384,56.5001,-0.025377
40.399,56.5001,-0.025377
40.415,56.5001,-0.026586
40.432,56.5001,-0.027794
40.447,56.5001,-0.025377
40.464,56.5001,-0.025377
40.480,56.5001,-0.025377
40.495,56.5001,-0.022961
40.511,56.5001,-0.030211
40.528,56.5001,-0.031420
40.543,56.5001,-0.026586
40.560,56.5001,-0.026586
40.575,56.5001,-0.029003
40.592,56.5001,-0.029003
40.607,56.5001,-0.026586
40.624,56.5001,-0.031420
40.639,56.4847,-0.026586
40.655,56.3808,0.051963
40.671,56.2681,-0.006042
40.688,56.1599,0.039879
40.704,56.0499,0.055589
40.719,55.9466,0.079758
40.736,55.8318,0.070090
40.751,55.7298,0.097884
40.767,55.6210,0.116011
40.783,55.5076,0.138971
40.800,55.4002,0.148639
40.815,55.2949,0.175225
40.832,55.1732,0.187309
40.848,55.0753,0.210270
40.863,54.9673,0.241690
40.894,54.7552,0.244106
40.911,54.6417,0.244106
40.925,54.5474,0.264650
40.941,54.4331,0.251357
40.959,54.3163,0.229605
40.973,54.2212,0.205436
40.989,54.1124,0.155890
41.005,54.0050,0.087008
41.025,53.8603,0.087008
41.037,53.7862,0.013293
41.053,53.6741,0.010876
41.069,53.5654,0.010876
41.085,53.4552,0.009668
41.101,53.3493,0.006042
41.117,53.2433,0.007251
41.133,53.1345,0.010876
41.150,53.0183,0.010876
41.166,52.9075,0.000000
41.183,52.7968,0.000000
41.197,52.7003,0.004834
41.214,52.5786,0.013293
41.229,52.4780,0.013293
41.245,52.3747,0.004834
41.262,52.2593,0.004834
41.279,52.1328,0.006042
41.294,52.0425,0.006042
41.309,51.9384,0.006042
41.325,51.8270,0.002417
41.341,51.7224,0.002417
41.357,51.6081,0.009668
41.373,51.5001,0.007251
41.396,51.3417,0.006042
41.421,51.1759,0.006042
41.436,51.0686,0.006042
41.453,50.9578,0.003625
41.469,50.8525,0.003625
41.485,50.7451,0.000000
41.501,50.6370,-0.001208
41.516,50.5331,0.002417
41.532,50.4500,0.003625
41.548,50.4500,-0.041087
41.564,50.4500,0.012084
41.580,50.4500,-0.001208
41.596,50.4500,0.001208
41.614,50.4500,-0.003625
41.628,50.4500,0.009668
41.645,50.4500,0.003625
41.660,50.4500,0.010876
41.676,50.4500,0.007251
41.692,50.4500,0.001208
41.708,50.4500,0.001208
41.724,50.4500,0.001208
41.740,50.4500,0.002417
41.756,50.4500,0.008459
41.772,50.4500,0.008459
41.788,50.4500,0.003625
41.804,50.4500,0.000000
41.820,50.4500,0.000000
41.836,50.4500,0.001208
41.852,50.4500,0.000000
41.867,50.4500,0.001208
41.885,50.4500,0.000000
41.900,50.4500,0.007251
41.916,50.4500,0.004834
41.948,50.4500,0.004834
41.963,50.4945,-0.001208
41.979,50.6039,-0.030211
41.994,50.7066,0.002417
42.011,50.8242,0.002417
42.027,50.9287,0.001208
42.043,51.0369,0.003625
42.058,51.1414,-0.001208
42.075,51.2570,0.003625
42.091,51.3617,0.003625
42.108,51.4820,0.000000
42.123,51.5812,-0.007251
42.139,51.6899,0.003625
42.154,51.7939,0.000000
42.170,51.9026,0.002417
42.188,52.0242,0.000000
42.203,52.1228,0.002417
42.218,52.2315,0.002417
42.234,52.3424,0.006042
42.250,52.4483,0.002417
42.267,52.5570,0.006042
42.283,52.6644,0.001208
42.300,52.7820,-0.007251
42.315,52.8867,0.004834
42.331,52.9953,0.007251
42.346,53.0973,0.006042
42.362,53.2108,-0.002417
42.379,53.3182,0.002417
42.396,53.4377,0.000000
42.411,53.5432,-0.001208
42.427,53.6504,-0.004834
42.444,53.7640,0.000000
42.472,53.9570,0.003625
42.488,54.0576,-0.003625
42.503,54.1649,-0.007251
42.519,54.2736,-0.007251
42.536,54.3920,-0.003625
42.551,54.4912,-0.001208
42.567,54.6006,-0.004834
42.584,54.7119,-0.009668
42.600,54.8234,-0.008459
42.616,54.9308,-0.010876
42.632,55.0430,-0.007251
42.647,55.1469,-0.006042
42.668,55.2944,-0.014501
42.679,55.3631,-0.013293
42.696,55.4725,-0.021752
42.711,55.5812,-0.018127
42.728,55.6906,-0.024169
42.743,55.7953,-0.025377
42.759,55.9088,-0.035045
42.775,56.0154,-0.044713
42.793,56.1364,-0.044713
42.807,56.2315,-0.068882
42.826,56.3572,-0.093050
42.839,56.4422,-0.099093
42.857,56.4500,-0.048338
42.872,56.4500,-0.102718
42.888,56.4500,-0.088217
42.904,56.4500,-0.084591
42.920,56.4500,-0.073715
42.936,56.4500,-0.079758
42.951,56.4500,-0.076132
42.968,56.4500,-0.080966
42.985,56.4500,-0.068882
42.999,56.4500,-0.067673
43.029,56.4500,-0.076132
43.044,56.4500,-0.067673
43.060,56.4500,-0.067673
43.076,56.4500,-0.070090
43.093,56.4500,-0.070090
43.108,56.4500,-0.060422
43.125,56.4500,-0.066465
43.140,56.4500,-0.059214
43.157,56.4500,-0.055589
43.172,56.4500,-0.055589
43.189,56.4500,-0.059214
43.204,56.4500,-0.053172
43.224,56.4500,-0.056797
43.237,56.4500,-0.065256
43.253,56.4500,-0.051963
43.268,56.4500,-0.051963
43.284,56.4500,-0.050755
43.301,56.4500,-0.050755
43.316,56.4500,-0.056797
43.333,56.4500,-0.048338
43.348,56.4500,-0.048338
43.364,56.4500,-0.049546
43.380,56.4500,-0.054380
43.397,56.4500,-0.051963
43.412,56.4500,-0.049546
43.430,56.4500,-0.049546
43.444,56.4500,-0.049546
43.460,56.4500,-0.049546
43.477,56.4500,-0.053172
43.492,56.4500,-0.051963
43.508,56.4500,-0.049546
43.527,56.4500,-0.047129
43.540,56.4500,-0.047129
43.556,56.4500,-0.050755
43.572,56.4500,-0.045921
43.596,56.4500,-0.047129
43.613,56.4500,-0.050755
43.627,56.4500,-0.043504
43.644,56.4500,-0.044713
43.659,56.4500,-0.041087
43.675,56.4500,-0.039879
43.691,56.4500,-0.039879
43.707,56.4500,-0.044713
43.728,56.4500,-0.045921
43.740,56.4500,-0.045921
43.755,56.4500,-0.044713
43.771,56.4500,-0.043504
43.787,56.4500,-0.044713
43.803,56.4500,-0.042296
43.819,56.4500,-0.037462
43.835,56.4500,-0.045921
43.851,56.4500,-0.043504
43.867,56.4500,-0.050755
43.883,56.4500,-0.048338
43.899,56.4500,-0.050755
43.915,56.4500,-0.038670
43.931,56.4500,-0.038670
43.947,56.4500,-0.048338
43.963,56.4500,-0.038670
43.979,56.4500,-0.038670
43.995,56.4500,-0.045921
