Elapsed Time (s),Position (mm),Force (N)
-0.018,51.6501,-0.053172
0.000,51.6501,-0.053172
0.015,51.6501,-0.050755
0.031,51.6501,-0.051963
0.047,51.6501,-0.048338
0.063,51.6501,-0.056797
0.079,51.6501,-0.049546
0.094,51.6501,-0.049546
0.111,51.6501,-0.041087
0.127,51.6501,-0.041087
0.142,51.6501,-0.049546
0.158,51.6501,-0.045921
0.175,51.6501,-0.045921
0.193,51.6501,-0.048338
0.206,51.6501,-0.050755
0.223,51.6501,-0.049546
0.239,51.6501,-0.041087
0.254,51.6501,-0.045921
0.271,51.6501,-0.043504
0.286,51.6501,-0.045921
0.303,51.6501,-0.047129
0.319,51.6501,-0.041087
0.336,51.6501,-0.038670
0.351,51.6501,-0.045921
0.367,51.6501,-0.044713
0.383,51.6501,-0.039879
0.398,51.6501,-0.045921
0.415,51.6501,-0.045921
0.430,51.6501,-0.047129
0.447,51.6501,-0.044713
0.464,51.6501,-0.043504
0.488,51.6501,-0.041087
0.504,51.6501,-0.037462
0.520,51.6501,-0.039879
0.536,51.6501,-0.045921
0.553,51.6501,-0.045921
0.568,51.6501,-0.037462
0.587,51.6501,-0.037462
0.600,51.6501,-0.041087
0.617,51.6501,-0.039879
0.633,51.6501,-0.039879
0.649,51.6501,-0.035045
0.665,51.6501,-0.035045
0.681,51.6501,-0.044713
0.697,51.6501,-0.044713
0.712,51.6501,-0.041087
0.728,51.6501,-0.039879
0.744,51.6501,-0.032628
0.760,51.6501,-0.037462
0.776,51.6501,-0.038670
0.793,51.6501,-0.039879
0.808,51.6501,-0.037462
0.824,51.6501,-0.042296
0.840,51.6501,-0.036253
0.857,51.6501,-0.036253
0.873,51.6501,-0.039879
0.888,51.6501,-0.042296
0.904,51.6501,-0.045921
0.921,51.6501,-0.039879
0.936,51.6501,-0.038670
0.953,51.6501,-0.038670
0.969,51.6501,-0.038670
0.985,51.6501,-0.037462
1.000,51.6501,-0.033837
1.018,51.6501,-0.036253
1.042,51.6501,-0.037462
1.058,51.6501,-0.038670
1.074,51.6501,-0.032628
1.090,51.6501,-0.035045
1.108,51.6501,-0.037462
1.123,51.6501,-0.035045
1.139,51.6501,-0.036253
1.154,51.6501,-0.036253
1.170,51.6501,-0.039879
1.186,51.6501,-0.035045
1.202,51.6501,-0.036253
1.218,51.6501,-0.037462
1.234,51.6501,-0.036253
1.250,51.6501,-0.031420
1.266,51.6501,-0.032628
1.282,51.6501,-0.038670
1.298,51.6501,-0.036253
1.314,51.6501,-0.036253
1.330,51.6501,-0.038670
1.347,51.6501,-0.038670
1.362,51.6501,-0.035045
1.378,51.6501,-0.036253
1.394,51.6501,-0.035045
1.410,51.6501,-0.032628
1.426,51.6501,-0.035045
1.442,51.6501,-0.038670
1.458,51.6501,-0.032628
1.476,51.6501,-0.032628
1.490,51.6501,-0.039879
1.506,51.6501,-0.032628
1.522,51.6501,-0.032628
1.538,51.6501,-0.036253
1.554,51.6501,-0.039879
1.570,51.6501,-0.037462
1.596,51.6501,-0.036253
1.612,51.6501,-0.035045
1.628,51.6501,-0.030211
1.644,51.6501,-0.033837
1.660,51.6501,-0.030211
1.676,51.6501,-0.037462
1.692,51.6501,-0.033837
1.708,51.6501,-0.031420
1.724,51.6501,-0.039879
1.740,51.6501,-0.031420
1.757,51.6501,-0.031420
1.772,51.6501,-0.035045
1.788,51.6501,-0.035045
1.804,51.6501,-0.033837
1.821,51.6501,-0.031420
1.837,51.6501,-0.031420
1.852,51.6501,-0.035045
1.869,51.6501,-0.035045
1.884,51.6501,-0.035045
1.901,51.6501,-0.036253
1.916,51.6501,-0.030211
1.932,51.6501,-0.026586
1.949,51.6501,-0.037462
1.964,51.6501,-0.042296
1.980,51.6501,-0.029003
1.996,51.6501,-0.036253
2.012,51.6501,-0.033837
2.028,51.6501,-0.032628
2.044,51.6501,-0.031420
2.060,51.6501,-0.031420
2.076,51.6501,-0.031420
2.092,51.6501,-0.027794
2.107,51.6501,-0.035045
2.123,51.6501,-0.035045
2.140,51.6501,-0.030211
2.156,51.6501,-0.032628
2.172,51.6501,-0.038670
2.188,51.6501,-0.033837
2.204,51.6501,-0.032628
2.221,51.6501,-0.027794
2.235,51.6501,-0.037462
2.252,51.6501,-0.037462
2.268,51.6501,-0.032628
2.284,51.6501,-0.032628
2.299,51.6501,-0.033837
2.316,51.6501,-0.031420
2.332,51.6501,-0.029003
2.351,51.6501,-0.031420
2.364,51.6501,-0.031420
2.380,51.6501,-0.031420
2.396,51.6501,-0.035045
2.413,51.6501,-0.030211
2.428,51.6501,-0.031420
2.444,51.6501,-0.036253
2.460,51.6501,-0.027794
2.475,51.6501,-0.027794
2.492,51.6501,-0.033837
2.508,51.6501,-0.033837
2.523,51.6501,-0.035045
2.539,51.6501,-0.027794
2.557,51.6501,-0.027794
2.571,51.6501,-0.031420
2.587,51.6501,-0.031420
2.603,51.6501,-0.036253
2.624,51.6501,-0.032628
2.635,51.6501,-0.031420
2.651,51.6501,-0.032628
2.668,51.6501,-0.033837
2.690,51.6501,-0.029003
2.705,51.6501,-0.031420
2.721,51.6501,-0.036253
2.737,51.6501,-0.033837
2.753,51.6501,-0.033837
2.770,51.6501,-0.031420
2.785,51.6501,-0.032628
2.801,51.6501,-0.025377
2.823,51.6501,-0.025377
2.834,51.6501,-0.031420
2.850,51.6501,-0.027794
2.865,51.6501,-0.027794
2.882,51.6501,-0.027794
2.897,51.6501,-0.029003
2.914,51.6501,-0.030211
2.929,51.6501,-0.025377
2.946,51.6501,-0.025377
2.962,51.6501,-0.036253
2.978,51.6501,-0.032628
2.993,51.6501,-0.033837
3.009,51.6501,-0.029003
3.025,51.6501,-0.027794
3.041,51.6501,-0.025377
3.057,51.6501,-0.030211
3.074,51.6501,-0.030211
3.090,51.6501,-0.032628
3.106,51.6501,-0.032628
3.121,51.6501,-0.039879
3.138,51.6501,-0.029003
3.154,51.6501,-0.029003
3.169,51.6501,-0.024169
3.185,51.6501,-0.026586
3.211,51.6501,-0.035045
3.227,51.6501,-0.029003
3.243,51.6501,-0.032628
3.260,51.6501,-0.031420
3.276,51.6501,-0.032628
3.291,51.6501,-0.031420
3.307,51.6501,-0.033837
3.323,51.6501,-0.027794
3.340,51.6501,-0.026586
3.355,51.6501,-0.029003
3.371,51.6501,-0.029003
3.388,51.6501,-0.026586
3.404,51.6501,-0.026586
3.419,51.6501,-0.032628
3.436,51.6501,-0.032628
3.452,51.6501,-0.027794
3.467,51.6501,-0.032628
3.483,51.6501,-0.031420
3.499,51.6501,-0.029003
3.515,51.6501,-0.030211
3.531,51.6501,-0.025377
3.548,51.6501,-0.026586
3.563,51.6501,-0.032628
3.579,51.6501,-0.026586
3.595,51.6501,-0.026586
3.613,51.6501,-0.032628
3.627,51.6501,-0.029003
3.643,51.6501,-0.030211
3.659,51.6501,-0.027794
3.675,51.6501,-0.032628
3.691,51.6501,-0.032628
3.707,51.6501,-0.036253
3.736,51.6501,-0.030211
3.752,51.6501,-0.030211
3.768,51.6501,-0.030211
3.784,51.6501,-0.036253
3.801,51.6501,-0.029003
3.816,51.6501,-0.026586
3.832,51.6501,-0.027794
3.848,51.6501,-0.030211
3.864,51.6501,-0.030211
3.880,51.6501,-0.029003
3.897,51.6501,-0.029003
3.912,51.6501,-0.032628
3.928,51.6501,-0.029003
3.944,51.6501,-0.031420
3.960,51.6501,-0.024169
3.977,51.6501,-0.024169
3.991,51.6501,-0.032628
4.008,51.6501,-0.029003
4.025,51.6501,-0.026586
4.040,51.6501,-0.031420
4.056,51.6501,-0.033837
4.072,51.6501,-0.036253
4.088,51.6501,-0.036253
4.106,51.6501,-0.032628
4.123,51.6501,-0.031420
4.136,51.6501,-0.026586
4.152,51.6501,-0.029003
4.169,51.6501,-0.032628
4.184,51.6501,-0.035045
4.200,51.6501,-0.036253
4.216,51.6501,-0.029003
4.233,51.6501,-0.031420
4.247,51.6501,-0.027794
4.264,51.6501,-0.026586
4.280,51.6501,-0.030211
4.296,51.6501,-0.032628
4.312,51.6501,-0.030211
4.328,51.6501,-0.021752
4.344,51.6501,-0.021752
4.360,51.6501,-0.029003
4.377,51.6501,-0.029003
4.392,51.6501,-0.030211
4.408,51.6501,-0.032628
4.424,51.6501,-0.031420
4.440,51.6501,-0.027794
4.456,51.6501,-0.030211
4.472,51.6501,-0.029003
4.488,51.6501,-0.032628
4.504,51.6501,-0.026586
4.520,51.6501,-0.030211
4.536,51.6501,-0.031420
4.552,51.6501,-0.032628
4.568,51.6501,-0.030211
4.584,51.6501,-0.030211
4.603,51.6501,-0.029003
4.616,51.6501,-0.022961
4.632,51.6501,-0.022961
4.647,51.6501,-0.031420
4.667,51.6501,-0.031420
4.680,51.6501,-0.025377
4.696,51.6501,-0.024169
4.711,51.6501,-0.026586
4.727,51.6501,-0.029003
4.744,51.6501,-0.031420
4.761,51.6501,-0.027794
4.776,51.6501,-0.033837
4.792,51.6501,-0.027794
4.808,51.6501,-0.031420
4.838,51.6501,-0.031420
4.852,51.6501,-0.031420
4.869,51.6501,-0.031420
4.884,51.6501,-0.027794
4.902,51.6501,-0.029003
4.917,51.6501,-0.029003
4.932,51.6501,-0.022961
4.948,51.6501,-0.026586
4.966,51.6501,-0.025377
4.980,51.6501,-0.030211
4.996,51.6501,-0.027794
5.012,51.6501,-0.030211
5.029,51.6501,-0.031420
5.045,51.6501,-0.022961
5.060,51.6501,-0.025377
5.076,51.6501,-0.026586
5.094,51.6501,-0.025377
5.108,51.6501,-0.024169
5.124,51.6501,-0.029003
5.140,51.6501,-0.029003
5.157,51.6501,-0.026586
5.173,51.6501,-0.030211
5.191,51.6501,-0.021752
5.204,51.6501,-0.026586
5.221,51.6501,-0.024169
5.236,51.6501,-0.031420
5.254,51.6501,-0.029003
5.268,51.6501,-0.030211
5.284,51.6501,-0.031420
5.300,51.6501,-0.027794
5.316,51.6501,-0.024169
5.333,51.6501,-0.024169
5.348,51.6501,-0.025377
5.364,51.6501,-0.025377
5.380,51.6501,-0.029003
5.402,51.6501,-0.022961
5.420,51.6501,-0.025377
5.435,51.6501,-0.027794
5.450,51.6501,-0.025377
5.466,51.6501,-0.026586
5.482,51.6501,-0.029003
5.499,51.6501,-0.032628
5.514,51.6501,-0.035045
5.531,51.6501,-0.024169
5.547,51.6501,-0.024169
5.562,51.6501,-0.026586
5.578,51.6501,-0.027794
5.594,51.6501,-0.027794
5.610,51.6501,-0.032628
5.626,51.6501,-0.029003
5.642,51.6501,-0.027794
5.658,51.6501,-0.026586
5.674,51.6501,-0.027794
5.690,51.6501,-0.030211
5.707,51.6501,-0.024169
5.722,51.6501,-0.029003
5.738,51.6501,-0.027794
5.754,51.6501,-0.027794
5.773,51.6501,-0.026586
5.786,51.6501,-0.026586
5.802,51.6501,-0.026586
5.818,51.6501,-0.029003
5.840,51.6501,-0.029003
5.852,51.6501,-0.032628
5.866,51.6501,-0.030211
5.882,51.6501,-0.029003
5.898,51.6501,-0.030211
5.915,51.6501,-0.021752
5.930,51.6501,-0.024169
5.960,51.6501,-0.027794
5.975,51.6501,-0.027794
5.991,51.6501,-0.024169
6.007,51.6501,-0.031420
6.023,51.6501,-0.031420
6.039,51.6501,-0.027794
6.058,51.6501,-0.026586
6.071,51.6501,-0.030211
6.087,51.6501,-0.025377
6.104,51.6501,-0.025377
6.119,51.6501,-0.027794
6.135,51.6501,-0.032628
6.152,51.6501,-0.026586
6.167,51.6501,-0.021752
6.183,51.6501,-0.022961
6.199,51.6501,-0.025377
6.215,51.6501,-0.025377
6.231,51.6501,-0.025377
6.247,51.6501,-0.026586
6.263,51.6501,-0.020544
6.279,51.6501,-0.029003
6.295,51.6501,-0.029003
6.311,51.6501,-0.027794
6.327,51.6501,-0.029003
6.343,51.6501,-0.029003
6.359,51.6501,-0.029003
6.375,51.6501,-0.024169
6.392,51.6501,-0.027794
6.408,51.6501,-0.026586
6.423,51.6501,-0.026586
6.438,51.6501,-0.032628
6.456,51.6501,-0.031420
6.471,51.6501,-0.026586
6.488,51.6501,-0.029003
6.514,51.6501,-0.029003
6.530,51.6501,-0.027794
6.546,51.6501,-0.031420
6.562,51.6501,-0.035045
6.578,51.6501,-0.033837
6.595,51.6501,-0.030211
6.610,51.6501,-0.025377
6.626,51.6501,-0.030211
6.643,51.6501,-0.030211
6.657,51.6501,-0.030211
6.674,51.6501,-0.030211
6.690,51.6501,-0.026586
6.707,51.6501,-0.021752
6.721,51.6501,-0.020544
6.739,51.6501,-0.025377
6.754,51.6501,-0.021752
6.770,51.6501,-0.026586
6.785,51.6501,-0.022961
6.801,51.6501,-0.027794
6.818,51.6501,-0.029003
6.834,51.6501,-0.029003
6.849,51.6501,-0.024169
6.865,51.6501,-0.024169
6.882,51.6501,-0.029003
6.897,51.6501,-0.033837
6.913,51.6501,-0.031420
6.929,51.6501,-0.025377
6.946,51.6501,-0.026586
6.962,51.6501,-0.026586
6.977,51.6501,-0.029003
6.994,51.6501,-0.031420
7.017,51.6501,-0.030211
7.040,51.6501,-0.032628
7.058,51.6501,-0.026586
7.074,51.6501,-0.029003
7.090,51.6501,-0.024169
7.105,51.6501,-0.019335
7.122,51.6501,-0.031420
7.138,51.6501,-0.029003
7.153,51.6501,-0.031420
7.170,51.6501,-0.030211
7.186,51.6501,-0.030211
7.201,51.6501,-0.029003
7.217,51.6501,-0.022961
7.233,51.6501,-0.022961
7.252,51.6501,-0.026586
7.265,51.6501,-0.026586
7.282,51.6501,-0.030211
7.298,51.6501,-0.026586
7.314,51.6501,-0.026586
7.329,51.6501,-0.030211
7.346,51.6501,-0.024169
7.361,51.6501,-0.024169
7.377,51.6501,-0.025377
7.393,51.6501,-0.025377
7.409,51.6501,-0.022961
7.425,51.6501,-0.022961
7.441,51.6501,-0.022961
7.461,51.6501,-0.027794
7.473,51.6501,-0.027794
7.489,51.6501,-0.027794
7.505,51.6501,-0.027794
7.522,51.6501,-0.030211
7.538,51.6501,-0.024169
7.554,51.6501,-0.026586
7.584,51.6501,-0.026586
7.600,51.6501,-0.026586
7.616,51.6501,-0.029003
7.632,51.6501,-0.027794
7.648,51.6501,-0.027794
7.664,51.6501,-0.026586
7.681,51.6501,-0.027794
7.696,51.6501,-0.027794
7.713,51.6501,-0.027794
7.729,51.6501,-0.024169
7.745,51.6501,-0.027794
7.760,51.6501,-0.031420
7.777,51.6501,-0.025377
7.792,51.6501,-0.025377
7.809,51.6501,-0.020544
7.824,51.6501,-0.020544
7.840,51.6501,-0.025377
7.856,51.6501,-0.030211
7.872,51.6501,-0.030211
7.888,51.6501,-0.025377
7.904,51.6501,-0.025377
7.920,51.6501,-0.022961
7.936,51.6501,-0.029003
7.952,51.6501,-0.029003
7.968,51.6501,-0.026586
7.984,51.6501,-0.030211
8.000,51.6501,-0.026586
8.018,51.6501,-0.027794
8.032,51.6501,-0.024169
8.048,51.6501,-0.021752
8.064,51.6501,-0.021752
8.080,51.6501,-0.026586
8.097,51.6501,-0.027794
8.112,51.6501,-0.029003
8.143,51.6501,-0.025377
8.159,51.6501,-0.021752
8.175,51.6501,-0.026586
8.191,51.6501,-0.029003
8.212,51.6501,-0.030211
8.224,51.6501,-0.024169
8.239,51.6501,-0.025377
8.255,51.6501,-0.025377
8.272,51.6501,-0.032628
8.287,51.6501,-0.031420
8.304,51.6501,-0.031420
8.319,51.6501,-0.027794
8.335,51.6501,-0.027794
8.351,51.6501,-0.025377
8.367,51.6501,-0.025377
8.383,51.6501,-0.027794
8.399,51.6501,-0.020544
8.415,51.6501,-0.025377
8.430,51.6501,-0.024169
8.447,51.6501,-0.030211
8.463,51.6501,-0.030211
8.479,51.6501,-0.022961
8.495,51.6501,-0.022961
8.511,51.6501,-0.026586
8.527,51.6501,-0.022961
8.543,51.6501,-0.024169
8.559,51.6501,-0.030211
8.575,51.6501,-0.029003
8.591,51.6501,-0.021752
8.607,51.6501,-0.025377
8.623,51.6501,-0.025377
8.644,51.6501,-0.025377
8.654,51.6501,-0.025377
8.671,51.6501,-0.026586
8.686,51.6501,-0.031420
8.710,51.6501,-0.027794
8.724,51.6501,-0.029003
8.741,51.6501,-0.025377
8.757,51.6501,-0.021752
8.773,51.6501,-0.021752
8.789,51.6501,-0.019335
8.805,51.6501,-0.019335
8.821,51.6501,-0.024169
8.837,51.6501,-0.026586
8.854,51.6501,-0.024169
8.869,51.6501,-0.022961
8.886,51.6501,-0.024169
8.900,51.6501,-0.026586
8.917,51.6501,-0.029003
8.932,51.6501,-0.027794
8.949,51.6501,-0.027794
8.964,51.6501,-0.024169
8.983,51.6501,-0.026586
8.997,51.6501,-0.019335
9.012,51.6501,-0.029003
9.028,51.6501,-0.024169
9.045,51.6501,-0.024169
9.061,51.6501,-0.030211
9.077,51.6501,-0.025377
9.092,51.6501,-0.022961
9.108,51.6501,-0.033837
9.124,51.6501,-0.026586
9.140,51.6501,-0.025377
9.156,51.6501,-0.027794
9.172,51.6501,-0.027794
9.190,51.6501,-0.025377
9.204,51.6501,-0.025377
9.220,51.6501,-0.025377
9.243,51.6501,-0.021752
9.259,51.6501,-0.022961
9.275,51.6501,-0.025377
9.291,51.6501,-0.029003
9.307,51.6501,-0.031420
9.324,51.6501,-0.029003
9.340,51.6501,-0.029003
9.355,51.6501,-0.025377
9.373,51.6501,-0.021752
9.388,51.6501,-0.022961
9.403,51.6501,-0.029003
9.420,51.6501,-0.026586
9.436,51.6501,-0.022961
9.451,51.6501,-0.026586
9.468,51.6501,-0.022961
9.483,51.6501,-0.020544
9.500,51.6501,-0.029003
9.515,51.6501,-0.025377
9.531,51.6501,-0.021752
9.547,51.6501,-0.026586
9.563,51.6501,-0.026586
9.579,51.6501,-0.027794
9.596,51.6501,-0.025377
9.611,51.6501,-0.016918
9.627,51.6501,-0.027794
9.644,51.6501,-0.033837
9.659,51.6501,-0.030211
9.675,51.6501,-0.030211
9.692,51.6501,-0.024169
9.707,51.6501,-0.024169
9.723,51.6501,-0.030211
9.739,51.6501,-0.027794
9.756,51.6501,-0.021752
9.772,51.6501,-0.022961
9.798,51.6501,-0.025377
9.815,51.6501,-0.026586
9.830,51.6501,-0.024169
9.846,51.6501,-0.025377
9.863,51.6501,-0.025377
9.878,51.6501,-0.030211
9.895,51.6501,-0.030211
9.911,51.6501,-0.024169
9.927,51.6501,-0.024169
9.942,51.6501,-0.025377
9.961,51.6501,-0.026586
9.974,51.6501,-0.026586
9.991,51.6501,-0.029003
10.006,51.6501,-0.027794
10.022,51.6501,-0.027794
10.039,51.6501,-0.025377
10.055,51.6501,-0.025377
10.070,51.6501,-0.029003
10.086,51.6501,-0.027794
10.102,51.6501,-0.029003
10.118,51.6501,-0.030211
10.134,51.6501,-0.027794
10.150,51.6501,-0.031420
10.166,51.6501,-0.027794
10.182,51.6501,-0.026586
10.199,51.6501,-0.024169
10.214,51.6501,-0.021752
10.230,51.6501,-0.029003
10.246,51.6501,-0.026586
10.263,51.6501,-0.029003
10.278,51.6501,-0.026586
10.295,51.6501,-0.027794
10.310,51.6501,-0.024169
10.339,51.6501,-0.027794
10.355,51.6501,-0.025377
10.371,51.6501,-0.024169
10.387,51.6501,-0.031420
10.403,51.6501,-0.027794
10.419,51.6501,-0.021752
10.435,51.6501,-0.026586
10.451,51.6501,-0.027794
10.468,51.6501,-0.029003
10.486,51.6501,-0.029003
10.499,51.6501,-0.029003
10.518,51.6501,-0.030211
10.532,51.6501,-0.026586
10.547,51.6501,-0.026586
10.564,51.6501,-0.020544
10.580,51.6501,-0.020544
10.595,51.6501,-0.025377
10.611,51.6501,-0.029003
10.627,51.6501,-0.019335
10.643,51.6501,-0.025377
10.660,51.6501,-0.026586
10.675,51.6501,-0.021752
10.691,51.6501,-0.026586
10.707,51.6501,-0.027794
10.723,51.6501,-0.024169
10.739,51.6501,-0.022961
10.755,51.6501,-0.025377
10.771,51.6501,-0.022961
10.787,51.6501,-0.027794
10.803,51.6501,-0.027794
10.819,51.6501,-0.032628
10.836,51.6501,-0.020544
10.862,51.6501,-0.024169
10.878,51.6501,-0.022961
10.894,51.6501,-0.022961
10.910,51.6501,-0.025377
10.928,51.6501,-0.025377
10.942,51.6501,-0.025377
10.958,51.6501,-0.025377
10.974,51.6501,-0.025377
10.990,51.6501,-0.024169
11.006,51.6501,-0.024169
11.022,51.6501,-0.027794
11.038,51.6501,-0.030211
11.054,51.6501,-0.030211
11.070,51.6501,-0.032628
11.086,51.6501,-0.025377
11.102,51.6415,-0.020544
11.118,51.4925,-0.020544
11.134,51.3316,0.008459
11.149,51.1795,0.050755
11.166,51.0055,0.050755
11.181,50.8585,0.122053
11.198,50.6926,0.146222
11.213,50.5396,0.163140
11.230,50.3776,0.193352
11.246,50.2186,0.223563
11.263,50.0266,0.246523
11.278,49.8925,0.262233
11.295,49.7286,0.280360
11.309,49.5775,0.275526
11.326,49.4185,0.274318
11.341,49.2585,0.228397
11.358,49.0965,0.183684
11.373,48.9316,0.036253
11.401,48.6596,0.012084
11.417,48.4986,0.002417
11.433,48.3416,0.009668
11.450,48.1765,0.016918
11.466,48.0146,0.009668
11.482,47.8546,0.006042
11.497,47.6985,0.001208
11.514,47.5366,0.007251
11.530,47.3726,0.002417
11.546,47.2156,0.013293
11.564,47.0325,0.013293
11.577,46.8996,0.008459
11.593,46.7396,0.003625
11.610,46.5725,0.002417
11.625,46.4226,0.002417
11.642,46.2506,0.003625
11.657,46.0995,0.009668
11.673,45.9375,0.004834
11.689,45.7825,0.008459
11.705,45.6271,0.007251
11.721,45.6001,-0.108760
11.738,45.6001,0.008459
11.753,45.6001,0.010876
11.771,45.6001,-0.002417
11.786,45.6001,-0.003625
11.801,45.6001,0.002417
11.817,45.6001,0.012084
11.834,45.6001,0.009668
11.849,45.6001,0.006042
11.865,45.6001,0.006042
11.882,45.6001,0.006042
11.897,45.6001,0.007251
11.914,45.6001,-0.002417
11.942,45.6001,0.001208
11.959,45.6001,0.004834
11.974,45.6001,-0.001208
11.990,45.6008,0.007251
12.007,45.7206,-0.119636
12.023,45.8816,-0.119636
12.038,46.0296,-0.004834
12.054,46.1876,-0.014501
12.071,46.3515,0.020544
12.086,46.5095,0.004834
12.102,46.6675,0.003625
12.119,46.8366,0.010876
12.135,46.9946,0.010876
12.153,47.1765,-0.004834
12.167,47.3126,0.000000
12.183,47.4805,0.000000
12.198,47.6286,0.004834
12.215,47.7945,-0.007251
12.230,47.9525,-0.003625
12.246,48.1096,0.000000
12.263,48.2735,-0.004834
12.278,48.4276,-0.003625
12.294,48.5915,-0.002417
12.310,48.7526,-0.004834
12.326,48.9095,-0.006042
12.342,49.0675,-0.009668
12.358,49.2356,-0.003625
12.374,49.3906,-0.003625
12.390,49.5526,-0.006042
12.406,49.7056,-0.007251
12.421,49.8686,-0.007251
12.438,50.0266,-0.004834
12.454,50.1905,-0.007251
12.475,50.4015,-0.010876
12.491,50.5575,-0.022961
12.507,50.7165,-0.030211
12.523,50.8765,-0.039879
12.542,51.0645,-0.037462
12.555,51.2046,-0.053172
12.571,51.3586,-0.062839
12.589,51.5405,-0.099093
12.603,51.6001,-0.047129
12.619,51.6001,-0.103926
12.635,51.6001,-0.103926
12.651,51.6001,-0.080966
12.667,51.6001,-0.072507
12.683,51.6001,-0.080966
12.699,51.6001,-0.068882
12.717,51.6001,-0.068882
12.731,51.6001,-0.072507
12.747,51.6001,-0.070090
12.763,51.6001,-0.061631
12.779,51.6001,-0.067673
12.795,51.6001,-0.060422
12.813,51.6001,-0.065256
12.827,51.6001,-0.056797
12.843,51.6001,-0.056797
12.859,51.6001,-0.055589
12.875,51.6001,-0.055589
12.891,51.6001,-0.051963
12.907,51.6001,-0.054380
12.924,51.6001,-0.054380
12.939,51.6001,-0.058005
12.955,51.6001,-0.053172
12.972,51.6001,-0.056797
12.987,51.6001,-0.055589
13.010,51.6001,-0.054380
13.026,51.6001,-0.049546
13.042,51.6001,-0.054380
13.058,51.6001,-0.047129
13.074,51.6001,-0.045921
13.090,51.6001,-0.048338
13.107,51.6001,-0.044713
13.122,51.6001,-0.047129
13.140,51.6001,-0.047129
13.154,51.6001,-0.050755
13.170,51.6001,-0.051963
13.186,51.6001,-0.049546
13.203,51.6001,-0.047129
13.218,51.6001,-0.049546
13.234,51.6001,-0.044713
13.250,51.6001,-0.043504
13.266,51.6001,-0.043504
13.281,51.6001,-0.048338
13.298,51.6001,-0.047129
13.314,51.6001,-0.047129
13.336,51.6001,-0.048338
13.353,51.6001,-0.041087
13.367,51.6001,-0.041087
13.378,51.6001,-0.049546
13.393,51.6001,-0.044713
13.409,51.6001,-0.039879
13.426,51.6001,-0.042296
13.442,51.6001,-0.043504
13.458,51.6001,-0.038670
13.473,51.6001,-0.038670
13.489,51.6001,-0.041087
13.507,51.6001,-0.041087
13.522,51.6001,-0.035045
13.538,51.6001,-0.043504
13.553,51.6001,-0.045921
13.569,51.6001,-0.045921
13.585,51.6001,-0.043504
13.601,51.6001,-0.037462
13.618,51.6001,-0.038670
13.635,51.6001,-0.044713
13.650,51.6001,-0.035045
13.666,51.6001,-0.035045
13.681,51.6001,-0.038670
13.698,51.6001,-0.041087
13.714,51.6001,-0.043504
13.731,51.6001,-0.041087
13.745,51.6001,-0.037462
13.762,51.6001,-0.039879
13.777,51.6001,-0.041087
13.793,51.6001,-0.041087
13.810,51.6001,-0.036253
13.826,51.6001,-0.036253
13.841,51.6001,-0.038670
13.857,51.6001,-0.036253
13.873,51.6001,-0.036253
13.889,51.6001,-0.036253
13.905,51.6001,-0.037462
13.921,51.6001,-0.039879
13.939,51.6001,-0.031420
13.953,51.6001,-0.037462
13.969,51.6001,-0.042296
13.985,51.6001,-0.036253
14.004,51.6001,-0.036253
14.018,51.6001,-0.037462
14.033,51.6001,-0.037462
14.050,51.6001,-0.036253
14.065,51.6001,-0.032628
14.081,51.6001,-0.031420
14.098,51.6001,-0.033837
14.125,51.6001,-0.033837
14.141,51.6001,-0.031420
14.157,51.6001,-0.036253
14.173,51.6001,-0.036253
14.192,51.6001,-0.037462
14.205,51.6001,-0.037462
14.221,51.6001,-0.038670
14.238,51.6001,-0.037462
14.254,51.6001,-0.037462
14.270,51.6001,-0.035045
14.285,51.6001,-0.038670
14.301,51.6001,-0.035045
14.317,51.6001,-0.030211
14.333,51.6001,-0.030211
14.349,51.6001,-0.036253
14.366,51.6001,-0.036253
14.381,51.6001,-0.042296
14.397,51.6001,-0.042296
14.413,51.6001,-0.039879
14.429,51.6001,-0.033837
14.445,51.6001,-0.031420
14.461,51.6001,-0.032628
14.477,51.6001,-0.035045
14.494,51.6001,-0.035045
14.509,51.6001,-0.042296
14.525,51.6001,-0.041087
14.542,51.6001,-0.037462
14.557,51.6001,-0.037462
14.573,51.6001,-0.037462
14.589,51.6001,-0.038670
14.606,51.6001,-0.036253
14.621,51.6001,-0.032628
14.637,51.6001,-0.033837
14.666,51.6001,-0.033837
14.683,51.6001,-0.029003
14.698,51.6001,-0.027794
14.714,51.6001,-0.032628
14.731,51.6001,-0.033837
14.747,51.6001,-0.033837
14.762,51.6001,-0.036253
14.778,51.6001,-0.036253
14.794,51.6001,-0.032628
14.810,51.6001,-0.025377
14.826,51.6001,-0.030211
14.842,51.6001,-0.030211
14.858,51.6001,-0.032628
14.874,51.6001,-0.035045
14.890,51.6001,-0.033837
14.906,51.6001,-0.036253
14.923,51.6001,-0.030211
14.939,51.6001,-0.033837
14.954,51.6001,-0.033837
14.970,51.6001,-0.041087
14.986,51.6001,-0.041087
15.002,51.6001,-0.030211
15.018,51.6001,-0.029003
15.034,51.6001,-0.032628
15.050,51.6001,-0.037462
15.066,51.6001,-0.031420
15.083,51.6001,-0.031420
15.098,51.6001,-0.036253
15.114,51.6001,-0.032628
15.130,51.6001,-0.031420
15.146,51.6001,-0.032628
15.162,51.6001,-0.025377
15.180,51.6001,-0.035045
15.204,51.6001,-0.038670
15.220,51.6001,-0.033837
15.236,51.6001,-0.033837
15.252,51.6001,-0.038670
15.271,51.6001,-0.031420
15.284,51.6001,-0.025377
15.300,51.6001,-0.024169
15.316,51.6001,-0.031420
15.333,51.6001,-0.031420
15.348,51.6001,-0.035045
15.364,51.6001,-0.033837
15.380,51.6001,-0.030211
15.396,51.6001,-0.026586
15.412,51.6001,-0.026586
15.428,51.6001,-0.033837
15.444,51.6001,-0.033837
15.460,51.6001,-0.030211
15.476,51.6001,-0.030211
15.492,51.6001,-0.036253
15.508,51.6001,-0.031420
15.524,51.6001,-0.031420
15.540,51.6001,-0.025377
15.556,51.6001,-0.025377
15.572,51.6001,-0.031420
15.588,51.6001,-0.032628
15.604,51.6001,-0.031420
15.620,51.6001,-0.024169
15.635,51.6001,-0.026586
15.652,51.6001,-0.032628
15.668,51.6001,-0.030211
15.684,51.6001,-0.031420
15.700,51.6001,-0.032628
15.717,51.6001,-0.037462
15.731,51.6001,-0.030211
15.761,51.6001,-0.025377
15.776,51.6001,-0.026586
15.793,51.6001,-0.031420
15.809,51.6001,-0.032628
15.829,51.6001,-0.035045
15.841,51.6001,-0.031420
15.856,51.6001,-0.041087
15.872,51.6001,-0.037462
15.890,51.6001,-0.031420
15.905,51.6001,-0.030211
15.922,51.6001,-0.033837
15.936,51.6001,-0.036253
15.952,51.6001,-0.031420
15.968,51.6001,-0.027794
15.984,51.6001,-0.027794
16.001,51.6001,-0.029003
16.017,51.6001,-0.032628
16.032,51.6001,-0.030211
16.048,51.6001,-0.037462
16.065,51.6001,-0.035045
16.081,51.6001,-0.029003
16.096,51.6001,-0.031420
16.112,51.6001,-0.031420
16.133,51.6001,-0.024169
16.145,51.6001,-0.029003
16.161,51.6001,-0.029003
16.176,51.6001,-0.032628
16.192,51.6001,-0.031420
16.209,51.6001,-0.033837
16.224,51.6001,-0.033837
16.240,51.6001,-0.020544
16.256,51.6001,-0.027794
16.272,51.6001,-0.025377
16.288,51.6001,-0.033837
16.310,51.6001,-0.035045
16.326,51.6001,-0.037462
16.342,51.6001,-0.030211
16.358,51.6001,-0.026586
16.374,51.6001,-0.027794
16.390,51.6001,-0.031420
16.406,51.6001,-0.032628
16.422,51.6001,-0.035045
16.439,51.6001,-0.025377
16.456,51.6001,-0.029003
16.470,51.6001,-0.021752
16.487,51.6001,-0.024169
16.502,51.6001,-0.030211
16.519,51.6001,-0.035045
16.534,51.6001,-0.035045
16.550,51.6001,-0.029003
16.566,51.6001,-0.029003
16.582,51.6001,-0.032628
16.598,51.6001,-0.031420
16.615,51.6001,-0.031420
16.630,51.6001,-0.035045
16.647,51.6001,-0.029003
16.662,51.6001,-0.029003
16.678,51.6001,-0.031420
16.695,51.6001,-0.024169
16.712,51.6001,-0.021752
16.726,51.6001,-0.026586
16.742,51.6001,-0.026586
16.758,51.6001,-0.024169
16.774,51.6001,-0.031420
16.790,51.6001,-0.029003
16.806,51.6001,-0.031420
16.822,51.6001,-0.030211
16.838,51.6001,-0.032628
16.861,51.6001,-0.030211
16.877,51.6001,-0.031420
16.892,51.6001,-0.032628
16.908,51.6001,-0.037462
16.925,51.6001,-0.029003
16.940,51.6001,-0.031420
16.958,51.6001,-0.029003
16.972,51.6001,-0.029003
16.989,51.6001,-0.029003
17.004,51.6001,-0.029003
17.020,51.6001,-0.030211
17.036,51.6001,-0.030211
17.052,51.6001,-0.025377
17.068,51.6001,-0.025377
17.084,51.6001,-0.020544
17.100,51.6001,-0.027794
17.116,51.6001,-0.027794
17.132,51.6001,-0.033837
17.150,51.6001,-0.026586
17.164,51.6001,-0.030211
17.180,51.6001,-0.021752
17.196,51.6001,-0.025377
17.212,51.6001,-0.029003
17.228,51.6001,-0.026586
17.244,51.6001,-0.026586
17.260,51.6001,-0.033837
17.277,51.6001,-0.026586
17.297,51.6001,-0.025377
17.308,51.6001,-0.022961
17.324,51.6001,-0.025377
17.340,51.6001,-0.024169
17.357,51.6001,-0.026586
17.372,51.6001,-0.033837
17.401,51.6001,-0.029003
17.417,51.6001,-0.027794
17.433,51.6001,-0.022961
17.449,51.6001,-0.026586
17.465,51.6001,-0.026586
17.481,51.6001,-0.026586
17.499,51.6001,-0.031420
17.513,51.6001,-0.029003
17.530,51.6001,-0.029003
17.546,51.6001,-0.022961
17.561,51.6001,-0.030211
17.577,51.6001,-0.029003
17.593,51.6001,-0.029003
17.609,51.6001,-0.026586
17.625,51.6001,-0.029003
17.641,51.6001,-0.026586
17.657,51.6001,-0.022961
17.673,51.6001,-0.022961
17.688,51.6001,-0.027794
17.706,51.6001,-0.022961
17.722,51.6001,-0.027794
17.737,51.6001,-0.031420
17.753,51.6001,-0.030211
17.769,51.6001,-0.031420
17.785,51.6001,-0.030211
17.800,51.6001,-0.026586
17.817,51.6001,-0.026586
17.833,51.6001,-0.030211
17.848,51.6001,-0.032628
17.865,51.6001,-0.030211
17.881,51.6001,-0.030211
17.898,51.6001,-0.027794
17.913,51.6001,-0.026586
17.930,51.6001,-0.024169
17.954,51.6001,-0.024169
17.971,51.6001,-0.029003
17.987,51.6001,-0.026586
18.002,51.6001,-0.026586
18.021,51.6001,-0.026586
18.035,51.6001,-0.026586
18.050,51.6001,-0.026586
18.067,51.6001,-0.025377
18.083,51.6001,-0.025377
18.099,51.6001,-0.029003
18.114,51.6001,-0.029003
18.130,51.6001,-0.032628
18.146,51.6001,-0.025377
18.162,51.6001,-0.025377
18.178,51.6001,-0.024169
18.194,51.6001,-0.024169
18.210,51.6001,-0.026586
18.226,51.6001,-0.025377
18.242,51.6001,-0.033837
18.259,51.6001,-0.024169
18.275,51.6001,-0.022961
18.291,51.6001,-0.031420
18.306,51.6001,-0.029003
18.322,51.6001,-0.030211
18.338,51.6001,-0.030211
18.354,51.6001,-0.029003
18.371,51.6001,-0.029003
18.387,51.6001,-0.026586
18.403,51.6001,-0.030211
18.418,51.6001,-0.026586
18.434,51.6001,-0.035045
18.451,51.6001,-0.030211
18.467,51.6001,-0.030211
18.484,51.6001,-0.026586
18.508,51.6001,-0.027794
18.523,51.6001,-0.022961
18.539,51.6001,-0.026586
18.555,51.6001,-0.027794
18.574,51.6001,-0.033837
18.588,51.6001,-0.029003
18.604,51.6001,-0.025377
18.619,51.6001,-0.024169
18.635,51.6001,-0.024169
18.651,51.6001,-0.029003
18.667,51.6001,-0.031420
18.683,51.6001,-0.027794
18.699,51.6001,-0.024169
18.715,51.6001,-0.026586
18.733,51.6001,-0.025377
18.747,51.6001,-0.032628
18.764,51.6001,-0.029003
18.779,51.6001,-0.027794
18.795,51.6001,-0.027794
18.811,51.6001,-0.025377
18.827,51.6001,-0.030211
18.843,51.6001,-0.029003
18.859,51.6001,-0.024169
18.875,51.6001,-0.029003
18.892,51.6001,-0.027794
18.907,51.6001,-0.031420
18.923,51.6001,-0.030211
18.943,51.6001,-0.027794
18.955,51.6001,-0.024169
18.971,51.6001,-0.029003
18.987,51.6001,-0.029003
19.006,51.6001,-0.033837
19.019,51.6001,-0.029003
19.035,51.6001,-0.027794
19.051,51.6001,-0.022961
19.067,51.6001,-0.029003
19.083,51.6001,-0.026586
19.099,51.6001,-0.032628
19.115,51.6001,-0.029003
19.132,51.6001,-0.021752
19.148,51.6001,-0.025377
19.163,51.6001,-0.025377
19.179,51.6001,-0.030211
19.195,51.6001,-0.030211
19.211,51.6001,-0.026586
19.227,51.6001,-0.026586
19.245,51.6001,-0.025377
19.259,51.6001,-0.025377
19.275,51.6001,-0.025377
19.291,51.6001,-0.029003
19.307,51.6001,-0.030211
19.323,51.6001,-0.027794
19.339,51.6001,-0.033837
19.359,51.6001,-0.029003
19.372,51.6001,-0.026586
19.388,51.6001,-0.022961
19.403,51.6001,-0.032628
19.421,51.6001,-0.030211
19.435,51.6001,-0.029003
19.451,51.6001,-0.029003
19.467,51.6001,-0.031420
19.483,51.6001,-0.026586
19.499,51.6001,-0.021752
19.516,51.6001,-0.026586
19.531,51.6001,-0.029003
19.547,51.6001,-0.032628
19.563,51.6001,-0.032628
19.579,51.6001,-0.029003
19.602,51.6001,-0.024169
19.618,51.6001,-0.024169
19.634,51.6001,-0.032628
19.651,51.6001,-0.026586
19.666,51.6001,-0.031420
19.682,51.6001,-0.029003
19.701,51.6001,-0.025377
19.714,51.6001,-0.022961
19.730,51.6001,-0.025377
19.747,51.6001,-0.029003
19.762,51.6001,-0.029003
19.779,51.6001,-0.027794
19.794,51.6001,-0.026586
19.810,51.6001,-0.021752
19.826,51.6001,-0.021752
19.842,51.6001,-0.033837
19.858,51.6001,-0.026586
19.874,51.6001,-0.029003
19.889,51.6001,-0.029003
19.906,51.6001,-0.029003
19.922,51.6001,-0.019335
19.938,51.6001,-0.032628
19.954,51.6001,-0.030211
19.971,51.6001,-0.030211
19.986,51.6001,-0.032628
20.002,51.6001,-0.032628
20.018,51.6001,-0.031420
20.034,51.6001,-0.027794
20.049,51.6001,-0.025377
20.065,51.6001,-0.025377
20.082,51.6001,-0.026586
20.097,51.6001,-0.025377
20.113,51.6001,-0.025377
20.130,51.6001,-0.029003
20.151,51.6001,-0.029003
20.167,51.6001,-0.026586
20.183,51.6001,-0.024169
20.199,51.6001,-0.022961
20.215,51.6001,-0.025377
20.230,51.6001,-0.025377
20.246,51.6001,-0.026586
20.262,51.6001,-0.027794
20.279,51.6001,-0.030211
20.295,51.6001,-0.030211
20.310,51.6001,-0.030211
20.327,51.6001,-0.025377
20.342,51.6001,-0.025377
20.359,51.6001,-0.022961
20.374,51.6001,-0.026586
20.391,51.6001,-0.025377
20.407,51.6001,-0.025377
20.422,51.6001,-0.029003
20.438,51.6001,-0.026586
20.454,51.6001,-0.027794
20.470,51.6001,-0.031420
20.486,51.6001,-0.030211
20.502,51.6001,-0.026586
20.519,51.6001,-0.026586
20.536,51.6001,-0.026586
20.550,51.6001,-0.029003
20.567,51.6001,-0.027794
20.582,51.6001,-0.022961
20.598,51.6001,-0.027794
20.614,51.6001,-0.029003
20.630,51.6001,-0.020544
20.646,51.6001,-0.021752
20.662,51.6001,-0.021752
20.678,51.6001,-0.033837
20.694,51.6001,-0.027794
20.717,51.6001,-0.026586
20.732,51.6001,-0.024169
20.747,51.6001,-0.026586
20.763,51.6001,-0.027794
20.780,51.6001,-0.024169
20.796,51.6001,-0.024169
20.814,51.6001,-0.022961
20.827,51.6001,-0.030211
20.844,51.6001,-0.030211
20.860,51.6001,-0.026586
20.876,51.6001,-0.027794
20.891,51.6001,-0.027794
20.907,51.6001,-0.025377
20.923,51.6001,-0.021752
20.939,51.6001,-0.024169
20.955,51.6001,-0.024169
20.971,51.6001,-0.026586
20.987,51.6001,-0.022961
21.003,51.6001,-0.029003
21.023,51.6001,-0.027794
21.035,51.6001,-0.025377
21.051,51.6001,-0.029003
21.067,51.6001,-0.030211
21.084,51.6001,-0.030211
21.099,51.6001,-0.026586
21.117,51.6001,-0.029003
21.131,51.6001,-0.022961
21.148,51.6001,-0.021752
21.164,51.6001,-0.021752
21.180,51.6001,-0.025377
21.195,51.6001,-0.031420
21.211,51.6001,-0.031420
21.227,51.6001,-0.027794
21.243,51.6001,-0.025377
21.267,51.6001,-0.026586
21.283,51.6001,-0.025377
21.299,51.6001,-0.026586
21.315,51.6001,-0.027794
21.332,51.6001,-0.022961
21.347,51.6001,-0.022961
21.363,51.6001,-0.030211
21.379,51.6001,-0.020544
21.395,51.6001,-0.026586
21.412,51.6001,-0.022961
21.427,51.6001,-0.031420
21.443,51.6001,-0.031420
21.459,51.6001,-0.027794
21.475,51.6001,-0.022961
21.491,51.6001,-0.021752
21.508,51.6001,-0.024169
21.523,51.6001,-0.029003
21.539,51.6001,-0.029003
21.556,51.6001,-0.029003
21.571,51.6001,-0.027794
21.587,51.6001,-0.026586
21.603,51.6001,-0.026586
21.619,51.6001,-0.021752
21.635,51.6001,-0.021752
21.651,51.6001,-0.024169
21.667,51.6001,-0.031420
21.683,51.6001,-0.031420
21.699,51.6001,-0.030211
21.715,51.6001,-0.025377
21.731,51.6001,-0.022961
21.747,51.6001,-0.026586
21.763,51.6001,-0.020544
21.779,51.6001,-0.029003
21.795,51.6001,-0.031420
21.811,51.6001,-0.030211
21.827,51.6001,-0.031420
21.843,51.6001,-0.032628
21.859,51.6001,-0.027794
21.875,51.6001,-0.020544
21.891,51.6001,-0.030211
21.907,51.6001,-0.029003
21.924,51.6001,-0.027794
21.939,51.6001,-0.022961
21.956,51.6001,-0.025377
21.971,51.6001,-0.025377
21.988,51.6001,-0.032628
22.003,51.6001,-0.032628
22.021,51.6001,-0.030211
22.035,51.6001,-0.030211
22.051,51.6001,-0.026586
22.067,51.6001,-0.030211
22.083,51.6001,-0.030211
22.099,51.6001,-0.029003
22.115,51.6001,-0.027794
22.131,51.6001,-0.029003
22.148,51.6001,-0.032628
22.162,51.6001,-0.032628
22.179,51.6001,-0.027794
22.195,51.6001,-0.027794
22.211,51.6001,-0.032628
22.228,51.6001,-0.027794
22.243,51.6001,-0.022961
22.258,51.6001,-0.029003
22.275,51.6001,-0.030211
22.292,51.6001,-0.027794
22.306,51.6001,-0.026586
22.323,51.6001,-0.020544
22.338,51.6001,-0.025377
22.354,51.6001,-0.031420
22.371,51.6001,-0.031420
22.386,51.6001,-0.031420
22.402,51.6001,-0.026586
22.419,51.6001,-0.027794
22.435,51.6001,-0.029003
22.452,51.6001,-0.030211
22.466,51.6001,-0.025377
22.483,51.6001,-0.025377
22.499,51.6001,-0.029003
22.515,51.6001,-0.024169
22.531,51.6001,-0.022961
22.546,51.6001,-0.024169
22.562,51.6001,-0.022961
22.578,51.6001,-0.026586
22.595,51.6001,-0.026586
22.610,51.6001,-0.024169
22.626,51.6001,-0.030211
22.642,51.6001,-0.032628
22.659,51.6001,-0.022961
22.674,51.6001,-0.022961
22.691,51.6001,-0.025377
22.706,51.6001,-0.027794
22.723,51.6001,-0.029003
22.738,51.6001,-0.029003
22.754,51.6001,-0.029003
22.770,51.6001,-0.024169
22.787,51.6001,-0.025377
22.803,51.6001,-0.025377
22.818,51.6001,-0.025377
22.834,51.6001,-0.030211
22.854,51.6001,-0.032628
22.879,51.6001,-0.030211
22.895,51.6001,-0.024169
22.911,51.6001,-0.025377
22.927,51.6001,-0.021752
22.942,51.6001,-0.022961
22.958,51.6001,-0.024169
22.974,51.6001,-0.027794
22.990,51.6001,-0.030211
23.006,51.6001,-0.027794
23.025,51.6001,-0.027794
23.038,51.6001,-0.029003
23.055,51.6001,-0.025377
23.071,51.6001,-0.030211
23.086,51.6001,-0.029003
23.103,51.6001,-0.026586
23.119,51.6001,-0.029003
23.134,51.6001,-0.029003
23.150,51.6001,-0.024169
23.166,51.6001,-0.025377
23.182,51.6001,-0.026586
23.198,51.6001,-0.025377
23.214,51.6001,-0.029003
23.230,51.6001,-0.032628
23.246,51.6001,-0.032628
23.262,51.6001,-0.020544
23.278,51.6001,-0.020544
23.295,51.6001,-0.022961
23.310,51.6001,-0.022961
23.327,51.6001,-0.022961
23.342,51.6001,-0.029003
23.358,51.6001,-0.031420
23.375,51.6001,-0.020544
23.390,51.6001,-0.026586
23.420,51.6001,-0.027794
23.437,51.6001,-0.027794
23.453,51.6001,-0.029003
23.468,51.6001,-0.032628
23.485,51.6001,-0.027794
23.500,51.6001,-0.024169
23.516,51.6001,-0.026586
23.532,51.6001,-0.025377
23.548,51.6001,-0.022961
23.564,51.6001,-0.027794
23.581,51.6001,-0.027794
23.596,51.6001,-0.026586
23.612,51.6001,-0.026586
23.628,51.6001,-0.022961
23.644,51.6001,-0.022961
23.660,51.6001,-0.025377
23.676,51.6001,-0.025377
23.692,51.6001,-0.027794
23.708,51.6001,-0.021752
23.724,51.6001,-0.021752
23.740,51.6001,-0.021752
23.756,51.6001,-0.024169
23.772,51.6001,-0.024169
23.791,51.6001,-0.026586
23.804,51.6001,-0.027794
23.820,51.6001,-0.026586
23.836,51.6001,-0.020544
23.856,51.6001,-0.022961
23.868,51.6001,-0.021752
23.885,51.6001,-0.016918
23.900,51.6001,-0.025377
23.918,51.6001,-0.027794
23.932,51.6001,-0.021752
23.948,51.6001,-0.024169
23.964,51.6001,-0.022961
23.981,51.6001,-0.025377
23.996,51.6001,-0.027794
24.012,51.6001,-0.029003
24.028,51.6001,-0.024169
24.044,51.5405,-0.024169
24.060,51.3825,0.025377
24.076,51.2245,0.025377
24.092,51.0645,0.053172
24.109,50.9006,0.094259
24.124,50.7456,0.094259
24.140,50.5885,0.125679
24.156,50.4276,0.169183
24.172,50.2696,0.198185
24.188,50.1086,0.224771
24.204,49.9486,0.238064
24.220,49.7866,0.267067
24.236,49.6256,0.267067
24.252,49.4666,0.288819
24.268,49.3045,0.285194
24.284,49.1435,0.244106
24.300,48.9865,0.148639
24.316,48.8285,0.076132
24.333,48.6576,0.018127
24.348,48.5095,0.008459
24.364,48.3486,0.008459
24.380,48.1856,0.015710
24.396,48.0246,0.015710
24.412,47.8686,0.010876
24.428,47.7056,0.010876
24.443,47.5506,0.010876
24.460,47.3786,0.003625
24.476,47.2176,0.003625
24.493,47.0556,0.009668
24.517,46.8206,0.003625
24.533,46.6566,0.009668
24.548,46.5016,0.006042
24.564,46.3426,0.008459
24.580,46.1796,0.004834
24.597,46.0165,0.007251
24.612,45.8616,0.007251
24.629,45.6985,0.012084
24.645,45.5557,0.010876
24.660,45.5501,-0.082174
24.677,45.5501,0.001208
24.693,45.5501,0.001208
24.709,45.5501,0.018127
24.724,45.5501,0.018127
24.740,45.5501,0.010876
24.758,45.5501,0.004834
24.773,45.5501,0.009668
24.788,45.5501,-0.002417
24.805,45.5501,0.006042
24.821,45.5501,0.004834
24.836,45.5501,0.004834
24.853,45.5501,0.008459
24.868,45.5501,0.012084
24.885,45.5501,0.007251
24.900,45.5501,-0.001208
24.916,45.5501,0.003625
24.932,45.5639,-0.001208
24.948,45.7066,-0.084591
24.964,45.8676,0.025377
24.980,46.0286,0.012084
24.996,46.1866,0.018127
25.013,46.3505,-0.008459
25.029,46.5116,0.002417
25.045,46.6776,-0.001208
25.069,46.9156,0.009668
25.085,47.0766,0.001208
25.101,47.2346,0.007251
25.117,47.3956,0.006042
25.134,47.5575,-0.003625
25.150,47.7236,-0.007251
25.166,47.8806,-0.001208
25.181,48.0345,-0.003625
25.198,48.1996,-0.001208
25.215,48.3716,0.006042
25.230,48.5306,0.003625
25.246,48.6786,-0.002417
25.261,48.8356,-0.002417
25.278,49.0076,-0.006042
25.293,49.1546,-0.006042
25.309,49.3146,-0.003625
25.325,49.4765,-0.003625
25.341,49.6336,-0.002417
25.357,49.7955,-0.006042
25.375,49.9705,-0.009668
25.389,50.1156,-0.006042
25.405,50.2746,-0.006042
25.422,50.4475,-0.016918
25.438,50.6006,-0.020544
25.453,50.7536,-0.026586
25.469,50.9136,-0.037462
25.485,51.0746,-0.047129
25.501,51.2356,-0.056797
25.518,51.4036,-0.074924
25.533,51.5388,-0.085800
25.550,51.5501,-0.022961
25.565,51.5501,-0.107552
25.581,51.5501,-0.093050
25.597,51.5501,-0.090634
25.620,51.5501,-0.082174
25.636,51.5501,-0.076132
25.652,51.5501,-0.071298
25.668,51.5501,-0.062839
25.684,51.5501,-0.071298
25.700,51.5501,-0.066465
25.716,51.5501,-0.067673
25.732,51.5501,-0.065256
25.748,51.5501,-0.070090
25.764,51.5501,-0.056797
25.781,51.5501,-0.055589
25.796,51.5501,-0.055589
25.813,51.5501,-0.061631
25.829,51.5501,-0.050755
25.844,51.5501,-0.053172
25.860,51.5501,-0.054380
25.876,51.5501,-0.059214
25.892,51.5501,-0.059214
25.908,51.5501,-0.044713
25.924,51.5501,-0.044713
25.940,51.5501,-0.047129
25.956,51.5501,-0.048338
25.972,51.5501,-0.048338
25.988,51.5501,-0.053172
26.004,51.5501,-0.053172
26.020,51.5501,-0.053172
26.036,51.5501,-0.048338
26.056,51.5501,-0.048338
26.070,51.5501,-0.049546
26.084,51.5501,-0.048338
26.100,51.5501,-0.043504
26.117,51.5501,-0.049546
26.132,51.5501,-0.047129
26.148,51.5501,-0.047129
26.178,51.5501,-0.047129
26.194,51.5501,-0.045921
26.210,51.5501,-0.045921
26.226,51.5501,-0.041087
26.243,51.5501,-0.041087
26.258,51.5501,-0.044713
26.274,51.5501,-0.041087
26.291,51.5501,-0.038670
26.306,51.5501,-0.044713
26.322,51.5501,-0.044713
26.338,51.5501,-0.039879
26.354,51.5501,-0.047129
26.372,51.5501,-0.048338
26.386,51.5501,-0.048338
26.402,51.5501,-0.042296
26.418,51.5501,-0.041087
26.434,51.5501,-0.041087
26.450,51.5501,-0.044713
26.466,51.5501,-0.041087
26.482,51.5501,-0.039879
26.498,51.5501,-0.041087
26.514,51.5501,-0.041087
26.530,51.5501,-0.041087
26.546,51.5501,-0.037462
26.561,51.5501,-0.032628
26.578,51.5501,-0.033837
26.594,51.5501,-0.038670
26.610,51.5501,-0.039879
26.627,51.5501,-0.036253
26.643,51.5501,-0.043504
26.658,51.5501,-0.033837
26.674,51.5501,-0.042296
26.689,51.5501,-0.042296
26.706,51.5501,-0.035045
26.736,51.5501,-0.035045
26.751,51.5501,-0.038670
26.766,51.5501,-0.030211
26.783,51.5501,-0.035045
26.799,51.5501,-0.036253
26.815,51.5501,-0.037462
26.831,51.5501,-0.035045
26.847,51.5501,-0.039879
26.862,51.5501,-0.039879
26.880,51.5501,-0.037462
26.896,51.5501,-0.036253
26.910,51.5501,-0.033837
26.927,51.5501,-0.043504
26.943,51.5501,-0.043504
26.958,51.5501,-0.037462
26.974,51.5501,-0.037462
26.990,51.5501,-0.035045
27.006,51.5501,-0.038670
27.022,51.5501,-0.036253
27.039,51.5501,-0.036253
27.055,51.5501,-0.036253
27.070,51.5501,-0.032628
27.086,51.5501,-0.036253
27.103,51.5501,-0.039879
27.119,51.5501,-0.042296
27.134,51.5501,-0.038670
27.150,51.5501,-0.037462
27.167,51.5501,-0.037462
27.183,51.5501,-0.030211
27.198,51.5501,-0.031420
27.215,51.5501,-0.037462
27.231,51.5501,-0.035045
27.246,51.5501,-0.039879
27.262,51.5501,-0.039879
27.290,51.5501,-0.037462
27.306,51.5501,-0.033837
27.323,51.5501,-0.032628
27.339,51.5501,-0.031420
27.354,51.5501,-0.039879
27.370,51.5501,-0.042296
27.388,51.5501,-0.041087
27.402,51.5501,-0.037462
27.419,51.5501,-0.031420
27.435,51.5501,-0.035045
27.453,51.5501,-0.033837
27.467,51.5501,-0.036253
27.483,51.5501,-0.032628
27.498,51.5501,-0.033837
27.515,51.5501,-0.033837
27.531,51.5501,-0.036253
27.547,51.5501,-0.036253
27.563,51.5501,-0.032628
27.578,51.5501,-0.035045
27.595,51.5501,-0.035045
27.611,51.5501,-0.035045
27.626,51.5501,-0.039879
27.642,51.5501,-0.039879
27.659,51.5501,-0.033837
27.675,51.5501,-0.033837
27.691,51.5501,-0.035045
27.706,51.5501,-0.039879
27.724,51.5501,-0.039879
27.738,51.5501,-0.032628
27.754,51.5501,-0.033837
27.770,51.5501,-0.032628
27.788,51.5501,-0.038670
27.802,51.5501,-0.035045
27.819,51.5501,-0.035045
27.834,51.5501,-0.035045
27.852,51.5501,-0.035045
27.868,51.5501,-0.035045
27.883,51.5501,-0.035045
27.898,51.5501,-0.032628
27.914,51.5501,-0.033837
27.930,51.5501,-0.033837
27.946,51.5501,-0.031420
27.962,51.5501,-0.027794
27.979,51.5501,-0.038670
27.995,51.5501,-0.038670
28.011,51.5501,-0.030211
28.026,51.5501,-0.030211
28.042,51.5501,-0.033837
28.058,51.5501,-0.032628
28.075,51.5501,-0.035045
28.090,51.5501,-0.035045
28.113,51.5501,-0.035045
28.134,51.5501,-0.024169
28.155,51.5501,-0.033837
28.170,51.5501,-0.032628
28.187,51.5501,-0.037462
28.202,51.5501,-0.032628
28.218,51.5501,-0.035045
28.234,51.5501,-0.024169
28.250,51.5501,-0.032628
28.268,51.5501,-0.032628
28.283,51.5501,-0.032628
28.299,51.5501,-0.038670
28.315,51.5501,-0.038670
28.331,51.5501,-0.029003
28.346,51.5501,-0.027794
28.374,51.5501,-0.024169
28.390,51.5501,-0.036253
28.406,51.5501,-0.030211
28.422,51.5501,-0.030211
28.438,51.5501,-0.030211
28.453,51.5501,-0.032628
28.470,51.5501,-0.031420
28.486,51.5501,-0.031420
28.502,51.5501,-0.031420
28.518,51.5501,-0.032628
28.535,51.5501,-0.032628
28.550,51.5501,-0.035045
28.566,51.5501,-0.031420
28.582,51.5501,-0.033837
28.598,51.5501,-0.027794
28.617,51.5501,-0.027794
28.630,51.5501,-0.029003
28.646,51.5501,-0.027794
28.662,51.5501,-0.032628
28.679,51.5501,-0.033837
28.694,51.5501,-0.033837
28.710,51.5501,-0.036253
28.727,51.5501,-0.031420
28.742,51.5501,-0.030211
28.758,51.5501,-0.032628
28.774,51.5501,-0.033837
28.790,51.5501,-0.033837
28.806,51.5501,-0.033837
28.822,51.5501,-0.031420
28.838,51.5501,-0.029003
28.855,51.5501,-0.035045
28.870,51.5501,-0.033837
28.886,51.5501,-0.031420
28.915,51.5501,-0.031420
28.931,51.5501,-0.033837
28.947,51.5501,-0.030211
28.963,51.5501,-0.027794
28.980,51.5501,-0.026586
28.995,51.5501,-0.026586
29.014,51.5501,-0.026586
29.027,51.5501,-0.031420
29.044,51.5501,-0.026586
29.059,51.5501,-0.032628
29.074,51.5501,-0.032628
29.092,51.5501,-0.031420
29.107,51.5501,-0.033837
29.123,51.5501,-0.033837
29.139,51.5501,-0.033837
29.154,51.5501,-0.035045
29.170,51.5501,-0.030211
29.186,51.5501,-0.026586
29.202,51.5501,-0.026586
29.219,51.5501,-0.025377
29.234,51.5501,-0.027794
29.251,51.5501,-0.033837
29.266,51.5501,-0.030211
29.284,51.5501,-0.029003
29.299,51.5501,-0.026586
29.315,51.5501,-0.026586
29.331,51.5501,-0.030211
29.348,51.5501,-0.030211
29.362,51.5501,-0.037462
29.380,51.5501,-0.032628
29.394,51.5501,-0.032628
29.411,51.5501,-0.035045
29.427,51.5501,-0.031420
29.442,51.5501,-0.026586
29.469,51.5501,-0.024169
29.485,51.5501,-0.030211
29.500,51.5501,-0.031420
29.516,51.5501,-0.031420
29.533,51.5501,-0.031420
29.548,51.5501,-0.032628
29.567,51.5501,-0.032628
29.580,51.5501,-0.030211
29.596,51.5501,-0.035045
29.613,51.5501,-0.035045
29.629,51.5501,-0.030211
29.644,51.5501,-0.030211
29.661,51.5501,-0.032628
29.676,51.5501,-0.035045
29.692,51.5501,-0.035045
29.709,51.5501,-0.032628
29.724,51.5501,-0.026586
29.740,51.5501,-0.026586
29.756,51.5501,-0.027794
29.772,51.5501,-0.029003
29.788,51.5501,-0.032628
29.805,51.5501,-0.029003
29.820,51.5501,-0.022961
29.837,51.5501,-0.025377
29.852,51.5501,-0.031420
29.868,51.5501,-0.026586
29.884,51.5501,-0.035045
29.900,51.5501,-0.026586
29.917,51.5501,-0.029003
29.932,51.5501,-0.031420
29.948,51.5501,-0.035045
29.965,51.5501,-0.025377
29.980,51.5501,-0.029003
29.996,51.5501,-0.030211
30.025,51.5501,-0.032628
30.041,51.5501,-0.030211
30.057,51.5501,-0.027794
30.073,51.5501,-0.022961
30.090,51.5501,-0.027794
30.106,51.5501,-0.031420
30.121,51.5501,-0.032628
30.137,51.5501,-0.033837
30.154,51.5501,-0.030211
30.170,51.5501,-0.027794
30.185,51.5501,-0.027794
30.201,51.5501,-0.025377
30.218,51.5501,-0.035045
30.234,51.5501,-0.033837
30.250,51.5501,-0.032628
30.265,51.5501,-0.031420
30.281,51.5501,-0.021752
30.297,51.5501,-0.022961
30.313,51.5501,-0.025377
30.329,51.5501,-0.027794
30.345,51.5501,-0.032628
30.362,51.5501,-0.025377
30.377,51.5501,-0.025377
30.396,51.5501,-0.025377
30.409,51.5501,-0.029003
30.425,51.5501,-0.029003
30.441,51.5501,-0.025377
30.463,51.5501,-0.024169
30.474,51.5501,-0.024169
30.489,51.5501,-0.024169
30.505,51.5501,-0.036253
30.522,51.5501,-0.026586
30.537,51.5501,-0.027794
30.553,51.5501,-0.027794
30.569,51.5501,-0.035045
30.585,51.5501,-0.030211
30.601,51.5501,-0.031420
30.617,51.5501,-0.031420
30.633,51.5501,-0.025377
30.649,51.5501,-0.029003
30.665,51.5501,-0.029003
30.681,51.5501,-0.032628
30.698,51.5501,-0.030211
30.713,51.5501,-0.030211
30.729,51.5501,-0.030211
30.745,51.5501,-0.030211
30.761,51.5501,-0.021752
30.777,51.5501,-0.029003
30.792,51.5501,-0.032628
30.809,51.5501,-0.029003
30.825,51.5501,-0.027794
30.841,51.5501,-0.030211
30.857,51.5501,-0.030211
30.873,51.5501,-0.026586
30.889,51.5501,-0.033837
30.905,51.5501,-0.033837
30.923,51.5501,-0.024169
30.937,51.5501,-0.027794
30.954,51.5501,-0.030211
30.969,51.5501,-0.031420
30.985,51.5501,-0.029003
31.001,51.5501,-0.031420
31.017,51.5501,-0.030211
31.033,51.5501,-0.029003
31.049,51.5501,-0.033837
31.065,51.5501,-0.033837
31.081,51.5501,-0.022961
31.097,51.5501,-0.032628
31.120,51.5501,-0.026586
31.136,51.5501,-0.025377
31.153,51.5501,-0.025377
31.169,51.5501,-0.031420
31.187,51.5501,-0.032628
31.200,51.5501,-0.032628
31.216,51.5501,-0.030211
31.233,51.5501,-0.027794
31.250,51.5501,-0.031420
31.266,51.5501,-0.029003
31.280,51.5501,-0.025377
31.296,51.5501,-0.030211
31.312,51.5501,-0.033837
31.328,51.5501,-0.030211
31.344,51.5501,-0.031420
31.361,51.5501,-0.025377
31.376,51.5501,-0.026586
31.394,51.5501,-0.026586
31.409,51.5501,-0.032628
31.425,51.5501,-0.032628
31.440,51.5501,-0.025377
31.456,51.5501,-0.032628
31.472,51.5501,-0.032628
31.498,51.5501,-0.024169
31.519,51.5501,-0.027794
31.536,51.5501,-0.032628
31.552,51.5501,-0.033837
31.569,51.5501,-0.030211
31.584,51.5501,-0.030211
31.601,51.5501,-0.032628
31.618,51.5501,-0.033837
31.632,51.5501,-0.033837
31.648,51.5501,-0.032628
31.677,51.5501,-0.032628
31.693,51.5501,-0.024169
31.709,51.5501,-0.026586
31.725,51.5501,-0.029003
31.742,51.5501,-0.030211
31.757,51.5501,-0.027794
31.773,51.5501,-0.027794
31.789,51.5501,-0.026586
31.806,51.5501,-0.026586
31.821,51.5501,-0.027794
31.838,51.5501,-0.026586
31.853,51.5501,-0.026586
31.870,51.5501,-0.026586
31.886,51.5501,-0.021752
31.903,51.5501,-0.021752
31.917,51.5501,-0.030211
31.933,51.5501,-0.030211
31.950,51.5501,-0.032628
31.965,51.5501,-0.027794
31.981,51.5501,-0.026586
31.997,51.5501,-0.033837
32.013,51.5501,-0.033837
32.029,51.5501,-0.025377
32.045,51.5501,-0.038670
32.060,51.5501,-0.031420
32.077,51.5501,-0.025377
32.093,51.5501,-0.025377
32.110,51.5501,-0.026586
32.125,51.5501,-0.032628
32.142,51.5501,-0.035045
32.157,51.5501,-0.031420
32.174,51.5501,-0.031420
32.190,51.5501,-0.029003
32.206,51.5501,-0.027794
32.234,51.5501,-0.030211
32.250,51.5501,-0.033837
32.266,51.5501,-0.032628
32.282,51.5501,-0.032628
32.298,51.5501,-0.022961
32.314,51.5501,-0.027794
32.330,51.5501,-0.025377
32.346,51.5501,-0.030211
32.361,51.5501,-0.029003
32.378,51.5501,-0.030211
32.394,51.5501,-0.025377
32.410,51.5501,-0.030211
32.426,51.5501,-0.030211
32.442,51.5501,-0.029003
32.458,51.5501,-0.029003
32.475,51.5501,-0.029003
32.490,51.5501,-0.026586
32.506,51.5501,-0.026586
32.522,51.5501,-0.029003
32.538,51.5501,-0.026586
32.554,51.5501,-0.026586
32.570,51.5501,-0.027794
32.586,51.5501,-0.027794
32.602,51.5501,-0.026586
32.618,51.5501,-0.024169
32.634,51.5501,-0.031420
32.650,51.5501,-0.030211
32.666,51.5501,-0.026586
32.682,51.5501,-0.024169
32.698,51.5501,-0.026586
32.714,51.5501,-0.027794
32.731,51.5501,-0.036253
32.758,51.5501,-0.031420
32.774,51.5501,-0.021752
32.790,51.5501,-0.027794
32.806,51.5501,-0.024169
32.823,51.5501,-0.026586
32.838,51.5501,-0.024169
32.854,51.5501,-0.024169
32.871,51.5501,-0.022961
32.886,51.5501,-0.027794
32.902,51.5501,-0.026586
32.918,51.5501,-0.027794
32.935,51.5501,-0.024169
32.950,51.5501,-0.029003
32.967,51.5501,-0.033837
32.982,51.5501,-0.033837
32.998,51.5501,-0.029003
33.014,51.5501,-0.029003
33.030,51.5501,-0.029003
33.047,51.5501,-0.027794
33.062,51.5501,-0.021752
33.078,51.5501,-0.029003
33.094,51.5501,-0.027794
33.110,51.5501,-0.030211
33.126,51.5501,-0.025377
33.142,51.5501,-0.027794
33.161,51.5501,-0.027794
33.177,51.5501,-0.025377
33.190,51.5501,-0.024169
33.206,51.5501,-0.026586
33.222,51.5501,-0.027794
33.238,51.5501,-0.032628
33.254,51.5501,-0.030211
33.285,51.5501,-0.029003
33.300,51.5501,-0.029003
33.316,51.5501,-0.029003
33.332,51.5501,-0.027794
33.348,51.5501,-0.032628
33.364,51.5501,-0.029003
33.382,51.5501,-0.030211
33.396,51.5501,-0.027794
33.414,51.5501,-0.029003
33.428,51.5501,-0.031420
33.443,51.5501,-0.031420
33.460,51.5501,-0.029003
33.475,51.5501,-0.026586
33.491,51.5501,-0.024169
33.508,51.5501,-0.025377
33.524,51.5501,-0.025377
33.539,51.5501,-0.024169
33.555,51.5501,-0.027794
33.572,51.5501,-0.024169
33.588,51.5501,-0.031420
33.603,51.5501,-0.025377
33.619,51.5501,-0.027794
33.636,51.5501,-0.029003
33.652,51.5501,-0.027794
33.668,51.5501,-0.027794
33.683,51.5501,-0.030211
33.700,51.5501,-0.027794
33.716,51.5501,-0.026586
33.731,51.5501,-0.029003
33.748,51.5501,-0.025377
33.763,51.5501,-0.029003
33.780,51.5501,-0.027794
33.796,51.5501,-0.022961
33.813,51.5501,-0.029003
33.836,51.5501,-0.029003
33.852,51.5501,-0.027794
33.869,51.5501,-0.026586
33.884,51.5501,-0.026586
33.901,51.5501,-0.029003
33.917,51.5501,-0.029003
33.932,51.5501,-0.026586
33.949,51.5501,-0.029003
33.964,51.5501,-0.027794
33.981,51.5501,-0.029003
33.998,51.5501,-0.024169
34.012,51.5501,-0.024169
34.029,51.5501,-0.029003
34.044,51.5501,-0.025377
34.061,51.5501,-0.026586
34.076,51.5501,-0.026586
34.092,51.5501,-0.026586
34.108,51.5501,-0.027794
34.124,51.5501,-0.022961
34.140,51.5501,-0.024169
34.156,51.5501,-0.030211
34.172,51.5501,-0.030211
34.189,51.5501,-0.029003
34.204,51.5501,-0.029003
34.220,51.5501,-0.025377
34.236,51.5501,-0.022961
34.252,51.5501,-0.022961
34.270,51.5501,-0.027794
34.284,51.5501,-0.024169
34.300,51.5501,-0.027794
34.317,51.5501,-0.022961
34.332,51.5501,-0.027794
34.349,51.5501,-0.026586
34.364,51.5501,-0.029003
34.382,51.5501,-0.027794
34.396,51.5501,-0.030211
34.413,51.5501,-0.027794
34.428,51.5501,-0.029003
34.445,51.5501,-0.027794
34.461,51.5501,-0.024169
34.476,51.5501,-0.030211
34.492,51.5501,-0.033837
34.508,51.5501,-0.032628
34.524,51.5501,-0.029003
34.541,51.5501,-0.030211
34.557,51.5501,-0.029003
34.573,51.5501,-0.029003
34.589,51.5501,-0.031420
34.604,51.5501,-0.031420
34.620,51.5501,-0.027794
34.636,51.5501,-0.024169
34.652,51.5501,-0.026586
34.668,51.5501,-0.022961
34.684,51.5501,-0.022961
34.700,51.5501,-0.027794
34.716,51.5501,-0.025377
34.732,51.5501,-0.026586
34.748,51.5501,-0.026586
34.764,51.5501,-0.025377
34.781,51.5501,-0.027794
34.796,51.5501,-0.027794
34.812,51.5501,-0.031420
34.828,51.5501,-0.022961
34.844,51.5501,-0.025377
34.860,51.5501,-0.029003
34.876,51.5501,-0.035045
34.892,51.5501,-0.027794
34.908,51.5501,-0.021752
34.936,51.5501,-0.022961
34.952,51.5501,-0.030211
34.967,51.5501,-0.029003
34.984,51.5501,-0.032628
35.000,51.5501,-0.029003
35.017,51.5501,-0.031420
35.032,51.5501,-0.027794
35.048,51.5501,-0.024169
35.065,51.5501,-0.024169
35.080,51.5501,-0.029003
35.097,51.5501,-0.033837
35.113,51.5501,-0.033837
35.129,51.5501,-0.027794
35.144,51.5501,-0.027794
35.162,51.5501,-0.026586
35.175,51.5501,-0.026586
35.196,51.5501,-0.026586
35.207,51.5501,-0.022961
35.224,51.5501,-0.022961
35.240,51.5501,-0.029003
35.256,51.5501,-0.031420
35.272,51.5501,-0.029003
35.288,51.5501,-0.020544
35.304,51.5501,-0.022961
35.320,51.5501,-0.024169
35.336,51.5501,-0.027794
35.352,51.5501,-0.026586
35.369,51.5501,-0.032628
35.384,51.5501,-0.036253
35.400,51.5501,-0.025377
35.415,51.5501,-0.019335
35.431,51.5501,-0.022961
35.448,51.5501,-0.029003
35.464,51.5501,-0.030211
35.480,51.5501,-0.025377
35.496,51.5501,-0.025377
35.512,51.5501,-0.024169
35.528,51.5501,-0.021752
35.544,51.5501,-0.032628
35.560,51.5501,-0.033837
35.576,51.5501,-0.030211
35.591,51.5501,-0.025377
35.608,51.5501,-0.020544
35.625,51.5501,-0.026586
35.639,51.5501,-0.026586
35.655,51.5501,-0.025377
35.672,51.5501,-0.026586
35.687,51.5501,-0.016918
35.703,51.5501,-0.021752
35.720,51.5501,-0.026586
35.737,51.5501,-0.029003
35.752,51.5501,-0.025377
35.767,51.5501,-0.024169
35.783,51.5501,-0.025377
35.799,51.5501,-0.027794
35.815,51.5501,-0.027794
35.831,51.5501,-0.030211
35.848,51.5501,-0.033837
35.863,51.5501,-0.032628
35.879,51.5501,-0.030211
35.895,51.5501,-0.029003
35.911,51.5501,-0.029003
35.927,51.5501,-0.024169
35.944,51.5501,-0.026586
35.960,51.5501,-0.025377
35.975,51.5501,-0.022961
35.991,51.5501,-0.024169
36.023,51.5501,-0.020544
36.039,51.5501,-0.024169
36.054,51.5501,-0.030211
36.071,51.5501,-0.021752
36.087,51.5501,-0.026586
36.102,51.5501,-0.026586
36.121,51.5501,-0.024169
36.134,51.5501,-0.022961
36.155,51.5501,-0.024169
36.166,51.5501,-0.025377
36.182,51.5501,-0.029003
36.199,51.5501,-0.026586
36.214,51.5501,-0.026586
36.231,51.5501,-0.024169
36.246,51.5501,-0.020544
36.262,51.5501,-0.025377
36.278,51.5501,-0.032628
36.294,51.5501,-0.029003
36.310,51.5501,-0.031420
36.328,51.5501,-0.029003
36.343,51.5501,-0.025377
36.358,51.5501,-0.024169
36.374,51.5501,-0.020544
36.391,51.5501,-0.020544
36.406,51.5501,-0.022961
36.425,51.5501,-0.022961
36.439,51.5501,-0.027794
36.454,51.5501,-0.029003
36.470,51.5501,-0.032628
36.486,51.5501,-0.025377
36.502,51.5501,-0.025377
36.519,51.5501,-0.022961
36.534,51.5501,-0.030211
36.562,51.5501,-0.022961
36.578,51.5501,-0.024169
36.594,51.5501,-0.025377
36.610,51.5501,-0.021752
36.626,51.5501,-0.025377
36.643,51.5501,-0.026586
36.659,51.5501,-0.025377
36.674,51.5501,-0.026586
36.691,51.5501,-0.025377
36.708,51.5501,-0.019335
36.723,51.5501,-0.019335
36.738,51.5501,-0.025377
36.756,51.5501,-0.025377
36.771,51.5501,-0.029003
36.787,51.5501,-0.032628
36.802,51.5501,-0.032628
36.820,51.5501,-0.030211
36.835,51.5501,-0.025377
36.851,51.5501,-0.026586
36.866,51.5501,-0.024169
36.882,51.5501,-0.026586
36.898,51.5501,-0.025377
36.914,51.5501,-0.025377
36.931,51.5501,-0.025377
36.946,51.5501,-0.024169
36.962,51.5501,-0.022961
36.978,51.4857,0.076132
36.994,51.2043,0.181267
37.010,50.8779,0.084591
37.026,50.5577,0.120845
37.043,50.2006,0.188518
37.058,49.9089,0.242898
37.074,49.5723,0.316613
37.090,49.2562,0.363743
37.106,48.9277,0.334740
37.122,48.5951,0.210270
37.138,48.2749,0.090634
37.154,47.9506,0.021752
37.170,47.6241,0.003625
37.186,47.2916,0.021752
37.205,46.9019,0.012084
37.218,46.6450,0.016918
37.234,46.3022,0.008459
37.250,45.9778,0.004834
37.267,45.6466,-0.016918
37.282,45.5023,-0.016918
37.298,45.5001,-0.136555
37.314,45.5001,-0.014501
37.330,45.5001,0.004834
37.346,45.5001,0.001208
37.362,45.5001,0.010876
37.380,45.5001,0.002417
37.394,45.5001,0.002417
37.410,45.5001,0.009668
37.426,45.5001,0.008459
37.442,45.5001,0.000000
37.458,45.5001,0.007251
37.475,45.5001,0.003625
37.490,45.5001,0.003625
37.506,45.5001,0.000000
37.522,45.5001,0.000000
37.539,45.5001,-0.001208
37.554,45.5001,0.006042
37.570,45.5144,-0.006042
37.586,45.7256,-0.170391
37.603,46.0661,-0.021752
37.617,46.3885,0.000000
37.641,46.8496,-0.008459
37.657,47.1657,-0.012084
37.673,47.5044,0.006042
37.689,47.8165,-0.007251
37.706,48.1633,0.004834
37.721,48.4795,-0.014501
37.737,48.8079,0.001208
37.753,49.1201,-0.008459
37.771,49.4873,-0.003625
37.785,49.7749,-0.012084
37.801,50.1014,-0.020544
37.817,50.4257,-0.032628
37.837,50.8500,-0.032628
37.849,51.1030,-0.058005
37.865,51.3896,-0.091842
37.883,51.5001,-0.038670
37.896,51.5001,-0.114803
37.914,51.5001,-0.114803
37.929,51.5001,-0.091842
37.945,51.5001,-0.091842
37.960,51.5001,-0.080966
37.976,51.5001,-0.071298
37.992,51.5001,-0.071298
38.009,51.5001,-0.067673
38.024,51.5001,-0.070090
38.040,51.5001,-0.064048
38.056,51.5001,-0.059214
38.073,51.5001,-0.056797
38.088,51.5001,-0.058005
38.104,51.5001,-0.056797
38.121,51.5001,-0.059214
38.140,51.5001,-0.048338
38.153,51.5001,-0.048338
38.169,51.5001,-0.049546
38.185,51.5001,-0.045921
