Elapsed Time (s),Position (mm),Force (N)
-0.017,54.1000,-0.051963
0.001,54.1000,-0.051963
0.016,54.1000,-0.048338
0.031,54.1000,-0.047129
0.049,54.1000,-0.043504
0.063,54.1000,-0.044713
0.080,54.1000,-0.048338
0.095,54.1000,-0.045921
0.111,54.1000,-0.049546
0.127,54.1000,-0.050755
0.143,54.1000,-0.044713
0.159,54.1000,-0.045921
0.175,54.1000,-0.041087
0.191,54.1000,-0.043504
0.207,54.1000,-0.045921
0.223,54.1000,-0.048338
0.241,54.1000,-0.048338
0.254,54.1000,-0.053172
0.270,54.1000,-0.045921
0.286,54.1000,-0.044713
0.309,54.1000,-0.042296
0.329,54.1000,-0.044713
0.341,54.1000,-0.042296
0.356,54.1000,-0.044713
0.372,54.1000,-0.044713
0.389,54.1000,-0.047129
0.404,54.1000,-0.038670
0.420,54.1000,-0.039879
0.437,54.1000,-0.042296
0.452,54.1000,-0.048338
0.468,54.1000,-0.039879
0.484,54.1000,-0.045921
0.502,54.1000,-0.041087
0.517,54.1000,-0.038670
0.533,54.1000,-0.045921
0.548,54.1000,-0.043504
0.565,54.1000,-0.041087
0.581,54.1000,-0.039879
0.598,54.1000,-0.039879
0.612,54.1000,-0.041087
0.629,54.1000,-0.048338
0.644,54.1000,-0.044713
0.660,54.1000,-0.047129
0.676,54.1000,-0.041087
0.693,54.1000,-0.041087
0.708,54.1000,-0.043504
0.725,54.1000,-0.038670
0.740,54.1000,-0.038670
0.757,54.1000,-0.037462
0.772,54.1000,-0.041087
0.788,54.1000,-0.041087
0.805,54.1000,-0.033837
0.821,54.1000,-0.035045
0.836,54.1000,-0.039879
0.858,54.1000,-0.039879
0.873,54.1000,-0.035045
0.889,54.1000,-0.037462
0.905,54.1000,-0.037462
0.923,54.1000,-0.033837
0.938,54.1000,-0.037462
0.953,54.1000,-0.041087
0.969,54.1000,-0.041087
0.985,54.1000,-0.041087
1.001,54.1000,-0.035045
1.017,54.1000,-0.037462
1.033,54.1000,-0.039879
1.050,54.1000,-0.039879
1.065,54.1000,-0.042296
1.081,54.1000,-0.036253
1.097,54.1000,-0.039879
1.114,54.1000,-0.038670
1.129,54.1000,-0.038670
1.145,54.1000,-0.036253
1.161,54.1000,-0.038670
1.178,54.1000,-0.038670
1.193,54.1000,-0.037462
1.211,54.1000,-0.037462
1.225,54.1000,-0.039879
1.241,54.1000,-0.036253
1.257,54.1000,-0.036253
1.273,54.1000,-0.037462
1.289,54.1000,-0.036253
1.305,54.1000,-0.031420
1.322,54.1000,-0.036253
1.337,54.1000,-0.035045
1.354,54.1000,-0.032628
1.370,54.1000,-0.035045
1.385,54.1000,-0.031420
1.414,54.1000,-0.033837
1.430,54.1000,-0.036253
1.446,54.1000,-0.033837
1.462,54.1000,-0.035045
1.478,54.1000,-0.042296
1.494,54.1000,-0.033837
1.511,54.1000,-0.033837
1.526,54.1000,-0.035045
1.542,54.1000,-0.030211
1.558,54.1000,-0.036253
1.574,54.1000,-0.037462
1.590,54.1000,-0.038670
1.606,54.1000,-0.035045
1.622,54.1000,-0.032628
1.638,54.1000,-0.027794
1.655,54.1000,-0.029003
1.670,54.1000,-0.035045
1.686,54.1000,-0.032628
1.702,54.1000,-0.032628
1.721,54.1000,-0.030211
1.734,54.1000,-0.030211
1.750,54.1000,-0.035045
1.767,54.1000,-0.036253
1.783,54.1000,-0.033837
1.799,54.1000,-0.029003
1.814,54.1000,-0.037462
1.830,54.1000,-0.032628
1.846,54.1000,-0.029003
1.863,54.1000,-0.030211
1.879,54.1000,-0.030211
1.894,54.1000,-0.032628
1.910,54.1000,-0.030211
1.926,54.1000,-0.033837
1.942,54.1000,-0.036253
1.965,54.1000,-0.030211
1.981,54.1000,-0.030211
1.997,54.1000,-0.033837
2.013,54.1000,-0.032628
2.029,54.1000,-0.032628
2.045,54.1000,-0.030211
2.061,54.1000,-0.029003
2.076,54.1000,-0.032628
2.093,54.1000,-0.030211
2.109,54.1000,-0.030211
2.126,54.1000,-0.030211
2.140,54.1000,-0.029003
2.157,54.1000,-0.032628
2.173,54.1000,-0.030211
2.189,54.1000,-0.033837
2.205,54.1000,-0.033837
2.221,54.1000,-0.035045
2.236,54.1000,-0.035045
2.254,54.1000,-0.033837
2.269,54.1000,-0.031420
2.286,54.1000,-0.031420
2.301,54.1000,-0.031420
2.317,54.1000,-0.032628
2.334,54.1000,-0.031420
2.349,54.1000,-0.031420
2.365,54.1000,-0.033837
2.380,54.1000,-0.029003
2.397,54.1000,-0.030211
2.412,54.1000,-0.037462
2.428,54.1000,-0.037462
2.444,54.1000,-0.035045
2.460,54.1000,-0.035045
2.476,54.1000,-0.038670
2.492,54.1000,-0.035045
2.508,54.1000,-0.032628
2.524,54.1000,-0.035045
2.540,54.1000,-0.035045
2.556,54.1000,-0.030211
2.573,54.1000,-0.035045
2.588,54.1000,-0.036253
2.604,54.1000,-0.037462
2.628,54.1000,-0.026586
2.651,54.1000,-0.029003
2.669,54.1000,-0.032628
2.685,54.1000,-0.032628
2.700,54.1000,-0.032628
2.716,54.1000,-0.035045
2.733,54.1000,-0.033837
2.749,54.1000,-0.032628
2.765,54.1000,-0.032628
2.780,54.1000,-0.032628
2.798,54.1000,-0.031420
2.812,54.1000,-0.033837
2.828,54.1000,-0.030211
2.844,54.1000,-0.032628
2.861,54.1000,-0.024169
2.876,54.1000,-0.025377
2.893,54.1000,-0.025377
2.908,54.1000,-0.024169
2.926,54.1000,-0.030211
2.940,54.1000,-0.035045
2.956,54.1000,-0.027794
2.973,54.1000,-0.033837
2.989,54.1000,-0.033837
3.005,54.1000,-0.030211
3.020,54.1000,-0.026586
3.042,54.1000,-0.027794
3.058,54.1000,-0.032628
3.075,54.1000,-0.032628
3.090,54.1000,-0.030211
3.107,54.1000,-0.027794
3.122,54.1000,-0.035045
3.139,54.1000,-0.032628
3.154,54.1000,-0.033837
3.171,54.1000,-0.033837
3.187,54.1000,-0.030211
3.203,54.1000,-0.030211
3.218,54.1000,-0.032628
3.235,54.1000,-0.026586
3.251,54.1000,-0.027794
3.268,54.1000,-0.033837
3.282,54.1000,-0.030211
3.298,54.1000,-0.033837
3.314,54.1000,-0.030211
3.330,54.1000,-0.030211
3.346,54.1000,-0.031420
3.363,54.1000,-0.031420
3.378,54.1000,-0.027794
3.394,54.1000,-0.036253
3.410,54.1000,-0.031420
3.427,54.1000,-0.032628
3.442,54.1000,-0.029003
3.458,54.1000,-0.029003
3.477,54.1000,-0.030211
3.490,54.1000,-0.032628
3.506,54.1000,-0.026586
3.522,54.1000,-0.026586
3.539,54.1000,-0.036253
3.554,54.1000,-0.030211
3.570,54.1000,-0.029003
3.586,54.1000,-0.039879
3.610,54.1000,-0.033837
3.626,54.1000,-0.032628
3.642,54.1000,-0.027794
3.658,54.1000,-0.030211
3.673,54.1000,-0.029003
3.689,54.1000,-0.029003
3.706,54.1000,-0.022961
3.721,54.1000,-0.032628
3.739,54.1000,-0.026586
3.753,54.1000,-0.030211
3.770,54.1000,-0.031420
3.785,54.1000,-0.037462
3.801,54.1000,-0.027794
3.817,54.1000,-0.027794
3.834,54.1000,-0.032628
3.849,54.1000,-0.031420
3.866,54.1000,-0.033837
3.881,54.1000,-0.035045
3.897,54.1000,-0.033837
3.913,54.1000,-0.033837
3.929,54.1000,-0.033837
3.945,54.1000,-0.029003
3.964,54.1000,-0.027794
3.977,54.1000,-0.025377
3.995,54.1000,-0.025377
4.009,54.1000,-0.024169
4.025,54.1000,-0.030211
4.041,54.1000,-0.024169
4.057,54.1000,-0.022961
4.073,54.1000,-0.032628
4.089,54.1000,-0.031420
4.107,54.1000,-0.033837
4.122,54.1000,-0.030211
4.137,54.1000,-0.026586
4.152,54.1000,-0.029003
4.177,54.1000,-0.027794
4.192,54.1000,-0.033837
4.208,54.1000,-0.033837
4.224,54.1000,-0.033837
4.240,54.1000,-0.031420
4.257,54.1000,-0.032628
4.272,54.1000,-0.025377
4.287,54.1000,-0.022961
4.304,54.1000,-0.033837
4.320,54.1000,-0.031420
4.336,54.1000,-0.035045
4.352,54.1000,-0.033837
4.368,54.1000,-0.030211
4.384,54.1000,-0.029003
4.399,54.1000,-0.025377
4.416,54.1000,-0.026586
4.435,54.1000,-0.027794
4.447,54.1000,-0.029003
4.464,54.1000,-0.035045
4.480,54.1000,-0.031420
4.496,54.1000,-0.025377
4.511,54.1000,-0.030211
4.529,54.1000,-0.030211
4.543,54.1000,-0.026586
4.560,54.1000,-0.026586
4.576,54.1000,-0.032628
4.591,54.1000,-0.042296
4.607,54.1000,-0.037462
4.624,54.1000,-0.030211
4.640,54.1000,-0.030211
4.656,54.1000,-0.025377
4.671,54.1000,-0.027794
4.687,54.1000,-0.029003
4.703,54.1000,-0.036253
4.719,54.1000,-0.032628
4.744,54.1000,-0.031420
4.758,54.1000,-0.031420
4.775,54.1000,-0.029003
4.790,54.1000,-0.029003
4.807,54.1000,-0.031420
4.823,54.1000,-0.026586
4.838,54.1000,-0.032628
4.855,54.1000,-0.033837
4.871,54.1000,-0.029003
4.887,54.1000,-0.030211
4.902,54.1000,-0.025377
4.918,54.1000,-0.030211
4.935,54.1000,-0.031420
4.950,54.1000,-0.030211
4.966,54.1000,-0.027794
4.983,54.1000,-0.027794
4.999,54.1000,-0.030211
5.014,54.1000,-0.029003
5.030,54.1000,-0.027794
5.047,54.1000,-0.030211
5.063,54.1000,-0.027794
5.078,54.1000,-0.029003
5.094,54.1000,-0.026586
5.111,54.1000,-0.025377
5.127,54.1000,-0.024169
5.143,54.1000,-0.024169
5.158,54.1000,-0.030211
5.175,54.1000,-0.026586
5.190,54.1000,-0.026586
5.208,54.1000,-0.027794
5.222,54.1000,-0.033837
5.238,54.1000,-0.033837
5.255,54.1000,-0.030211
5.270,54.1000,-0.035045
5.293,54.1000,-0.032628
5.309,54.1000,-0.032628
5.325,54.1000,-0.032628
5.341,54.1000,-0.026586
5.359,54.1000,-0.026586
5.375,54.1000,-0.019335
5.390,54.1000,-0.019335
5.405,54.1000,-0.025377
5.422,54.1000,-0.031420
5.437,54.1000,-0.030211
5.456,54.1000,-0.031420
5.469,54.1000,-0.026586
5.486,54.1000,-0.021752
5.501,54.1000,-0.026586
5.518,54.1000,-0.025377
5.534,54.1000,-0.026586
5.557,54.1000,-0.026586
5.581,54.1000,-0.030211
5.598,54.1000,-0.030211
5.613,54.1000,-0.020544
5.629,54.1000,-0.020544
5.645,54.1000,-0.026586
5.662,54.1000,-0.033837
5.678,54.1000,-0.033837
5.693,54.1000,-0.030211
5.709,54.1000,-0.029003
5.726,54.1000,-0.032628
5.741,54.1000,-0.024169
5.757,54.1000,-0.025377
5.773,54.1000,-0.027794
5.789,54.1000,-0.027794
5.805,54.1000,-0.029003
5.821,54.1000,-0.026586
5.851,54.1000,-0.031420
5.875,54.1000,-0.031420
5.891,54.1000,-0.029003
5.907,54.1000,-0.029003
5.917,54.1000,-0.032628
5.931,54.1000,-0.032628
5.946,54.1000,-0.030211
5.965,54.1000,-0.026586
5.978,54.1000,-0.026586
5.994,54.1000,-0.027794
6.010,54.1000,-0.026586
6.026,54.1000,-0.025377
6.042,54.1000,-0.029003
6.058,54.1000,-0.029003
6.074,54.1000,-0.027794
6.090,54.1000,-0.029003
6.108,54.1000,-0.027794
6.122,54.1000,-0.029003
6.138,54.1000,-0.030211
6.154,54.1000,-0.032628
6.170,54.1000,-0.031420
6.186,54.1000,-0.029003
6.202,54.1000,-0.025377
6.218,54.1000,-0.032628
6.237,54.1000,-0.031420
6.253,54.1000,-0.031420
6.267,54.1000,-0.030211
6.282,54.1000,-0.033837
6.298,54.1000,-0.029003
6.315,54.1000,-0.029003
6.331,54.1000,-0.030211
6.346,54.1000,-0.021752
6.362,54.1000,-0.031420
6.378,54.1000,-0.031420
6.394,54.1000,-0.026586
6.417,54.1000,-0.024169
6.433,54.1000,-0.033837
6.449,54.1000,-0.030211
6.465,54.1000,-0.025377
6.481,54.1000,-0.029003
6.497,54.1000,-0.029003
6.513,54.1000,-0.021752
6.529,54.1000,-0.024169
6.548,54.1000,-0.021752
6.561,54.1000,-0.022961
6.577,54.1000,-0.025377
6.593,54.1000,-0.025377
6.609,54.1000,-0.027794
6.625,54.1000,-0.032628
6.640,54.1000,-0.033837
6.657,54.1000,-0.030211
6.673,54.1000,-0.030211
6.689,54.1000,-0.030211
6.704,54.1000,-0.022961
6.722,54.1000,-0.024169
6.737,54.1000,-0.025377
6.752,54.1000,-0.024169
6.768,54.1000,-0.029003
6.790,54.1000,-0.022961
6.803,54.1000,-0.029003
6.817,54.1000,-0.022961
6.832,54.1000,-0.025377
6.850,54.1000,-0.035045
6.865,54.1000,-0.032628
6.880,54.1000,-0.032628
6.896,54.1000,-0.026586
6.913,54.1000,-0.025377
6.929,54.1000,-0.025377
6.946,54.1000,-0.027794
6.973,54.1000,-0.031420
6.989,54.1000,-0.027794
7.004,54.1000,-0.031420
7.020,54.1000,-0.031420
7.036,54.1000,-0.029003
7.053,54.1000,-0.031420
7.069,54.1000,-0.030211
7.084,54.1000,-0.021752
7.101,54.1000,-0.021752
7.117,54.1000,-0.021752
7.133,54.1000,-0.022961
7.148,54.1000,-0.024169
7.165,54.1000,-0.031420
7.181,54.1000,-0.031420
7.196,54.1000,-0.026586
7.212,54.1000,-0.025377
7.229,54.1000,-0.027794
7.245,54.1000,-0.030211
7.260,54.1000,-0.030211
7.276,54.1000,-0.025377
7.293,54.1000,-0.029003
7.309,54.1000,-0.024169
7.325,54.1000,-0.036253
7.341,54.1000,-0.033837
7.357,54.1000,-0.029003
7.372,54.1000,-0.029003
7.389,54.1000,-0.033837
7.405,54.1000,-0.027794
7.420,54.1000,-0.026586
7.436,54.1000,-0.030211
7.453,54.1000,-0.027794
7.469,54.1000,-0.027794
7.485,54.1000,-0.027794
7.500,54.1000,-0.031420
7.516,54.1000,-0.030211
7.532,54.1000,-0.027794
7.548,54.1000,-0.030211
7.564,54.1000,-0.025377
7.580,54.1000,-0.025377
7.596,54.1000,-0.026586
7.612,54.1000,-0.024169
7.628,54.1000,-0.024169
7.644,54.1000,-0.027794
7.660,54.1000,-0.022961
7.676,54.1000,-0.029003
7.695,54.1000,-0.031420
7.708,54.1000,-0.029003
7.724,54.1000,-0.026586
7.740,54.1000,-0.026586
7.758,54.1000,-0.025377
7.772,54.1000,-0.032628
7.789,54.1000,-0.029003
7.804,54.1000,-0.033837
7.821,54.1000,-0.033837
7.837,54.1000,-0.029003
7.852,54.1000,-0.026586
7.868,54.1000,-0.026586
7.885,54.1000,-0.025377
7.900,54.1000,-0.025377
7.917,54.1000,-0.026586
7.932,54.1000,-0.030211
7.948,54.1000,-0.030211
7.964,54.1000,-0.022961
7.982,54.1000,-0.022961
7.996,54.1000,-0.025377
8.012,54.1000,-0.026586
8.028,54.1000,-0.029003
8.044,54.1000,-0.030211
8.068,54.1000,-0.026586
8.083,54.1000,-0.026586
8.099,54.1000,-0.026586
8.115,54.1000,-0.016918
8.132,54.1000,-0.037462
8.148,54.1000,-0.037462
8.164,54.1000,-0.026586
8.179,54.1000,-0.026586
8.197,54.1000,-0.031420
8.212,54.1000,-0.031420
8.228,54.1000,-0.029003
8.243,54.1000,-0.030211
8.259,54.1000,-0.030211
8.275,54.1000,-0.029003
8.292,54.1000,-0.029003
8.307,54.1000,-0.025377
8.323,54.1000,-0.033837
8.338,54.1000,-0.032628
8.354,54.1000,-0.022961
8.379,54.1000,-0.022961
8.391,54.1000,-0.030211
8.403,54.1000,-0.031420
8.419,54.1000,-0.033837
8.435,54.1000,-0.025377
8.451,54.1000,-0.025377
8.467,54.1000,-0.020544
8.483,54.1000,-0.020544
8.502,54.1000,-0.027794
8.515,54.1000,-0.025377
8.531,54.1000,-0.030211
8.547,54.1000,-0.033837
8.564,54.1000,-0.030211
8.579,54.1000,-0.025377
8.595,54.1000,-0.020544
8.624,54.1000,-0.029003
8.639,54.1000,-0.026586
8.655,54.1000,-0.026586
8.672,54.1000,-0.029003
8.688,54.1000,-0.029003
8.704,54.1000,-0.029003
8.721,54.1000,-0.029003
8.735,54.1000,-0.026586
8.752,54.1000,-0.027794
8.767,54.1000,-0.029003
8.783,54.1000,-0.027794
8.800,54.1000,-0.026586
8.816,54.1000,-0.024169
8.831,54.1000,-0.026586
8.847,54.1000,-0.021752
8.865,54.1000,-0.021752
8.880,54.1000,-0.026586
8.897,54.1000,-0.029003
8.911,54.1000,-0.022961
8.928,54.1000,-0.029003
8.945,54.1000,-0.022961
8.959,54.1000,-0.021752
8.976,54.1000,-0.021752
8.994,54.1000,-0.022961
9.007,54.1000,-0.022961
9.024,54.1000,-0.025377
9.039,54.1000,-0.025377
9.058,54.1000,-0.022961
9.072,54.1000,-0.021752
9.087,54.1000,-0.021752
9.103,54.1000,-0.024169
9.121,54.1000,-0.025377
9.135,54.1000,-0.024169
9.153,54.1000,-0.025377
9.176,54.1000,-0.025377
9.192,54.1000,-0.018127
9.209,54.1000,-0.020544
9.224,54.1000,-0.029003
9.242,54.1000,-0.031420
9.256,54.1000,-0.024169
9.273,54.1000,-0.027794
9.289,54.1000,-0.027794
9.305,54.1000,-0.021752
9.321,54.1000,-0.024169
9.336,54.1000,-0.025377
9.353,54.1000,-0.022961
9.369,54.1000,-0.021752
9.385,54.1000,-0.026586
9.400,54.1000,-0.026586
9.416,54.1000,-0.027794
9.432,54.1000,-0.022961
9.448,54.1000,-0.027794
9.465,54.1000,-0.031420
9.480,54.1000,-0.026586
9.496,54.1000,-0.026586
9.512,54.1000,-0.026586
9.529,54.1000,-0.026586
9.545,54.1000,-0.026586
9.562,54.1000,-0.020544
9.576,54.1000,-0.027794
9.593,54.1000,-0.026586
9.609,54.1000,-0.025377
9.625,54.1000,-0.026586
9.640,54.1000,-0.026586
9.657,54.1000,-0.026586
9.672,54.1000,-0.022961
9.689,54.1000,-0.029003
9.718,54.1000,-0.029003
9.734,54.1000,-0.026586
9.750,54.1000,-0.026586
9.766,54.1000,-0.025377
9.783,54.1000,-0.026586
9.799,54.1000,-0.029003
9.814,54.1000,-0.027794
9.830,54.1000,-0.029003
9.847,54.1000,-0.020544
9.863,54.1000,-0.021752
9.878,54.1000,-0.021752
9.894,54.1000,-0.026586
9.912,54.1000,-0.026586
9.926,54.1000,-0.027794
9.943,54.1000,-0.030211
9.959,54.1000,-0.030211
9.975,54.1000,-0.026586
9.991,54.1000,-0.027794
10.006,54.1000,-0.029003
10.022,54.1000,-0.026586
10.038,54.1000,-0.024169
10.054,54.1000,-0.025377
10.070,54.1000,-0.025377
10.087,54.1000,-0.029003
10.102,54.1000,-0.025377
10.118,54.1000,-0.024169
10.134,54.1000,-0.025377
10.150,54.1000,-0.029003
10.166,54.1000,-0.022961
10.182,54.1000,-0.029003
10.199,54.1000,-0.029003
10.215,54.1000,-0.024169
10.241,54.1000,-0.026586
10.258,54.1000,-0.025377
10.274,54.1000,-0.027794
10.290,54.1000,-0.027794
10.307,54.1000,-0.032628
10.323,54.1000,-0.024169
10.338,54.1000,-0.024169
10.354,54.1000,-0.027794
10.370,54.1000,-0.027794
10.386,54.1000,-0.021752
10.404,54.1000,-0.024169
10.418,54.1000,-0.025377
10.435,54.1000,-0.030211
10.450,54.1000,-0.030211
10.467,54.1000,-0.029003
10.482,54.1000,-0.027794
10.497,54.1000,-0.025377
10.514,54.1000,-0.025377
10.530,54.1000,-0.022961
10.546,54.1000,-0.027794
10.562,54.1000,-0.026586
10.578,54.1000,-0.022961
10.594,54.1000,-0.024169
10.613,54.1000,-0.026586
10.627,54.1000,-0.024169
10.642,54.1000,-0.027794
10.658,54.1000,-0.032628
10.675,54.1000,-0.029003
10.689,54.1000,-0.026586
10.706,54.1000,-0.030211
10.723,54.1000,-0.026586
10.737,54.1000,-0.019335
10.754,54.1000,-0.024169
10.769,54.1000,-0.024169
10.786,54.1000,-0.025377
10.801,54.1000,-0.027794
10.818,54.1000,-0.027794
10.833,54.1000,-0.027794
10.850,54.1000,-0.027794
10.865,54.1000,-0.024169
10.883,54.1000,-0.025377
10.899,54.1000,-0.025377
10.916,54.1000,-0.031420
10.929,54.1000,-0.027794
10.946,54.1000,-0.025377
10.961,54.1000,-0.020544
10.981,54.1000,-0.020544
10.993,54.1000,-0.029003
11.009,54.1000,-0.030211
11.025,54.1000,-0.029003
11.044,54.1000,-0.020544
11.057,54.1000,-0.021752
11.073,54.1000,-0.024169
11.089,54.1000,-0.024169
11.105,54.1000,-0.029003
11.122,54.1000,-0.027794
11.138,54.1000,-0.031420
11.154,54.0577,0.045921
11.169,53.9289,0.045921
11.185,53.7967,0.001208
11.202,53.6545,0.064048
11.218,53.5273,0.064048
11.234,53.3935,0.090634
11.249,53.2653,0.109969
11.266,53.1282,0.141388
11.281,52.9927,0.147431
11.297,52.8605,0.192143
11.319,52.6834,0.210270
11.335,52.5487,0.229605
11.351,52.4124,0.252566
11.367,52.2852,0.261025
11.384,52.1406,0.267067
11.400,52.0101,0.267067
11.416,51.8820,0.269484
11.431,51.7524,0.236856
11.447,51.6184,0.236856
11.464,51.4813,0.164349
11.479,51.3533,0.111177
11.496,51.2145,0.018127
11.513,51.0698,0.006042
11.527,50.9543,0.008459
11.544,50.8120,0.004834
11.559,50.6890,0.007251
11.576,50.5485,0.009668
11.592,50.4171,0.009668
11.607,50.2900,0.013293
11.624,50.1520,0.010876
11.639,50.0206,0.001208
11.655,49.8918,0.002417
11.671,49.7580,0.007251
11.687,49.6249,0.009668
11.703,49.4919,0.009668
11.721,49.3414,0.007251
11.735,49.2242,0.007251
11.752,49.0903,0.002417
11.768,48.9482,0.002417
11.783,48.8234,0.004834
11.800,48.6914,0.008459
11.816,48.5533,0.007251
11.834,48.4036,0.001208
11.858,48.2041,0.004834
11.875,48.0699,0.003625
11.890,48.0500,0.003625
11.906,48.0500,-0.047129
11.923,48.0500,-0.002417
11.938,48.0500,-0.002417
11.956,48.0500,0.001208
11.970,48.0500,0.009668
11.987,48.0500,-0.001208
12.002,48.0500,0.008459
12.018,48.0500,0.003625
12.034,48.0500,0.009668
12.050,48.0500,0.003625
12.066,48.0500,0.006042
12.084,48.0500,0.001208
12.098,48.0500,0.004834
12.114,48.0500,0.008459
12.130,48.0500,0.008459
12.149,48.0500,0.000000
12.162,48.0500,0.002417
12.178,48.0500,0.003625
12.194,48.0500,-0.003625
12.210,48.0500,-0.003625
12.226,48.0500,0.001208
12.242,48.0500,0.007251
12.258,48.0500,0.004834
12.275,48.0500,0.003625
12.291,48.0500,0.007251
12.306,48.0500,0.007251
12.323,48.0560,0.003625
12.338,48.1731,-0.109969
12.354,48.3051,0.006042
12.370,48.4357,0.007251
12.386,48.5680,-0.004834
12.402,48.7009,-0.003625
12.418,48.8331,0.002417
12.434,48.9653,-0.007251
12.451,49.1066,-0.007251
12.466,49.2388,0.001208
12.483,49.3793,0.003625
12.498,49.4974,0.001208
12.514,49.6328,0.003625
12.530,49.7675,0.000000
12.546,49.9015,-0.004834
12.564,50.0485,0.000000
12.578,50.1641,0.000000
12.594,50.2988,0.006042
12.610,50.4277,0.006042
12.627,50.5723,0.001208
12.643,50.7061,0.000000
12.658,50.8309,0.001208
12.674,50.9597,-0.002417
12.691,51.1003,-0.003625
12.707,51.2357,-0.001208
12.722,51.3605,-0.002417
12.738,51.4918,-0.002417
12.758,51.6638,-0.003625
12.770,51.7603,0.001208
12.786,51.8933,-0.006042
12.802,52.0239,-0.003625
12.818,52.1577,0.000000
12.834,52.2965,-0.004834
12.850,52.4221,-0.004834
12.866,52.5551,-0.010876
12.882,52.6922,-0.013293
12.897,52.8260,-0.012084
12.914,52.9616,-0.022961
12.937,53.1462,-0.016918
12.953,53.2825,-0.021752
12.969,53.4155,-0.029003
12.984,53.5435,-0.042296
13.001,53.6782,-0.060422
13.017,53.8171,-0.060422
13.036,53.9750,-0.090634
13.049,54.0499,-0.095467
13.066,54.0500,-0.014501
13.080,54.0500,-0.067673
13.097,54.0500,-0.093050
13.113,54.0500,-0.083383
13.128,54.0500,-0.083383
13.145,54.0500,-0.080966
13.161,54.0500,-0.080966
13.177,54.0500,-0.071298
13.193,54.0500,-0.072507
13.209,54.0500,-0.072507
13.224,54.0500,-0.073715
13.240,54.0500,-0.064048
13.256,54.0500,-0.067673
13.272,54.0500,-0.064048
13.288,54.0500,-0.066465
13.305,54.0500,-0.055589
13.321,54.0500,-0.058005
13.337,54.0500,-0.058005
13.353,54.0500,-0.061631
13.368,54.0500,-0.061631
13.384,54.0500,-0.056797
13.400,54.0500,-0.055589
13.417,54.0500,-0.055589
13.433,54.0500,-0.058005
13.448,54.0500,-0.051963
13.475,54.0500,-0.055589
13.491,54.0500,-0.053172
13.507,54.0500,-0.051963
13.523,54.0500,-0.053172
13.540,54.0500,-0.053172
13.554,54.0500,-0.055589
13.571,54.0500,-0.049546
13.587,54.0500,-0.051963
13.603,54.0500,-0.049546
13.619,54.0500,-0.045921
13.634,54.0500,-0.048338
13.650,54.0500,-0.045921
13.667,54.0500,-0.050755
13.682,54.0500,-0.042296
13.700,54.0500,-0.042296
13.715,54.0500,-0.045921
13.731,54.0500,-0.045921
13.746,54.0500,-0.047129
13.762,54.0500,-0.049546
13.778,54.0500,-0.043504
13.794,54.0500,-0.053172
13.811,54.0500,-0.045921
13.826,54.0500,-0.047129
13.843,54.0500,-0.045921
13.858,54.0500,-0.045921
13.875,54.0500,-0.045921
13.891,54.0500,-0.048338
13.907,54.0500,-0.043504
13.922,54.0500,-0.038670
13.938,54.0500,-0.047129
13.954,54.0500,-0.047129
13.970,54.0500,-0.043504
13.986,54.0500,-0.043504
14.002,54.0500,-0.042296
14.018,54.0500,-0.042296
14.034,54.0500,-0.042296
14.050,54.0500,-0.042296
14.068,54.0500,-0.044713
14.082,54.0500,-0.039879
14.098,54.0500,-0.039879
14.114,54.0500,-0.038670
14.131,54.0500,-0.038670
14.147,54.0500,-0.043504
14.162,54.0500,-0.042296
14.178,54.0500,-0.042296
14.194,54.0500,-0.042296
14.210,54.0500,-0.042296
14.226,54.0500,-0.038670
14.247,54.0500,-0.044713
14.258,54.0500,-0.044713
14.274,54.0500,-0.041087
14.290,54.0500,-0.043504
14.307,54.0500,-0.038670
14.322,54.0500,-0.038670
14.338,54.0500,-0.035045
14.354,54.0500,-0.039879
14.372,54.0500,-0.039879
14.386,54.0500,-0.042296
14.402,54.0500,-0.037462
14.418,54.0500,-0.037462
14.435,54.0500,-0.032628
14.450,54.0500,-0.032628
14.466,54.0500,-0.032628
14.482,54.0500,-0.048338
14.498,54.0500,-0.048338
14.515,54.0500,-0.039879
14.539,54.0500,-0.035045
14.555,54.0500,-0.038670
14.571,54.0500,-0.033837
14.587,54.0500,-0.039879
14.603,54.0500,-0.036253
14.619,54.0500,-0.036253
14.635,54.0500,-0.038670
14.651,54.0500,-0.041087
14.667,54.0500,-0.045921
14.683,54.0500,-0.035045
14.699,54.0500,-0.041087
14.714,54.0500,-0.035045
14.731,54.0500,-0.033837
14.747,54.0500,-0.036253
14.763,54.0500,-0.036253
14.779,54.0500,-0.037462
14.795,54.0500,-0.032628
14.811,54.0500,-0.032628
14.827,54.0500,-0.032628
14.846,54.0500,-0.033837
14.858,54.0500,-0.036253
14.875,54.0500,-0.043504
14.890,54.0500,-0.042296
14.908,54.0500,-0.037462
14.923,54.0500,-0.033837
14.938,54.0500,-0.037462
14.955,54.0500,-0.036253
14.973,54.0500,-0.035045
14.987,54.0500,-0.035045
15.003,54.0500,-0.033837
15.019,54.0500,-0.037462
15.038,54.0500,-0.037462
15.051,54.0500,-0.044713
15.066,54.0500,-0.032628
15.082,54.0500,-0.029003
15.106,54.0500,-0.031420
15.122,54.0500,-0.041087
15.138,54.0500,-0.039879
15.154,54.0500,-0.039879
15.170,54.0500,-0.033837
15.185,54.0500,-0.030211
15.201,54.0500,-0.025377
15.217,54.0500,-0.036253
15.234,54.0500,-0.036253
15.250,54.0500,-0.033837
15.265,54.0500,-0.035045
15.281,54.0500,-0.030211
15.299,54.0500,-0.035045
15.313,54.0500,-0.036253
15.330,54.0500,-0.029003
15.345,54.0500,-0.031420
15.362,54.0500,-0.036253
15.378,54.0500,-0.036253
15.394,54.0500,-0.036253
15.409,54.0500,-0.033837
15.428,54.0500,-0.033837
15.442,54.0500,-0.035045
15.457,54.0500,-0.037462
15.474,54.0500,-0.032628
15.490,54.0500,-0.032628
15.506,54.0500,-0.031420
15.522,54.0500,-0.032628
15.540,54.0500,-0.032628
15.554,54.0500,-0.027794
15.569,54.0500,-0.027794
15.585,54.0500,-0.035045
15.603,54.0500,-0.039879
15.617,54.0500,-0.041087
15.633,54.0500,-0.033837
15.649,54.0500,-0.031420
15.672,54.0500,-0.031420
15.688,54.0500,-0.037462
15.704,54.0500,-0.036253
15.720,54.0500,-0.032628
15.737,54.0500,-0.029003
15.752,54.0500,-0.032628
15.769,54.0500,-0.032628
15.784,54.0500,-0.032628
15.800,54.0500,-0.038670
15.817,54.0500,-0.037462
15.832,54.0500,-0.033837
15.850,54.0500,-0.032628
15.865,54.0500,-0.036253
15.880,54.0500,-0.035045
15.896,54.0500,-0.038670
15.913,54.0500,-0.033837
15.929,54.0500,-0.033837
15.945,54.0500,-0.030211
15.960,54.0500,-0.031420
15.981,54.0500,-0.031420
15.993,54.0500,-0.035045
16.008,54.0500,-0.030211
16.024,54.0500,-0.036253
16.040,54.0500,-0.030211
16.057,54.0500,-0.030211
16.072,54.0500,-0.030211
16.089,54.0500,-0.030211
16.104,54.0500,-0.037462
16.122,54.0500,-0.033837
16.136,54.0500,-0.025377
16.152,54.0500,-0.031420
16.168,54.0500,-0.030211
16.184,54.0500,-0.032628
16.207,54.0500,-0.036253
16.223,54.0500,-0.037462
16.239,54.0500,-0.035045
16.255,54.0500,-0.031420
16.271,54.0500,-0.033837
16.287,54.0500,-0.033837
16.304,54.0500,-0.035045
16.319,54.0500,-0.035045
16.335,54.0500,-0.036253
16.352,54.0500,-0.036253
16.367,54.0500,-0.032628
16.384,54.0500,-0.030211
16.406,54.0500,-0.030211
16.430,54.0500,-0.029003
16.447,54.0500,-0.032628
16.464,54.0500,-0.032628
16.480,54.0500,-0.032628
16.495,54.0500,-0.029003
16.512,54.0500,-0.029003
16.528,54.0500,-0.031420
16.543,54.0500,-0.029003
16.559,54.0500,-0.036253
16.576,54.0500,-0.039879
16.591,54.0500,-0.035045
16.607,54.0500,-0.027794
16.625,54.0500,-0.033837
16.639,54.0500,-0.030211
16.655,54.0500,-0.033837
16.671,54.0500,-0.030211
16.687,54.0500,-0.030211
16.703,54.0500,-0.030211
16.719,54.0500,-0.031420
16.743,54.0500,-0.037462
16.758,54.0500,-0.036253
16.774,54.0500,-0.037462
16.790,54.0500,-0.030211
16.808,54.0500,-0.030211
16.822,54.0500,-0.039879
16.838,54.0500,-0.032628
16.854,54.0500,-0.031420
16.870,54.0500,-0.031420
16.886,54.0500,-0.032628
16.902,54.0500,-0.029003
16.918,54.0500,-0.031420
16.936,54.0500,-0.031420
16.950,54.0500,-0.032628
16.966,54.0500,-0.033837
16.982,54.0500,-0.027794
16.998,54.0500,-0.033837
17.014,54.0500,-0.030211
17.030,54.0500,-0.031420
17.046,54.0500,-0.036253
17.063,54.0500,-0.038670
17.079,54.0500,-0.037462
17.093,54.0500,-0.036253
17.111,54.0500,-0.025377
17.126,54.0500,-0.026586
17.141,54.0500,-0.029003
17.158,54.0500,-0.035045
17.175,54.0500,-0.035045
17.190,54.0500,-0.030211
17.205,54.0500,-0.026586
17.222,54.0500,-0.031420
17.238,54.0500,-0.031420
17.254,54.0500,-0.031420
17.270,54.0500,-0.031420
17.297,54.0500,-0.031420
17.312,54.0500,-0.032628
17.328,54.0500,-0.031420
17.344,54.0500,-0.027794
17.361,54.0500,-0.032628
17.377,54.0500,-0.032628
17.393,54.0500,-0.026586
17.409,54.0500,-0.027794
17.426,54.0500,-0.032628
17.441,54.0500,-0.032628
17.456,54.0500,-0.032628
17.473,54.0500,-0.031420
17.488,54.0500,-0.026586
17.505,54.0500,-0.031420
17.520,54.0500,-0.031420
17.541,54.0500,-0.029003
17.553,54.0500,-0.033837
17.568,54.0500,-0.033837
17.584,54.0500,-0.031420
17.601,54.0500,-0.024169
17.617,54.0500,-0.024169
17.633,54.0500,-0.027794
17.648,54.0500,-0.027794
17.667,54.0500,-0.033837
17.681,54.0500,-0.032628
17.697,54.0500,-0.029003
17.712,54.0500,-0.025377
17.730,54.0500,-0.038670
17.745,54.0500,-0.037462
17.762,54.0500,-0.031420
17.776,54.0500,-0.030211
17.794,54.0500,-0.032628
17.809,54.0500,-0.032628
17.826,54.0500,-0.029003
17.850,54.0500,-0.029003
17.866,54.0500,-0.024169
17.882,54.0500,-0.035045
17.898,54.0500,-0.035045
17.916,54.0500,-0.032628
17.931,54.0500,-0.029003
17.947,54.0500,-0.027794
17.963,54.0500,-0.024169
17.978,54.0500,-0.024169
17.994,54.0500,-0.030211
18.010,54.0500,-0.032628
18.029,54.0500,-0.029003
18.050,54.0500,-0.029003
18.073,54.0500,-0.031420
18.090,54.0500,-0.029003
18.106,54.0500,-0.030211
18.122,54.0500,-0.024169
18.138,54.0500,-0.024169
18.155,54.0500,-0.029003
18.170,54.0500,-0.029003
18.186,54.0500,-0.035045
18.202,54.0500,-0.030211
18.220,54.0500,-0.021752
18.234,54.0500,-0.024169
18.250,54.0500,-0.030211
18.266,54.0500,-0.032628
18.283,54.0500,-0.029003
18.299,54.0500,-0.032628
18.314,54.0500,-0.030211
18.330,54.0500,-0.029003
18.346,54.0500,-0.030211
18.363,54.0500,-0.027794
18.379,54.0500,-0.030211
18.403,54.0500,-0.027794
18.419,54.0500,-0.021752
18.436,54.0500,-0.027794
18.451,54.0500,-0.027794
18.467,54.0500,-0.032628
18.484,54.0500,-0.026586
18.499,54.0500,-0.026586
18.515,54.0500,-0.035045
18.531,54.0500,-0.027794
18.547,54.0500,-0.025377
18.564,54.0500,-0.024169
18.579,54.0500,-0.031420
18.595,54.0500,-0.036253
18.611,54.0500,-0.029003
18.629,54.0500,-0.032628
18.643,54.0500,-0.030211
18.659,54.0500,-0.030211
18.675,54.0500,-0.021752
18.692,54.0500,-0.026586
18.708,54.0500,-0.026586
18.723,54.0500,-0.024169
18.739,54.0500,-0.029003
18.756,54.0500,-0.032628
18.771,54.0500,-0.037462
18.787,54.0500,-0.036253
18.803,54.0500,-0.022961
18.819,54.0500,-0.022961
18.835,54.0500,-0.031420
18.852,54.0500,-0.026586
18.867,54.0500,-0.026586
18.883,54.0500,-0.025377
18.899,54.0500,-0.025377
18.916,54.0500,-0.031420
18.942,54.0500,-0.027794
18.957,54.0500,-0.026586
18.973,54.0500,-0.037462
18.989,54.0500,-0.035045
19.005,54.0500,-0.031420
19.022,54.0500,-0.031420
19.037,54.0500,-0.025377
19.053,54.0500,-0.029003
19.070,54.0500,-0.029003
19.085,54.0500,-0.031420
19.102,54.0500,-0.030211
19.118,54.0500,-0.027794
19.133,54.0500,-0.029003
19.149,54.0500,-0.030211
19.164,54.0500,-0.027794
19.184,54.0500,-0.030211
19.197,54.0500,-0.030211
19.213,54.0500,-0.037462
19.229,54.0500,-0.035045
19.245,54.0500,-0.036253
19.262,54.0500,-0.032628
19.278,54.0500,-0.030211
19.293,54.0500,-0.033837
19.309,54.0500,-0.031420
19.325,54.0500,-0.033837
19.340,54.0500,-0.033837
19.357,54.0500,-0.030211
19.375,54.0500,-0.024169
19.389,54.0500,-0.022961
19.406,54.0500,-0.026586
19.421,54.0500,-0.032628
19.437,54.0500,-0.032628
19.452,54.0500,-0.027794
19.469,54.0500,-0.033837
19.497,54.0500,-0.029003
19.512,54.0500,-0.025377
19.529,54.0500,-0.027794
19.544,54.0500,-0.029003
19.561,54.0500,-0.029003
19.576,54.0500,-0.032628
19.594,54.0500,-0.032628
19.609,54.0500,-0.032628
19.624,54.0500,-0.032628
19.640,54.0500,-0.032628
19.656,54.0500,-0.029003
19.680,54.0500,-0.029003
19.691,54.0500,-0.029003
19.705,54.0500,-0.027794
19.720,54.0500,-0.031420
19.736,54.0500,-0.031420
19.753,54.0500,-0.031420
19.769,54.0500,-0.027794
19.784,54.0500,-0.026586
19.802,54.0500,-0.029003
19.816,54.0500,-0.027794
19.832,54.0500,-0.027794
19.848,54.0500,-0.026586
19.868,54.0500,-0.026586
19.880,54.0500,-0.025377
19.896,54.0500,-0.033837
19.912,54.0500,-0.031420
19.928,54.0500,-0.031420
19.944,54.0500,-0.031420
19.960,54.0500,-0.029003
19.978,54.0500,-0.029003
19.992,54.0500,-0.027794
20.010,54.0500,-0.026586
20.034,54.0500,-0.030211
20.051,54.0500,-0.030211
20.067,54.0500,-0.030211
20.082,54.0500,-0.031420
20.098,54.0500,-0.031420
20.115,54.0500,-0.027794
20.132,54.0500,-0.030211
20.147,54.0500,-0.027794
20.162,54.0500,-0.036253
20.179,54.0500,-0.033837
20.196,54.0500,-0.030211
20.210,54.0500,-0.032628
20.227,54.0500,-0.030211
20.242,54.0500,-0.030211
20.259,54.0500,-0.026586
20.273,54.0500,-0.029003
20.290,54.0500,-0.027794
20.306,54.0500,-0.031420
20.322,54.0500,-0.027794
20.338,54.0500,-0.021752
20.355,54.0500,-0.024169
20.371,54.0500,-0.022961
20.386,54.0500,-0.026586
20.402,54.0500,-0.029003
20.418,54.0500,-0.036253
20.434,54.0500,-0.031420
20.450,54.0500,-0.022961
20.467,54.0500,-0.026586
20.482,54.0500,-0.025377
20.498,54.0500,-0.027794
20.514,54.0500,-0.027794
20.530,54.0500,-0.035045
20.546,54.0500,-0.022961
20.577,54.0500,-0.027794
20.592,54.0500,-0.025377
20.608,54.0500,-0.021752
20.624,54.0500,-0.030211
20.640,54.0500,-0.027794
20.656,54.0500,-0.026586
20.673,54.0500,-0.030211
20.688,54.0500,-0.026586
20.704,54.0500,-0.022961
20.720,54.0500,-0.022961
20.737,54.0500,-0.027794
20.753,54.0500,-0.025377
20.768,54.0500,-0.031420
20.784,54.0500,-0.033837
20.800,54.0500,-0.033837
20.817,54.0500,-0.027794
20.832,54.0500,-0.032628
20.849,54.0500,-0.026586
20.864,54.0500,-0.030211
20.880,54.0500,-0.030211
20.896,54.0500,-0.030211
20.912,54.0500,-0.029003
20.928,54.0500,-0.029003
20.944,54.0500,-0.027794
20.960,54.0500,-0.026586
20.976,54.0500,-0.026586
20.992,54.0500,-0.030211
21.009,54.0500,-0.030211
21.024,54.0500,-0.027794
21.040,54.0500,-0.027794
21.056,54.0500,-0.025377
21.073,54.0500,-0.025377
21.088,54.0500,-0.029003
21.104,54.0500,-0.030211
21.121,54.0500,-0.030211
21.136,54.0500,-0.031420
21.152,54.0500,-0.030211
21.168,54.0500,-0.021752
21.185,54.0500,-0.024169
21.199,54.0500,-0.026586
21.216,54.0500,-0.027794
21.231,54.0500,-0.026586
21.251,54.0500,-0.026586
21.263,54.0500,-0.030211
21.280,54.0500,-0.029003
21.295,54.0500,-0.031420
21.312,54.0500,-0.031420
21.328,54.0500,-0.032628
21.343,54.0500,-0.027794
21.360,54.0500,-0.029003
21.377,54.0500,-0.027794
21.393,54.0500,-0.027794
21.409,54.0500,-0.030211
21.424,54.0500,-0.021752
21.439,54.0500,-0.024169
21.455,54.0500,-0.026586
21.472,54.0500,-0.032628
21.488,54.0500,-0.032628
21.504,54.0500,-0.029003
21.519,54.0500,-0.029003
21.535,54.0500,-0.024169
21.552,54.0500,-0.035045
21.567,54.0500,-0.035045
21.583,54.0500,-0.026586
21.604,54.0500,-0.027794
21.617,54.0500,-0.032628
21.632,54.0500,-0.025377
21.647,54.0500,-0.025377
21.679,54.0500,-0.029003
21.691,54.0500,-0.024169
21.706,54.0500,-0.031420
21.723,54.0500,-0.029003
21.739,54.0500,-0.029003
21.754,54.0500,-0.032628
21.771,54.0500,-0.032628
21.786,54.0500,-0.020544
21.803,54.0500,-0.032628
21.819,54.0500,-0.032628
21.835,54.0500,-0.027794
21.850,54.0500,-0.025377
21.869,54.0500,-0.025377
21.883,54.0500,-0.029003
21.899,54.0500,-0.021752
21.914,54.0500,-0.027794
21.931,54.0500,-0.027794
21.946,54.0500,-0.031420
21.963,54.0500,-0.025377
21.978,54.0500,-0.026586
21.995,54.0500,-0.019335
22.010,54.0500,-0.021752
22.028,54.0500,-0.021752
22.042,54.0500,-0.030211
22.058,54.0500,-0.030211
22.075,54.0500,-0.032628
22.090,54.0500,-0.029003
22.107,54.0500,-0.027794
22.122,54.0500,-0.027794
22.138,54.0500,-0.029003
22.155,54.0500,-0.029003
22.171,54.0500,-0.027794
22.187,54.0500,-0.027794
22.202,54.0500,-0.027794
22.225,54.0500,-0.029003
22.243,54.0500,-0.029003
22.256,54.0500,-0.020544
22.272,54.0500,-0.029003
22.289,54.0500,-0.029003
22.304,54.0500,-0.025377
22.320,54.0500,-0.027794
22.336,54.0500,-0.026586
22.352,54.0500,-0.031420
22.368,54.0500,-0.029003
22.384,54.0500,-0.032628
22.400,54.0500,-0.027794
22.419,54.0500,-0.030211
22.432,54.0500,-0.030211
22.448,54.0500,-0.026586
22.464,54.0500,-0.021752
22.480,54.0500,-0.021752
22.497,54.0500,-0.026586
22.512,54.0500,-0.024169
22.528,54.0500,-0.032628
22.546,54.0500,-0.027794
22.560,54.0500,-0.031420
22.576,54.0500,-0.029003
22.592,54.0500,-0.024169
22.609,54.0500,-0.027794
22.624,54.0500,-0.024169
22.641,54.0500,-0.024169
22.656,54.0500,-0.035045
22.672,54.0500,-0.029003
22.689,54.0500,-0.029003
22.705,54.0500,-0.025377
22.720,54.0500,-0.022961
22.736,54.0500,-0.021752
22.752,54.0500,-0.022961
22.768,54.0500,-0.027794
22.792,54.0500,-0.032628
22.807,54.0500,-0.027794
22.823,54.0500,-0.030211
22.839,54.0500,-0.026586
22.856,54.0500,-0.021752
22.871,54.0500,-0.022961
22.887,54.0500,-0.027794
22.903,54.0500,-0.024169
22.919,54.0500,-0.024169
22.935,54.0500,-0.026586
22.952,54.0500,-0.026586
22.967,54.0500,-0.022961
22.983,54.0500,-0.021752
22.999,54.0500,-0.021752
23.015,54.0500,-0.031420
23.034,54.0500,-0.036253
23.047,54.0500,-0.033837
23.063,54.0500,-0.024169
23.078,54.0500,-0.024169
23.095,54.0500,-0.024169
23.111,54.0500,-0.019335
23.128,54.0500,-0.027794
23.143,54.0500,-0.026586
23.160,54.0500,-0.026586
23.176,54.0500,-0.024169
23.191,54.0500,-0.033837
23.207,54.0500,-0.024169
23.223,54.0500,-0.027794
23.240,54.0500,-0.029003
23.255,54.0500,-0.030211
23.271,54.0500,-0.027794
23.292,54.0500,-0.021752
23.303,54.0500,-0.024169
23.319,54.0500,-0.022961
23.335,54.0500,-0.022961
23.358,54.0500,-0.025377
23.378,54.0500,-0.027794
23.390,54.0500,-0.030211
23.406,54.0500,-0.029003
23.423,54.0500,-0.029003
23.438,54.0500,-0.027794
23.454,54.0500,-0.025377
23.469,54.0500,-0.027794
23.487,54.0500,-0.022961
23.503,54.0500,-0.031420
23.517,54.0500,-0.024169
23.534,54.0500,-0.027794
23.550,54.0500,-0.019335
23.566,54.0500,-0.027794
23.581,54.0500,-0.031420
23.597,54.0500,-0.032628
23.613,54.0500,-0.025377
23.630,54.0500,-0.019335
23.646,54.0500,-0.031420
23.662,54.0500,-0.025377
23.678,54.0500,-0.025377
23.694,54.0500,-0.025377
23.710,54.0500,-0.026586
23.726,54.0500,-0.029003
23.742,54.0500,-0.026586
23.757,54.0500,-0.026586
23.773,54.0500,-0.026586
23.790,54.0500,-0.026586
23.806,54.0500,-0.027794
23.821,54.0500,-0.026586
23.838,54.0500,-0.025377
23.854,54.0500,-0.029003
23.869,54.0500,-0.029003
23.886,54.0500,-0.026586
23.908,54.0500,-0.027794
23.923,54.0500,-0.027794
23.939,54.0500,-0.025377
23.955,54.0500,-0.027794
23.972,54.0500,-0.026586
23.988,54.0500,-0.022961
24.006,54.0500,-0.027794
24.019,54.0500,-0.027794
24.045,54.0500,-0.031420
24.070,54.0500,-0.026586
24.084,54.0500,-0.022961
24.099,54.0500,-0.022961
24.115,54.0500,-0.029003
24.132,54.0500,-0.020544
24.147,54.0500,-0.020544
24.163,54.0500,-0.027794
24.179,54.0500,-0.025377
24.195,54.0500,-0.025377
24.213,54.0500,-0.022961
24.228,54.0500,-0.027794
24.245,54.0500,-0.027794
24.259,54.0500,-0.025377
24.277,54.0500,-0.024169
24.294,54.0500,-0.029003
24.308,54.0500,-0.021752
24.323,54.0500,-0.024169
24.340,54.0500,-0.024169
24.356,54.0500,-0.033837
24.371,54.0500,-0.027794
24.387,54.0500,-0.026586
24.404,54.0500,-0.022961
24.419,54.0500,-0.021752
24.438,54.0500,-0.029003
24.463,54.0500,-0.026586
24.480,54.0500,-0.030211
24.495,54.0500,-0.021752
24.510,54.0500,-0.022961
24.527,54.0500,-0.024169
24.542,54.0500,-0.024169
24.559,54.0500,-0.031420
24.574,54.0500,-0.029003
24.590,54.0500,-0.029003
24.606,54.0500,-0.026586
24.622,54.0500,-0.022961
24.639,54.0493,-0.026586
24.655,53.9405,0.002417
24.671,53.8040,0.001208
24.686,53.6793,0.038670
24.702,53.5377,0.056797
24.719,53.4028,0.056797
24.734,53.2730,0.103926
24.757,53.0729,0.119636
24.767,52.9905,0.146222
24.782,52.8616,0.176433
24.799,52.7208,0.176433
24.817,52.5716,0.222354
24.830,52.4596,0.223563
24.846,52.3213,0.241690
24.862,52.1873,0.233230
24.878,52.0490,0.228397
24.895,51.9090,0.211478
24.910,51.7767,0.192143
24.926,51.6445,0.165557
24.942,51.5062,0.079758
24.958,51.3713,0.030211
24.974,51.2263,0.015710
24.998,51.0328,0.009668
25.013,50.9013,0.013293
25.029,50.7665,0.013293
25.045,50.6359,0.007251
25.062,50.4883,0.010876
25.078,50.3500,0.010876
25.094,50.2203,0.009668
25.109,50.0931,0.009668
25.125,49.9497,0.008459
25.142,49.8097,0.003625
25.157,49.6799,0.007251
25.173,49.5502,0.004834
25.189,49.4085,0.008459
25.205,49.2694,0.009668
25.221,49.1380,0.007251
25.237,49.0081,0.003625
25.254,48.8572,0.000000
25.269,48.7291,0.002417
25.287,48.5688,0.002417
25.301,48.4568,0.006042
25.317,48.3271,0.006042
25.334,48.1820,0.007251
25.349,48.0556,0.006042
25.365,48.0000,-0.090634
25.381,48.0000,0.004834
25.397,48.0000,0.002417
25.413,48.0000,0.004834
25.430,48.0000,0.001208
25.445,48.0000,0.007251
25.462,48.0000,0.009668
25.477,48.0000,0.004834
25.493,48.0000,0.002417
25.509,48.0000,0.009668
25.525,48.0000,0.003625
25.540,48.0000,0.003625
25.557,48.0000,0.000000
25.572,48.0000,0.003625
25.589,48.0000,-0.001208
25.605,48.0000,0.008459
25.621,48.0000,0.004834
25.637,48.0000,0.004834
25.652,48.0000,-0.001208
25.669,48.0000,0.003625
25.686,48.0000,0.003625
25.701,48.0000,0.003625
25.719,48.0000,0.003625
25.732,48.0000,0.007251
25.749,48.0000,0.003625
25.765,48.0000,0.002417
25.780,48.0000,0.007251
25.798,48.0807,-0.066465
25.813,48.2105,-0.080966
25.829,48.3445,-0.007251
25.844,48.4743,0.004834
25.861,48.6151,0.004834
25.877,48.7499,-0.007251
25.894,48.9034,0.002417
25.909,49.0247,-0.001208
25.925,49.1605,0.001208
25.941,49.3004,0.002417
25.957,49.4243,0.008459
25.973,49.5693,0.010876
25.989,49.6999,0.006042
26.005,49.8331,-0.001208
26.020,49.9672,0.007251
26.037,50.1079,0.003625
26.053,50.2462,0.000000
26.070,50.3879,0.002417
26.093,50.5854,-0.001208
26.109,50.7220,0.000000
26.126,50.8620,-0.002417
26.141,50.9917,-0.001208
26.158,51.1360,-0.001208
26.175,51.2818,0.000000
26.191,51.4099,0.004834
26.205,51.5355,0.004834
26.222,51.6814,-0.009668
26.238,51.8129,-0.009668
26.256,51.9757,-0.010876
26.271,52.0928,-0.010876
26.286,52.2252,-0.004834
26.302,52.3531,-0.007251
26.317,52.4855,-0.007251
26.333,52.6262,-0.013293
26.350,52.7586,-0.013293
26.365,52.8909,-0.018127
26.382,53.0369,-0.015710
26.398,53.1700,-0.015710
26.414,53.3082,-0.029003
26.429,53.4338,-0.035045
26.448,53.5959,-0.044713
26.462,53.7086,-0.060422
26.477,53.8460,-0.077341
26.493,53.9756,-0.099093
26.510,54.0001,-0.099093
26.526,54.0001,-0.061631
26.541,54.0001,-0.093050
26.557,54.0001,-0.087008
26.574,54.0001,-0.073715
26.590,54.0001,-0.079758
26.606,54.0001,-0.083383
26.631,54.0001,-0.073715
26.647,54.0001,-0.061631
26.663,54.0001,-0.060422
26.679,54.0001,-0.065256
26.697,54.0001,-0.062839
26.711,54.0001,-0.060422
26.728,54.0001,-0.053172
26.743,54.0001,-0.059214
26.759,54.0001,-0.053172
26.775,54.0001,-0.051963
26.791,54.0001,-0.058005
26.811,54.0001,-0.058005
26.824,54.0001,-0.047129
26.839,54.0001,-0.058005
26.855,54.0001,-0.055589
26.872,54.0001,-0.055589
26.887,54.0001,-0.054380
26.903,54.0001,-0.047129
26.919,54.0001,-0.050755
26.935,54.0001,-0.051963
26.951,54.0001,-0.045921
26.967,54.0001,-0.053172
26.983,54.0001,-0.051963
26.999,54.0001,-0.049546
27.023,54.0001,-0.044713
27.046,54.0001,-0.050755
27.064,54.0001,-0.045921
27.080,54.0001,-0.041087
27.095,54.0001,-0.049546
27.111,54.0001,-0.049546
27.127,54.0001,-0.049546
27.143,54.0001,-0.048338
27.159,54.0001,-0.044713
27.183,54.0001,-0.044713
27.198,54.0001,-0.044713
27.214,54.0001,-0.050755
27.230,54.0001,-0.050755
27.245,54.0001,-0.044713
27.262,54.0001,-0.047129
27.278,54.0001,-0.047129
27.293,54.0001,-0.041087
27.318,54.0001,-0.048338
27.340,54.0001,-0.045921
27.358,54.0001,-0.049546
27.374,54.0001,-0.050755
27.391,54.0001,-0.041087
27.406,54.0001,-0.041087
27.422,54.0001,-0.041087
27.438,54.0001,-0.042296
27.454,54.0001,-0.039879
27.470,54.0001,-0.039879
27.486,54.0001,-0.042296
27.502,54.0001,-0.043504
27.518,54.0001,-0.042296
27.534,54.0001,-0.037462
27.550,54.0001,-0.039879
27.566,54.0001,-0.041087
27.582,54.0001,-0.048338
27.598,54.0001,-0.045921
27.614,54.0001,-0.039879
27.629,54.0001,-0.039879
27.646,54.0001,-0.041087
27.661,54.0001,-0.039879
27.678,54.0001,-0.038670
27.693,54.0001,-0.036253
27.710,54.0001,-0.035045
27.726,54.0001,-0.044713
27.748,54.0001,-0.041087
27.763,54.0001,-0.037462
27.779,54.0001,-0.037462
27.795,54.0001,-0.039879
27.812,54.0001,-0.037462
27.827,54.0001,-0.037462
27.845,54.0001,-0.043504
27.860,54.0001,-0.038670
27.875,54.0001,-0.039879
27.892,54.0001,-0.036253
27.907,54.0001,-0.036253
27.924,54.0001,-0.039879
27.939,54.0001,-0.043504
27.955,54.0001,-0.042296
27.971,54.0001,-0.041087
27.994,54.0001,-0.041087
28.004,54.0001,-0.038670
28.019,54.0001,-0.038670
28.036,54.0001,-0.038670
28.052,54.0001,-0.041087
28.068,54.0001,-0.041087
28.084,54.0001,-0.033837
28.099,54.0001,-0.039879
28.118,54.0001,-0.039879
28.132,54.0001,-0.035045
28.148,54.0001,-0.036253
28.163,54.0001,-0.037462
28.179,54.0001,-0.037462
28.196,54.0001,-0.035045
28.211,54.0001,-0.033837
28.229,54.0001,-0.033837
28.244,54.0001,-0.035045
28.259,54.0001,-0.041087
28.275,54.0001,-0.033837
28.298,54.0001,-0.032628
28.313,54.0001,-0.032628
28.329,54.0001,-0.032628
28.345,54.0001,-0.038670
28.365,54.0001,-0.036253
28.380,54.0001,-0.036253
28.393,54.0001,-0.037462
28.409,54.0001,-0.037462
28.426,54.0001,-0.029003
28.442,54.0001,-0.033837
28.457,54.0001,-0.037462
28.473,54.0001,-0.032628
28.490,54.0001,-0.032628
28.505,54.0001,-0.030211
28.521,54.0001,-0.038670
28.539,54.0001,-0.038670
28.553,54.0001,-0.033837
28.569,54.0001,-0.033837
28.585,54.0001,-0.031420
28.602,54.0001,-0.031420
28.617,54.0001,-0.031420
28.633,54.0001,-0.033837
28.650,54.0001,-0.033837
28.667,54.0001,-0.035045
28.681,54.0001,-0.027794
28.697,54.0001,-0.032628
28.713,54.0001,-0.039879
28.730,54.0001,-0.039879
28.745,54.0001,-0.038670
28.763,54.0001,-0.035045
28.777,54.0001,-0.027794
28.794,54.0001,-0.031420
28.809,54.0001,-0.035045
28.831,54.0001,-0.037462
28.847,54.0001,-0.036253
28.863,54.0001,-0.035045
28.879,54.0001,-0.030211
28.895,54.0001,-0.035045
28.911,54.0001,-0.033837
28.929,54.0001,-0.031420
28.943,54.0001,-0.032628
28.959,54.0001,-0.039879
28.975,54.0001,-0.035045
28.991,54.0001,-0.031420
29.012,54.0001,-0.031420
29.024,54.0001,-0.031420
29.040,54.0001,-0.031420
29.058,54.0001,-0.031420
29.072,54.0001,-0.037462
29.087,54.0001,-0.033837
29.104,54.0001,-0.029003
29.119,54.0001,-0.031420
29.136,54.0001,-0.027794
29.151,54.0001,-0.029003
29.168,54.0001,-0.031420
29.183,54.0001,-0.031420
29.199,54.0001,-0.035045
29.216,54.0001,-0.033837
29.231,54.0001,-0.030211
29.247,54.0001,-0.036253
29.265,54.0001,-0.030211
29.279,54.0001,-0.031420
29.295,54.0001,-0.036253
29.311,54.0001,-0.036253
29.327,54.0001,-0.037462
29.344,54.0001,-0.037462
29.362,54.0001,-0.029003
29.387,54.0001,-0.025377
29.402,54.0001,-0.032628
29.418,54.0001,-0.032628
29.434,54.0001,-0.036253
29.451,54.0001,-0.032628
29.466,54.0001,-0.032628
29.485,54.0001,-0.032628
29.499,54.0001,-0.032628
29.514,54.0001,-0.033837
29.531,54.0001,-0.031420
29.545,54.0001,-0.029003
29.562,54.0001,-0.025377
29.578,54.0001,-0.029003
29.594,54.0001,-0.032628
29.610,54.0001,-0.026586
29.626,54.0001,-0.035045
29.643,54.0001,-0.039879
29.660,54.0001,-0.036253
29.675,54.0001,-0.031420
29.690,54.0001,-0.029003
29.706,54.0001,-0.032628
29.722,54.0001,-0.032628
29.737,54.0001,-0.031420
29.754,54.0001,-0.030211
29.770,54.0001,-0.031420
29.786,54.0001,-0.033837
29.802,54.0001,-0.029003
29.817,54.0001,-0.029003
29.834,54.0001,-0.027794
29.850,54.0001,-0.035045
29.865,54.0001,-0.037462
29.882,54.0001,-0.033837
29.900,54.0001,-0.031420
29.924,54.0001,-0.032628
29.939,54.0001,-0.029003
29.956,54.0001,-0.030211
29.972,54.0001,-0.031420
29.988,54.0001,-0.031420
30.004,54.0001,-0.026586
30.019,54.0001,-0.029003
30.036,54.0001,-0.036253
30.052,54.0001,-0.035045
30.068,54.0001,-0.032628
30.083,54.0001,-0.027794
30.100,54.0001,-0.027794
30.115,54.0001,-0.029003
30.132,54.0001,-0.033837
30.147,54.0001,-0.033837
30.164,54.0001,-0.036253
30.179,54.0001,-0.036253
30.195,54.0001,-0.029003
30.215,54.0001,-0.032628
30.228,54.0001,-0.035045
30.243,54.0001,-0.031420
30.260,54.0001,-0.035045
30.277,54.0001,-0.027794
30.292,54.0001,-0.029003
30.308,54.0001,-0.031420
30.323,54.0001,-0.035045
30.340,54.0001,-0.033837
30.357,54.0001,-0.030211
30.372,54.0001,-0.032628
30.387,54.0001,-0.032628
30.404,54.0001,-0.026586
30.419,54.0001,-0.026586
30.436,54.0001,-0.029003
30.463,54.0001,-0.030211
30.479,54.0001,-0.029003
30.495,54.0001,-0.031420
30.511,54.0001,-0.029003
30.530,54.0001,-0.033837
30.544,54.0001,-0.031420
30.560,54.0001,-0.030211
30.575,54.0001,-0.029003
30.592,54.0001,-0.027794
30.609,54.0001,-0.026586
30.624,54.0001,-0.024169
30.639,54.0001,-0.030211
30.657,54.0001,-0.026586
30.672,54.0001,-0.035045
30.687,54.0001,-0.035045
30.703,54.0001,-0.027794
30.720,54.0001,-0.032628
30.735,54.0001,-0.031420
30.751,54.0001,-0.031420
30.768,54.0001,-0.036253
30.784,54.0001,-0.033837
30.799,54.0001,-0.031420
30.815,54.0001,-0.029003
30.831,54.0001,-0.030211
30.847,54.0001,-0.025377
30.863,54.0001,-0.027794
30.879,54.0001,-0.026586
30.896,54.0001,-0.025377
30.911,54.0001,-0.025377
30.927,54.0001,-0.029003
30.943,54.0001,-0.030211
30.959,54.0001,-0.025377
30.975,54.0001,-0.025377
30.991,54.0001,-0.031420
31.014,54.0001,-0.039879
31.030,54.0001,-0.035045
31.046,54.0001,-0.031420
31.062,54.0001,-0.030211
31.078,54.0001,-0.026586
31.094,54.0001,-0.026586
31.112,54.0001,-0.035045
31.126,54.0001,-0.030211
31.143,54.0001,-0.030211
31.158,54.0001,-0.031420
31.175,54.0001,-0.026586
31.190,54.0001,-0.029003
31.207,54.0001,-0.027794
31.222,54.0001,-0.033837
31.238,54.0001,-0.031420
31.254,54.0001,-0.038670
31.271,54.0001,-0.038670
31.286,54.0001,-0.031420
31.304,54.0001,-0.032628
31.317,54.0001,-0.032628
31.334,54.0001,-0.031420
31.350,54.0001,-0.031420
31.366,54.0001,-0.032628
31.381,54.0001,-0.025377
31.398,54.0001,-0.025377
31.414,54.0001,-0.032628
31.430,54.0001,-0.031420
31.446,54.0001,-0.025377
31.463,54.0001,-0.025377
31.478,54.0001,-0.029003
31.494,54.0001,-0.031420
31.512,54.0001,-0.031420
31.526,54.0001,-0.031420
31.542,54.0001,-0.027794
31.558,54.0001,-0.033837
31.574,54.0001,-0.037462
31.590,54.0001,-0.035045
31.606,54.0001,-0.037462
31.622,54.0001,-0.027794
31.638,54.0001,-0.027794
31.655,54.0001,-0.022961
31.671,54.0001,-0.026586
31.686,54.0001,-0.022961
31.702,54.0001,-0.020544
31.718,54.0001,-0.020544
31.735,54.0001,-0.030211
31.750,54.0001,-0.030211
31.766,54.0001,-0.025377
31.782,54.0001,-0.029003
31.798,54.0001,-0.027794
31.817,54.0001,-0.026586
31.832,54.0001,-0.031420
31.846,54.0001,-0.026586
31.863,54.0001,-0.027794
31.878,54.0001,-0.027794
31.894,54.0001,-0.025377
31.910,54.0001,-0.030211
31.925,54.0001,-0.030211
31.942,54.0001,-0.030211
31.958,54.0001,-0.024169
31.974,54.0001,-0.033837
31.990,54.0001,-0.030211
32.008,54.0001,-0.029003
32.022,54.0001,-0.027794
32.037,54.0001,-0.025377
32.053,54.0001,-0.027794
32.070,54.0001,-0.027794
32.086,54.0001,-0.029003
32.102,54.0001,-0.031420
32.129,54.0001,-0.031420
32.146,54.0001,-0.029003
32.161,54.0001,-0.035045
32.177,54.0001,-0.031420
32.195,54.0001,-0.035045
32.210,54.0001,-0.032628
32.226,54.0001,-0.033837
32.242,54.0001,-0.024169
32.258,54.0001,-0.024169
32.274,54.0001,-0.026586
32.290,54.0001,-0.026586
32.305,54.0001,-0.030211
32.321,54.0001,-0.030211
32.337,54.0001,-0.032628
32.353,54.0001,-0.030211
32.372,54.0001,-0.026586
32.387,54.0001,-0.032628
32.402,54.0001,-0.035045
32.417,54.0001,-0.030211
32.434,54.0001,-0.033837
32.450,54.0001,-0.033837
32.469,54.0001,-0.030211
32.481,54.0001,-0.029003
32.497,54.0001,-0.024169
32.514,54.0001,-0.021752
32.529,54.0001,-0.027794
32.545,54.0001,-0.030211
32.563,54.0001,-0.027794
32.578,54.0001,-0.024169
32.593,54.0001,-0.029003
32.609,54.0001,-0.035045
32.626,54.0001,-0.024169
32.642,54.0001,-0.025377
32.657,54.0001,-0.038670
32.685,54.0001,-0.033837
32.701,54.0001,-0.030211
32.716,54.0001,-0.024169
32.732,54.0001,-0.031420
32.749,54.0001,-0.031420
32.766,54.0001,-0.032628
32.780,54.0001,-0.033837
32.796,54.0001,-0.025377
32.813,54.0001,-0.025377
32.828,54.0001,-0.025377
32.845,54.0001,-0.022961
32.860,54.0001,-0.030211
32.876,54.0001,-0.026586
32.892,54.0001,-0.031420
32.908,54.0001,-0.031420
32.925,54.0001,-0.032628
32.940,54.0001,-0.026586
32.956,54.0001,-0.024169
32.972,54.0001,-0.026586
32.989,54.0001,-0.026586
33.004,54.0001,-0.024169
33.021,54.0001,-0.022961
33.036,54.0001,-0.025377
33.053,54.0001,-0.025377
33.068,54.0001,-0.032628
33.084,54.0001,-0.030211
33.100,54.0001,-0.026586
33.117,54.0001,-0.021752
33.132,54.0001,-0.026586
33.148,54.0001,-0.021752
33.164,54.0001,-0.033837
33.180,54.0001,-0.033837
33.197,54.0001,-0.030211
33.215,54.0001,-0.027794
33.238,54.0001,-0.027794
33.254,54.0001,-0.030211
33.270,54.0001,-0.027794
33.286,54.0001,-0.024169
33.305,54.0001,-0.031420
33.318,54.0001,-0.030211
33.334,54.0001,-0.029003
33.350,54.0001,-0.030211
33.366,54.0001,-0.032628
33.383,54.0001,-0.033837
33.398,54.0001,-0.033837
33.414,54.0001,-0.025377
33.430,54.0001,-0.025377
33.446,54.0001,-0.021752
33.462,54.0001,-0.029003
33.478,54.0001,-0.030211
33.497,54.0001,-0.030211
33.510,54.0001,-0.029003
33.526,54.0001,-0.026586
33.543,54.0001,-0.030211
33.558,54.0001,-0.030211
33.574,54.0001,-0.027794
33.590,54.0001,-0.027794
33.606,54.0001,-0.024169
33.622,54.0001,-0.025377
33.640,54.0001,-0.026586
33.655,54.0001,-0.029003
33.671,54.0001,-0.025377
33.686,54.0001,-0.030211
33.702,54.0001,-0.024169
33.718,54.0001,-0.025377
33.734,54.0001,-0.026586
33.750,54.0001,-0.037462
33.780,54.0001,-0.021752
33.796,54.0001,-0.024169
33.812,54.0001,-0.021752
33.828,54.0001,-0.022961
33.845,54.0001,-0.033837
33.861,54.0001,-0.026586
33.879,54.0001,-0.022961
33.892,54.0001,-0.026586
33.909,54.0001,-0.029003
33.924,54.0001,-0.021752
33.940,54.0001,-0.021752
33.956,54.0001,-0.031420
33.971,54.0001,-0.024169
33.987,54.0001,-0.024169
34.003,54.0001,-0.025377
34.021,54.0001,-0.025377
34.036,54.0001,-0.027794
34.051,54.0001,-0.025377
34.067,54.0001,-0.025377
34.084,54.0001,-0.024169
34.101,54.0001,-0.029003
34.115,54.0001,-0.027794
34.132,54.0001,-0.033837
34.148,54.0001,-0.031420
34.164,54.0001,-0.031420
34.179,54.0001,-0.031420
34.196,54.0001,-0.024169
34.212,54.0001,-0.025377
34.227,54.0001,-0.025377
34.243,54.0001,-0.022961
34.260,54.0001,-0.026586
34.276,54.0001,-0.024169
34.292,54.0001,-0.024169
34.308,54.0001,-0.022961
34.332,54.0001,-0.026586
34.348,54.0001,-0.030211
34.365,54.0001,-0.025377
34.380,54.0001,-0.025377
34.396,54.0001,-0.026586
34.413,54.0001,-0.025377
34.428,54.0001,-0.024169
34.444,54.0001,-0.026586
34.463,54.0001,-0.026586
34.476,54.0001,-0.035045
34.492,54.0001,-0.029003
34.508,54.0001,-0.031420
34.526,54.0001,-0.021752
34.541,54.0001,-0.031420
34.558,54.0001,-0.031420
34.573,54.0001,-0.025377
34.589,54.0001,-0.025377
34.605,54.0001,-0.027794
34.620,54.0001,-0.029003
34.644,54.0001,-0.029003
34.666,54.0001,-0.032628
34.686,54.0001,-0.030211
34.701,54.0001,-0.027794
34.717,54.0001,-0.020544
34.733,54.0001,-0.024169
34.748,54.0001,-0.022961
34.771,54.0001,-0.024169
34.792,54.0001,-0.025377
34.813,54.0001,-0.029003
34.829,54.0001,-0.024169
34.845,54.0001,-0.022961
34.860,54.0001,-0.026586
34.892,54.0001,-0.030211
34.908,54.0001,-0.027794
34.923,54.0001,-0.033837
34.940,54.0001,-0.029003
34.956,54.0001,-0.031420
34.972,54.0001,-0.026586
34.987,54.0001,-0.030211
35.003,54.0001,-0.025377
35.019,54.0001,-0.025377
35.035,54.0001,-0.022961
35.051,54.0001,-0.029003
35.067,54.0001,-0.029003
35.085,54.0001,-0.029003
35.100,54.0001,-0.026586
35.115,54.0001,-0.018127
35.131,54.0001,-0.026586
35.147,54.0001,-0.030211
35.163,54.0001,-0.033837
35.181,54.0001,-0.021752
35.195,54.0001,-0.024169
35.211,54.0001,-0.022961
35.227,54.0001,-0.026586
35.245,54.0001,-0.026586
35.260,54.0001,-0.022961
35.276,54.0001,-0.024169
35.291,54.0001,-0.021752
35.309,54.0001,-0.024169
35.323,54.0001,-0.027794
35.339,54.0001,-0.027794
35.355,54.0001,-0.024169
35.372,54.0001,-0.027794
35.387,54.0001,-0.025377
35.404,54.0001,-0.032628
35.433,54.0001,-0.024169
35.449,54.0001,-0.021752
35.465,54.0001,-0.029003
35.481,54.0001,-0.029003
35.497,54.0001,-0.026586
35.514,54.0001,-0.025377
35.529,54.0001,-0.032628
35.545,54.0001,-0.029003
35.561,54.0001,-0.024169
35.578,54.0001,-0.024169
35.594,54.0001,-0.016918
35.609,54.0001,-0.016918
35.625,54.0001,-0.024169
35.641,54.0001,-0.036253
35.657,54.0001,-0.027794
35.674,54.0001,-0.021752
35.689,54.0001,-0.026586
35.705,54.0001,-0.016918
35.721,54.0001,-0.027794
35.737,54.0001,-0.032628
35.753,54.0001,-0.026586
35.769,54.0001,-0.025377
35.785,54.0001,-0.026586
35.802,54.0001,-0.026586
35.817,54.0001,-0.026586
35.833,54.0001,-0.031420
35.849,54.0001,-0.030211
35.865,54.0001,-0.030211
35.882,54.0001,-0.020544
35.897,54.0001,-0.031420
35.913,54.0001,-0.029003
35.929,54.0001,-0.029003
35.945,54.0001,-0.025377
35.962,54.0001,-0.031420
35.987,54.0001,-0.031420
36.003,54.0001,-0.031420
36.019,54.0001,-0.031420
36.035,54.0001,-0.030211
36.051,54.0001,-0.024169
36.067,54.0001,-0.025377
36.082,54.0001,-0.024169
36.099,54.0001,-0.024169
36.116,54.0001,-0.030211
36.131,54.0001,-0.030211
36.146,54.0001,-0.029003
36.163,54.0001,-0.025377
36.179,54.0001,-0.025377
36.195,54.0001,-0.027794
36.212,54.0001,-0.032628
36.227,54.0001,-0.032628
36.243,54.0001,-0.022961
36.258,54.0001,-0.027794
36.275,54.0001,-0.025377
36.290,54.0001,-0.025377
36.307,54.0001,-0.019335
36.323,54.0001,-0.029003
36.339,54.0001,-0.029003
36.354,54.0001,-0.024169
36.370,54.0001,-0.020544
36.387,54.0001,-0.025377
36.407,54.0001,-0.025377
36.419,54.0001,-0.027794
36.434,54.0001,-0.026586
36.450,54.0001,-0.025377
36.468,54.0001,-0.025377
36.483,54.0001,-0.022961
36.498,54.0001,-0.027794
36.529,54.0001,-0.027794
36.544,54.0001,-0.020544
36.560,54.0001,-0.018127
36.575,54.0001,-0.026586
36.592,54.0001,-0.026586
36.607,54.0001,-0.029003
36.623,54.0001,-0.030211
36.639,54.0001,-0.030211
36.655,54.0001,-0.022961
36.671,54.0001,-0.021752
36.688,54.0001,-0.021752
36.703,54.0001,-0.022961
36.723,54.0001,-0.022961
36.736,54.0001,-0.030211
36.751,54.0001,-0.025377
36.769,54.0001,-0.025377
36.784,54.0001,-0.026586
36.799,54.0001,-0.022961
36.816,54.0001,-0.025377
36.832,54.0001,-0.029003
36.849,54.0001,-0.025377
36.864,54.0001,-0.027794
36.879,54.0001,-0.026586
36.895,54.0001,-0.030211
36.911,54.0001,-0.026586
36.927,54.0001,-0.026586
36.944,54.0001,-0.025377
36.959,54.0001,-0.024169
36.976,54.0001,-0.025377
36.992,54.0001,-0.026586
37.010,54.0001,-0.026586
37.023,54.0001,-0.026586
37.040,54.0001,-0.026586
37.056,54.0001,-0.026586
37.073,54.0001,-0.025377
37.097,54.0001,-0.031420
37.112,54.0001,-0.027794
37.129,54.0001,-0.027794
37.144,54.0001,-0.026586
37.161,54.0001,-0.029003
37.177,54.0001,-0.029003
37.194,54.0001,-0.024169
37.208,54.0001,-0.024169
37.225,54.0001,-0.022961
37.240,54.0001,-0.024169
37.257,54.0001,-0.020544
37.273,54.0001,-0.025377
37.288,54.0001,-0.025377
37.305,54.0001,-0.027794
37.320,54.0001,-0.029003
37.337,54.0001,-0.020544
37.352,54.0001,-0.020544
37.368,54.0001,-0.021752
37.384,54.0001,-0.026586
37.401,54.0001,-0.026586
37.420,54.0001,-0.027794
37.432,54.0001,-0.025377
37.448,54.0001,-0.025377
37.464,54.0001,-0.027794
37.480,54.0001,-0.029003
37.496,54.0001,-0.025377
37.512,54.0001,-0.026586
37.528,54.0001,-0.029003
37.544,54.0001,-0.027794
37.561,54.0001,-0.027794
37.576,54.0001,-0.027794
37.592,54.0001,-0.025377
37.608,54.0001,-0.026586
37.624,54.0001,-0.022961
37.646,54.0001,-0.022961
37.662,54.0001,-0.024169
37.678,54.0001,-0.030211
37.694,54.0001,-0.026586
37.711,54.0001,-0.022961
37.726,54.0001,-0.025377
37.743,54.0001,-0.027794
37.758,54.0001,-0.025377
37.777,54.0001,-0.029003
37.791,54.0001,-0.033837
37.806,54.0001,-0.027794
37.822,54.0001,-0.024169
37.839,54.0001,-0.024169
37.855,54.0001,-0.029003
37.870,54.0001,-0.024169
37.886,54.0001,-0.027794
37.902,54.0001,-0.021752
37.918,54.0001,-0.021752
37.934,54.0001,-0.018127
37.950,54.0001,-0.029003
37.966,54.0001,-0.024169
37.982,54.0001,-0.026586
37.998,54.0001,-0.019335
38.015,54.0001,-0.027794
38.031,54.0001,-0.026586
38.046,54.0001,-0.024169
38.063,54.0001,-0.027794
38.078,54.0001,-0.022961
38.095,54.0001,-0.022961
38.111,53.9780,-0.025377
38.126,53.8516,0.038670
38.142,53.7149,0.041087
38.171,53.4749,0.070090
38.187,53.3401,0.096676
38.203,53.2010,0.096676
38.219,53.0695,0.128095
38.236,52.9193,0.141388
38.252,52.7845,0.178850
38.267,52.6539,0.178850
38.283,52.5267,0.218729
38.299,52.3866,0.232022
38.315,52.2552,0.263442
38.331,52.1169,0.293653
38.349,51.9600,0.293653
38.362,51.8480,0.292444
38.379,51.7081,0.300903
38.395,51.5758,0.298487
38.410,51.4401,0.283985
38.426,51.3060,0.192143
38.442,51.1703,0.020544
38.459,51.0252,0.015710
38.475,50.8878,0.015710
38.491,50.7589,0.004834
38.508,50.6088,0.004834
38.523,50.4841,0.008459
38.539,50.3467,0.001208
38.555,50.2101,0.002417
38.571,50.0804,0.002417
38.586,49.9481,0.014501
38.602,49.8123,0.010876
38.618,49.6749,0.004834
38.635,49.5418,0.003625
38.656,49.3492,0.006042
38.669,49.2398,0.006042
38.682,49.1320,0.015710
38.698,48.9997,0.002417
38.728,48.7444,0.000000
38.745,48.6061,0.002417
38.761,48.4705,0.003625
38.776,48.3373,0.004834
38.793,48.1914,0.008459
38.809,48.0591,0.010876
38.825,47.9501,-0.029003
38.840,47.9501,-0.096676
38.856,47.9501,0.002417
38.873,47.9501,0.004834
38.888,47.9501,0.012084
38.904,47.9501,0.008459
38.920,47.9501,0.002417
38.937,47.9501,-0.001208
38.952,47.9501,-0.003625
38.975,47.9501,0.010876
38.988,47.9501,0.010876
39.000,47.9501,0.002417
39.016,47.9501,0.004834
39.032,47.9501,0.004834
39.048,47.9501,0.000000
39.065,47.9501,0.002417
39.080,47.9501,0.007251
39.096,47.9501,0.000000
39.113,47.9501,0.002417
39.128,47.9501,0.004834
39.144,47.9501,0.008459
39.164,47.9501,0.008459
39.176,47.9501,0.006042
39.192,47.9501,0.007251
39.208,47.9501,0.003625
39.224,47.9501,0.002417
39.241,47.9501,0.001208
39.256,47.9501,0.007251
39.280,47.9501,0.012084
39.296,48.0146,0.001208
39.312,48.1486,-0.077341
39.327,48.2810,0.012084
39.344,48.4294,0.004834
39.359,48.5532,0.015710
39.377,48.7067,0.001208
39.391,48.8205,-0.001208
39.407,48.9586,-0.001208
39.423,49.0936,-0.003625
39.439,49.2268,-0.003625
39.455,49.3717,0.006042
39.471,49.5007,0.007251
39.490,49.6687,0.007251
39.503,49.7687,0.007251
39.519,49.9062,0.007251
39.535,50.0418,-0.007251
39.551,50.1775,0.004834
39.568,50.3226,0.004834
39.583,50.4490,0.006042
39.599,50.5847,0.004834
39.615,50.7204,-0.010876
39.631,50.8587,-0.009668
39.647,50.9978,0.000000
39.664,51.1361,0.006042
39.679,51.2625,0.002417
39.695,51.3973,0.000000
39.711,51.5356,-0.003625
39.726,51.6688,-0.001208
39.743,51.8087,-0.006042
39.759,51.9419,-0.006042
39.775,52.0793,-0.001208
39.802,52.3049,-0.002417
39.818,52.4423,-0.010876
39.834,52.5789,-0.019335
39.850,52.7112,-0.015710
39.867,52.8579,-0.020544
39.883,52.9903,-0.022961
39.899,53.1336,-0.022961
39.914,53.2541,-0.037462
39.930,53.3923,-0.045921
39.947,53.5340,-0.049546
39.962,53.6621,-0.074924
39.978,53.8053,-0.074924
39.994,53.9308,-0.100301
40.010,53.9501,-0.100301
40.026,53.9501,-0.113594
40.042,53.9501,-0.087008
40.058,53.9501,-0.082174
40.075,53.9501,-0.079758
40.090,53.9501,-0.083383
40.108,53.9501,-0.070090
40.122,53.9501,-0.080966
40.138,53.9501,-0.067673
40.154,53.9501,-0.070090
40.171,53.9501,-0.062839
40.187,53.9501,-0.066465
40.202,53.9501,-0.059214
40.218,53.9501,-0.059214
40.234,53.9501,-0.056797
40.250,53.9501,-0.062839
40.266,53.9501,-0.059214
40.282,53.9501,-0.054380
40.298,53.9501,-0.053172
40.313,53.9501,-0.058005
40.330,53.9501,-0.060422
40.352,53.9501,-0.054380
40.368,53.9501,-0.053172
40.385,53.9501,-0.056797
40.401,53.9501,-0.053172
40.417,53.9501,-0.053172
40.433,53.9501,-0.053172
