Elapsed Time (s),Position (mm),Force (N)
-0.016,61.6000,-0.019335
0.000,61.6000,-0.018127
0.016,61.6000,-0.022961
0.032,61.6000,-0.022961
0.049,61.6000,-0.015710
0.074,61.6000,-0.015710
0.089,61.6000,-0.014501
0.105,61.6000,-0.021752
0.121,61.6000,-0.020544
0.138,61.6000,-0.020544
0.154,61.6000,-0.022961
0.169,61.6000,-0.019335
0.185,61.6000,-0.021752
0.201,61.6000,-0.025377
0.217,61.6000,-0.020544
0.232,61.6000,-0.020544
0.250,61.6000,-0.020544
0.265,61.6000,-0.019335
0.281,61.6000,-0.020544
0.297,61.6000,-0.020544
0.319,61.6000,-0.018127
0.330,61.6000,-0.015710
0.352,61.6000,-0.018127
0.372,61.6000,-0.015710
0.387,61.6000,-0.016918
0.402,61.6000,-0.016918
0.417,61.6000,-0.012084
0.433,61.6000,-0.014501
0.448,61.6000,-0.018127
0.458,61.6000,-0.015710
0.473,61.6000,-0.022961
0.490,61.6000,-0.024169
0.505,61.6000,-0.024169
0.521,61.6000,-0.018127
0.537,61.6000,-0.018127
0.553,61.6000,-0.018127
0.569,61.6000,-0.016918
0.585,61.6000,-0.021752
0.601,61.6000,-0.018127
0.624,61.6000,-0.015710
0.640,61.6000,-0.018127
0.656,61.6000,-0.019335
0.671,61.6000,-0.020544
0.689,61.6000,-0.020544
0.704,61.6000,-0.019335
0.721,61.6000,-0.019335
0.736,61.6000,-0.014501
0.752,61.6000,-0.018127
0.768,61.6000,-0.014501
0.784,61.6000,-0.015710
0.799,61.6000,-0.018127
0.815,61.6000,-0.014501
0.832,61.6000,-0.021752
0.847,61.6000,-0.021752
0.867,61.6000,-0.019335
0.882,61.6000,-0.015710
0.896,61.6000,-0.015710
0.912,61.6000,-0.016918
0.927,61.6000,-0.016918
0.944,61.6000,-0.022961
0.959,61.6000,-0.018127
0.975,61.6000,-0.019335
0.994,61.6000,-0.021752
1.008,61.6000,-0.016918
1.023,61.6000,-0.015710
1.039,61.6000,-0.021752
1.055,61.6000,-0.021752
1.072,61.6000,-0.014501
1.088,61.6000,-0.014501
1.103,61.6000,-0.012084
1.120,61.6000,-0.013293
1.136,61.6000,-0.013293
1.154,61.6000,-0.021752
1.179,61.6000,-0.016918
1.194,61.6000,-0.014501
1.209,61.6000,-0.015710
1.226,61.6000,-0.015710
1.243,61.6000,-0.016918
1.259,61.6000,-0.020544
1.273,61.6000,-0.015710
1.290,61.6000,-0.019335
1.306,61.6000,-0.018127
1.322,61.6000,-0.018127
1.338,61.6000,-0.018127
1.354,61.6000,-0.019335
1.370,61.6000,-0.018127
1.385,61.6000,-0.015710
1.404,61.6000,-0.016918
1.418,61.6000,-0.014501
1.433,61.6000,-0.013293
1.449,61.6000,-0.016918
1.465,61.6000,-0.014501
1.482,61.6000,-0.020544
1.497,61.6000,-0.021752
1.514,61.6000,-0.014501
1.529,61.6000,-0.012084
1.546,61.6000,-0.012084
1.562,61.6000,-0.015710
1.578,61.6000,-0.015710
1.593,61.6000,-0.016918
1.611,61.6000,-0.014501
1.626,61.6000,-0.014501
1.645,61.6000,-0.009668
1.657,61.6000,-0.020544
1.675,61.6000,-0.022961
1.690,61.6000,-0.016918
1.706,61.6000,-0.013293
1.730,61.6000,-0.013293
1.746,61.6000,-0.015710
1.762,61.6000,-0.018127
1.778,61.6000,-0.014501
1.797,61.6000,-0.014501
1.811,61.6000,-0.015710
1.828,61.6000,-0.015710
1.843,61.6000,-0.025377
1.858,61.6000,-0.025377
1.874,61.6000,-0.016918
1.890,61.6000,-0.014501
1.906,61.6000,-0.012084
1.922,61.6000,-0.016918
1.940,61.6000,-0.016918
1.954,61.6000,-0.014501
1.970,61.6000,-0.019335
1.986,61.6000,-0.016918
2.002,61.6000,-0.015710
2.019,61.6000,-0.013293
2.035,61.6000,-0.013293
2.051,61.6000,-0.015710
2.066,61.6000,-0.014501
2.084,61.6000,-0.015710
2.098,61.6000,-0.015710
2.114,61.6000,-0.013293
2.130,61.6000,-0.013293
2.149,61.6000,-0.016918
2.162,61.6000,-0.016918
2.178,61.6000,-0.018127
2.194,61.6000,-0.013293
2.210,61.6000,-0.013293
2.226,61.6000,-0.014501
2.242,61.6000,-0.016918
2.271,61.6000,-0.010876
2.287,61.6000,-0.012084
2.303,61.6000,-0.015710
2.320,61.6000,-0.018127
2.335,61.6000,-0.012084
2.351,61.6000,-0.020544
2.368,61.6000,-0.020544
2.383,61.6000,-0.012084
2.399,61.6000,-0.012084
2.415,61.6000,-0.012084
2.431,61.6000,-0.024169
2.447,61.6000,-0.024169
2.464,61.6000,-0.015710
2.480,61.6000,-0.015710
2.495,61.6000,-0.014501
2.511,61.6000,-0.018127
2.527,61.6000,-0.018127
2.542,61.6000,-0.014501
2.566,61.6000,-0.015710
2.588,61.6000,-0.012084
2.610,61.6000,-0.019335
2.624,61.6000,-0.013293
2.639,61.6000,-0.018127
2.656,61.6000,-0.019335
2.671,61.6000,-0.019335
2.688,61.6000,-0.013293
2.703,61.6000,-0.013293
2.719,61.6000,-0.015710
2.735,61.6000,-0.016918
2.751,61.6000,-0.015710
2.767,61.6000,-0.016918
2.783,61.6000,-0.020544
2.798,61.6000,-0.014501
2.815,61.6000,-0.014501
2.831,61.6000,-0.012084
2.847,61.6000,-0.013293
2.862,61.6000,-0.018127
2.878,61.6000,-0.020544
2.895,61.6000,-0.020544
2.911,61.6000,-0.015710
2.926,61.6000,-0.013293
2.943,61.6000,-0.010876
2.959,61.6000,-0.015710
2.975,61.6000,-0.015710
2.991,61.6000,-0.016918
3.006,61.6000,-0.015710
3.023,61.6000,-0.012084
3.038,61.6000,-0.012084
3.059,61.6000,-0.012084
3.071,61.6000,-0.010876
3.086,61.6000,-0.010876
3.102,61.6000,-0.015710
3.123,61.6000,-0.014501
3.135,61.6000,-0.013293
3.151,61.6000,-0.015710
3.169,61.6000,-0.014501
3.183,61.6000,-0.016918
3.198,61.6000,-0.019335
3.214,61.6000,-0.019335
3.230,61.6000,-0.009668
3.247,61.6000,-0.009668
3.263,61.6000,-0.010876
3.279,61.6000,-0.013293
3.294,61.6000,-0.015710
3.312,61.6000,-0.013293
3.327,61.6000,-0.013293
3.342,61.6000,-0.013293
3.372,61.6000,-0.006042
3.388,61.6000,-0.006042
3.405,61.6000,-0.010876
3.420,61.6000,-0.015710
3.436,61.6000,-0.015710
3.453,61.6000,-0.015710
3.468,61.6000,-0.014501
3.484,61.6000,-0.018127
3.507,61.6000,-0.014501
3.531,61.6000,-0.014501
3.549,61.6000,-0.016918
3.564,61.6000,-0.016918
3.584,61.6000,-0.014501
3.597,61.6000,-0.015710
3.613,61.6000,-0.014501
3.628,61.6000,-0.009668
3.645,61.6000,-0.012084
3.660,61.6000,-0.013293
3.676,61.6000,-0.014501
3.692,61.6000,-0.009668
3.709,61.6000,-0.016918
3.725,61.6000,-0.016918
3.742,61.6000,-0.015710
3.756,61.6000,-0.015710
3.772,61.6000,-0.014501
3.788,61.6000,-0.016918
3.804,61.6000,-0.015710
3.820,61.6000,-0.014501
3.836,61.6000,-0.014501
3.852,61.6000,-0.006042
3.868,61.6000,-0.006042
3.884,61.6000,-0.012084
3.907,61.6000,-0.012084
3.923,61.6000,-0.015710
3.939,61.6000,-0.013293
3.955,61.6000,-0.010876
3.973,61.6000,-0.016918
3.987,61.6000,-0.015710
4.005,61.6000,-0.014501
4.019,61.6000,-0.010876
4.035,61.6000,-0.010876
4.051,61.6000,-0.013293
4.067,61.6000,-0.013293
4.084,61.6000,-0.014501
4.099,61.6000,-0.014501
4.116,61.6000,-0.018127
4.131,61.6000,-0.010876
4.147,61.6000,-0.010876
4.164,61.6000,-0.010876
4.179,61.6000,-0.012084
4.195,61.6000,-0.012084
4.213,61.6000,-0.012084
4.226,61.6000,-0.013293
4.243,61.6000,-0.014501
4.259,61.6000,-0.018127
4.275,61.6000,-0.013293
4.291,61.6000,-0.013293
4.307,61.6000,-0.014501
4.323,61.6000,-0.010876
4.340,61.6000,-0.018127
4.356,61.6000,-0.018127
4.374,61.6000,-0.019335
4.387,61.6000,-0.019335
4.403,61.6000,-0.016918
4.419,61.6000,-0.012084
4.435,61.6000,-0.013293
4.460,61.6000,-0.012084
4.475,61.6000,-0.014501
4.491,61.6000,-0.013293
4.507,61.6000,-0.013293
4.524,61.6000,-0.012084
4.539,61.6000,-0.012084
4.555,61.6000,-0.009668
4.571,61.6000,-0.015710
4.587,61.6000,-0.015710
4.603,61.6000,-0.021752
4.619,61.6000,-0.012084
4.635,61.6000,-0.008459
4.651,61.6000,-0.015710
4.667,61.6000,-0.019335
4.682,61.6000,-0.014501
4.699,61.6000,-0.012084
4.714,61.6000,-0.007251
4.731,61.6000,-0.012084
4.747,61.6000,-0.019335
4.763,61.6000,-0.007251
4.779,61.6000,-0.008459
4.795,61.6000,-0.019335
4.811,61.6000,-0.016918
4.827,61.6000,-0.016918
4.843,61.6000,-0.010876
4.858,61.6000,-0.013293
4.876,61.6000,-0.009668
4.891,61.6000,-0.008459
4.906,61.6000,-0.008459
4.924,61.6000,-0.013293
4.939,61.6000,-0.013293
4.956,61.6000,-0.009668
4.970,61.6000,-0.009668
4.986,61.6000,-0.015710
5.014,61.6000,-0.012084
5.029,61.6000,-0.015710
5.046,61.6000,-0.024169
5.062,61.6000,-0.014501
5.078,61.6000,-0.012084
5.094,61.6000,-0.012084
5.110,61.6000,-0.015710
5.125,61.6000,-0.015710
5.141,61.6000,-0.016918
5.159,61.6000,-0.016918
5.173,61.6000,-0.015710
5.189,61.6000,-0.010876
5.205,61.6000,-0.012084
5.221,61.6000,-0.018127
5.237,61.6000,-0.018127
5.257,61.6000,-0.014501
5.270,61.6000,-0.015710
5.285,61.6000,-0.015710
5.301,61.6000,-0.012084
5.318,61.6000,-0.012084
5.334,61.6000,-0.015710
5.349,61.6000,-0.010876
5.365,61.6000,-0.012084
5.383,61.6000,-0.012084
5.398,61.6000,-0.016918
5.413,61.6000,-0.016918
5.429,61.6000,-0.018127
5.445,61.6000,-0.012084
5.463,61.6000,-0.015710
5.477,61.6000,-0.015710
5.493,61.6000,-0.016918
5.511,61.6000,-0.012084
5.526,61.6000,-0.012084
5.544,61.6000,-0.019335
5.568,61.6000,-0.010876
5.585,61.6000,-0.018127
5.600,61.6000,-0.016918
5.616,61.6000,-0.016918
5.632,61.6000,-0.014501
5.648,61.6000,-0.014501
5.664,61.6000,-0.012084
5.680,61.6000,-0.009668
5.699,61.6000,-0.007251
5.713,61.6000,-0.012084
5.728,61.6000,-0.012084
5.745,61.6000,-0.013293
5.761,61.6000,-0.015710
5.776,61.6000,-0.015710
5.792,61.6000,-0.014501
5.808,61.6000,-0.014501
5.826,61.6000,-0.008459
5.840,61.6000,-0.018127
5.863,61.6000,-0.018127
5.873,61.6000,-0.009668
5.889,61.6000,-0.010876
5.905,61.6000,-0.013293
5.920,61.6000,-0.012084
5.936,61.6000,-0.012084
5.953,61.6000,-0.010876
5.968,61.6000,-0.012084
5.986,61.6000,-0.012084
6.000,61.6000,-0.007251
6.016,61.6000,-0.012084
6.032,61.6000,-0.013293
6.049,61.6000,-0.013293
6.064,61.6000,-0.015710
6.081,61.6000,-0.009668
6.106,61.6000,-0.012084
6.122,61.6000,-0.014501
6.138,61.6000,-0.007251
6.154,61.6000,-0.008459
6.171,61.6000,-0.013293
6.186,61.6000,-0.016918
6.202,61.6000,-0.013293
6.218,61.6000,-0.014501
6.235,61.6000,-0.016918
6.251,61.6000,-0.010876
6.267,61.6000,-0.010876
6.282,61.6000,-0.010876
6.298,61.6000,-0.012084
6.314,61.6000,-0.013293
6.330,61.6000,-0.014501
6.346,61.6000,-0.014501
6.362,61.6000,-0.019335
6.379,61.6000,-0.019335
6.393,61.6000,-0.009668
6.410,61.6000,-0.012084
6.427,61.6000,-0.016918
6.443,61.6000,-0.012084
6.458,61.6000,-0.010876
6.479,61.6000,-0.010876
6.492,61.6000,-0.012084
6.506,61.6000,-0.013293
6.523,61.6000,-0.016918
6.538,61.6000,-0.012084
6.554,61.6000,-0.010876
6.571,61.6000,-0.013293
6.586,61.6000,-0.015710
6.603,61.6000,-0.007251
6.618,61.6000,-0.012084
6.634,61.6000,-0.015710
6.661,61.6000,-0.009668
6.677,61.6000,-0.013293
6.693,61.6000,-0.015710
6.709,61.6000,-0.013293
6.726,61.6000,-0.012084
6.740,61.6000,-0.010876
6.757,61.6000,-0.010876
6.772,61.6000,-0.016918
6.788,61.6000,-0.010876
6.805,61.6000,-0.010876
6.821,61.6000,-0.007251
6.837,61.6000,-0.007251
6.853,61.6000,-0.014501
6.869,61.6000,-0.010876
6.884,61.6000,-0.012084
6.900,61.6000,-0.015710
6.917,61.6000,-0.015710
6.932,61.6000,-0.009668
6.952,61.6000,-0.012084
6.965,61.6000,-0.015710
6.981,61.6000,-0.009668
6.996,61.6000,-0.009668
7.016,61.6000,-0.007251
7.028,61.6000,-0.008459
7.045,61.6000,-0.015710
7.060,61.6000,-0.013293
7.077,61.6000,-0.018127
7.092,61.6000,-0.019335
7.108,61.6000,-0.012084
7.125,61.6000,-0.015710
7.144,61.6000,-0.014501
7.156,61.6000,-0.018127
7.172,61.6000,-0.010876
7.188,61.6000,-0.009668
7.210,61.6000,-0.016918
7.226,61.6000,-0.016918
7.242,61.6000,-0.007251
7.258,61.6000,-0.010876
7.279,61.6000,-0.014501
7.291,61.6000,-0.016918
7.306,61.6000,-0.016918
7.325,61.6000,-0.016918
7.339,61.6000,-0.010876
7.356,61.6000,-0.012084
7.371,61.6000,-0.009668
7.386,61.6000,-0.010876
7.403,61.6000,-0.007251
7.420,61.6000,-0.018127
7.436,61.6000,-0.014501
7.453,61.6000,-0.012084
7.467,61.6000,-0.012084
7.483,61.6000,-0.014501
7.501,61.6000,-0.014501
7.514,61.6000,-0.013293
7.530,61.6000,-0.008459
7.546,61.6000,-0.008459
7.562,61.6000,-0.007251
7.579,61.6000,-0.007251
7.594,61.6000,-0.014501
7.611,61.6000,-0.013293
7.628,61.6000,-0.013293
7.643,61.6000,-0.012084
7.660,61.6000,-0.014501
7.674,61.6000,-0.014501
7.692,61.6000,-0.006042
7.706,61.6000,-0.006042
7.722,61.6000,-0.010876
7.753,61.6000,-0.020544
7.769,61.6000,-0.020544
7.784,61.6000,-0.014501
7.800,61.6000,-0.013293
7.817,61.6000,-0.013293
7.834,61.6000,-0.012084
7.848,61.6000,-0.010876
7.864,61.6000,-0.015710
7.881,61.6000,-0.014501
7.896,61.6000,-0.015710
7.912,61.6000,-0.010876
7.928,61.6000,-0.012084
7.947,61.6000,-0.015710
7.960,61.6000,-0.007251
7.976,61.6000,-0.008459
7.992,61.6000,-0.013293
8.009,61.6000,-0.013293
8.025,61.6000,-0.010876
8.044,61.6000,-0.014501
8.056,61.6000,-0.014501
8.073,61.6000,-0.010876
8.088,61.6000,-0.013293
8.106,61.6000,-0.013293
8.120,61.6000,-0.012084
8.137,61.6000,-0.014501
8.152,61.6000,-0.008459
8.168,61.6000,-0.008459
8.185,61.6000,-0.018127
8.200,61.6000,-0.015710
8.216,61.6000,-0.014501
8.232,61.6000,-0.012084
8.249,61.6000,-0.012084
8.265,61.6000,-0.015710
8.280,61.6000,-0.014501
8.296,61.6000,-0.008459
8.312,61.6000,-0.010876
8.328,61.6000,-0.007251
8.344,61.6000,-0.010876
8.360,61.6000,-0.013293
8.376,61.6000,-0.013293
8.393,61.6000,-0.012084
8.408,61.6000,-0.004834
8.424,61.6000,-0.013293
8.440,61.6000,-0.016918
8.456,61.6000,-0.018127
8.472,61.6000,-0.008459
8.489,61.6000,-0.013293
8.504,61.6000,-0.014501
8.522,61.6000,-0.012084
8.535,61.6000,-0.008459
8.552,61.6000,-0.015710
8.568,61.6000,-0.013293
8.584,61.6000,-0.012084
8.600,61.6000,-0.008459
8.616,61.6000,-0.010876
8.632,61.6000,-0.013293
8.648,61.6000,-0.013293
8.667,61.6000,-0.010876
8.680,61.6000,-0.015710
8.696,61.6000,-0.015710
8.712,61.6000,-0.012084
8.730,61.6000,-0.012084
8.744,61.6000,-0.013293
8.760,61.6000,-0.009668
8.776,61.6000,-0.016918
8.795,61.6000,-0.013293
8.808,61.6000,-0.012084
8.824,61.6000,-0.014501
8.840,61.6000,-0.006042
8.864,61.6000,-0.010876
8.880,61.6000,-0.012084
8.896,61.6000,-0.008459
8.912,61.6000,-0.014501
8.929,61.6000,-0.013293
8.945,61.6000,-0.010876
8.964,61.6000,-0.012084
8.976,61.6000,-0.014501
8.994,61.6000,-0.012084
9.008,61.6000,-0.014501
9.023,61.6000,-0.015710
9.040,61.6000,-0.013293
9.056,61.6000,-0.013293
9.073,61.6000,-0.007251
9.089,61.6000,-0.013293
9.104,61.6000,-0.016918
9.121,61.6000,-0.010876
9.136,61.6000,-0.010876
9.151,61.6000,-0.013293
9.168,61.6000,-0.013293
9.184,61.6000,-0.012084
9.201,61.6000,-0.013293
9.217,61.6000,-0.015710
9.232,61.6000,-0.012084
9.247,61.6000,-0.014501
9.263,61.6000,-0.014501
9.279,61.6000,-0.010876
9.296,61.6000,-0.010876
9.311,61.6000,-0.004834
9.327,61.6000,-0.007251
9.345,61.6000,-0.013293
9.360,61.6000,-0.015710
9.375,61.6000,-0.016918
9.402,61.6000,-0.012084
9.418,61.6000,-0.009668
9.434,61.6000,-0.012084
9.450,61.6000,-0.016918
9.469,61.6000,-0.012084
9.483,61.6000,-0.010876
9.498,61.6000,-0.009668
9.514,61.6000,-0.008459
9.531,61.6000,-0.018127
9.546,61.6000,-0.018127
9.564,61.6000,-0.009668
9.578,61.6000,-0.014501
9.595,61.6000,-0.012084
9.611,61.6000,-0.009668
9.627,61.6000,-0.007251
9.643,61.6000,-0.010876
9.658,61.6000,-0.010876
9.674,61.6000,-0.010876
9.690,61.6000,-0.013293
9.707,61.6000,-0.015710
9.723,61.6000,-0.008459
9.741,61.6000,-0.010876
9.755,61.6000,-0.012084
9.772,61.6000,-0.014501
9.786,61.6000,-0.018127
9.803,61.6000,-0.014501
9.818,61.6000,-0.008459
9.836,61.6000,-0.010876
9.850,61.6000,-0.008459
9.866,61.6000,-0.008459
9.883,61.6000,-0.014501
9.899,61.6000,-0.013293
9.915,61.6000,-0.010876
9.930,61.6000,-0.007251
9.946,61.6000,-0.008459
9.962,61.6000,-0.012084
9.978,61.6000,-0.013293
9.994,61.6000,-0.009668
10.010,61.6000,-0.010876
10.028,61.6000,-0.013293
10.045,61.6000,-0.012084
10.058,61.6000,-0.008459
10.075,61.6000,-0.008459
10.091,61.6000,-0.015710
10.107,61.6000,-0.010876
10.122,61.6000,-0.016918
10.137,61.6000,-0.018127
10.155,61.6000,-0.010876
10.170,61.6000,-0.009668
10.189,61.6000,-0.016918
10.202,61.6000,-0.013293
10.218,61.6000,-0.012084
10.234,61.6000,-0.006042
10.253,61.6000,-0.008459
10.266,61.6000,-0.007251
10.282,61.6000,-0.008459
10.298,61.6000,-0.013293
10.315,61.6000,-0.014501
10.331,61.6000,-0.012084
10.346,61.6000,-0.009668
10.362,61.6000,-0.014501
10.378,61.6000,-0.014501
10.395,61.6000,-0.015710
10.410,61.6000,-0.006042
10.426,61.6000,-0.009668
10.443,61.6000,-0.008459
10.458,61.6000,-0.009668
10.475,61.6000,-0.015710
10.499,61.6000,-0.014501
10.515,61.6000,-0.013293
10.531,61.6000,-0.007251
10.547,61.6000,-0.009668
10.563,61.6000,-0.009668
10.580,61.6000,-0.012084
10.595,61.6000,-0.012084
10.611,61.6000,-0.014501
10.627,61.6000,-0.015710
10.643,61.6000,-0.009668
10.659,61.6000,-0.007251
10.678,61.6000,-0.010876
10.694,61.6000,-0.009668
10.707,61.6000,-0.008459
10.723,61.6000,-0.008459
10.739,61.6000,-0.008459
10.755,61.6000,-0.018127
10.771,61.6000,-0.018127
10.787,61.6000,-0.018127
10.804,61.6000,-0.018127
10.819,61.6000,-0.012084
10.835,61.6000,-0.012084
10.851,61.6000,-0.009668
10.867,61.6000,-0.009668
10.883,61.6000,-0.014501
10.899,61.6000,-0.014501
10.915,61.6000,-0.014501
10.932,61.6000,-0.007251
10.948,61.6000,-0.012084
10.963,61.6000,-0.009668
10.980,61.6000,-0.009668
10.995,61.6000,-0.007251
11.012,61.6000,-0.013293
11.036,61.6000,-0.013293
11.052,61.6000,-0.013293
11.068,61.6000,-0.009668
11.084,61.6000,-0.010876
11.100,61.6000,-0.015710
11.116,61.6000,-0.016918
11.133,61.6000,-0.007251
11.149,61.5722,-0.007251
11.165,61.3657,0.080966
11.180,61.1615,0.033837
11.195,60.9492,0.033837
11.212,60.7231,0.059214
11.228,60.4985,0.096676
11.245,60.2697,0.096676
11.260,60.0669,0.155890
11.275,59.8546,0.155890
11.292,59.6258,0.187309
11.307,59.4162,0.194560
11.325,59.1682,0.188518
11.340,58.9627,0.175225
11.356,58.7463,0.056797
11.371,58.5422,0.010876
11.388,58.3147,0.002417
11.403,58.0900,0.008459
11.420,57.8776,0.000000
11.435,57.6653,0.000000
11.454,57.4118,-0.002417
11.468,57.2022,0.003625
11.484,56.9940,0.000000
11.499,56.7885,0.000000
11.516,56.5556,-0.004834
11.532,56.3405,0.001208
11.548,56.1117,0.000000
11.575,55.7473,-0.001208
11.591,55.5632,0.004834
11.607,55.5500,-0.138971
11.623,55.5500,-0.008459
11.640,55.5500,-0.016918
11.655,55.5500,0.009668
11.672,55.5500,-0.006042
11.688,55.5500,0.006042
11.704,55.5500,0.003625
11.720,55.5500,0.004834
11.736,55.5500,-0.001208
11.752,55.5500,0.006042
11.767,55.5500,0.000000
11.783,55.5500,0.000000
11.799,55.5500,-0.003625
11.816,55.5500,0.003625
11.832,55.5500,0.006042
11.848,55.5500,0.006042
11.864,55.5500,0.001208
11.880,55.5500,-0.003625
11.895,55.5500,-0.002417
11.913,55.5500,0.000000
11.927,55.5500,0.000000
11.943,55.5500,-0.001208
11.959,55.5500,-0.006042
11.977,55.5500,-0.006042
11.991,55.5500,-0.004834
12.008,55.5500,-0.004834
12.024,55.5649,-0.014501
12.039,55.7376,-0.014501
12.055,55.9583,-0.094259
12.071,56.1774,-0.004834
12.098,56.5474,0.002417
12.113,56.7652,-0.008459
12.130,56.9858,0.003625
12.147,57.2159,-0.006042
12.162,57.4241,-0.001208
12.178,57.6434,-0.004834
12.194,57.8598,0.006042
12.210,58.0886,0.000000
12.226,58.2982,0.000000
12.243,58.5229,0.001208
12.258,58.7366,0.001208
12.274,58.9544,0.002417
12.290,59.1832,0.003625
12.306,59.3928,-0.007251
12.322,59.6203,-0.006042
12.339,59.8490,-0.006042
12.354,60.0559,-0.018127
12.370,60.2710,-0.008459
12.387,60.5081,-0.014501
12.403,60.7218,-0.013293
12.418,60.9314,-0.016918
12.434,61.1464,-0.033837
12.451,61.3834,-0.036253
12.467,61.5449,-0.029003
12.482,61.5500,0.087008
12.498,61.5500,-0.054380
12.515,61.5500,-0.039879
12.530,61.5500,-0.033837
12.546,61.5500,-0.033837
12.562,61.5500,-0.038670
12.580,61.5500,-0.038670
12.594,61.5500,-0.036253
12.610,61.5500,-0.030211
12.626,61.5500,-0.029003
12.647,61.5500,-0.036253
12.663,61.5500,-0.027794
12.679,61.5500,-0.026586
12.695,61.5500,-0.026586
12.713,61.5500,-0.030211
12.727,61.5500,-0.030211
12.743,61.5500,-0.035045
12.759,61.5500,-0.026586
12.776,61.5500,-0.025377
12.792,61.5500,-0.027794
12.807,61.5500,-0.025377
12.823,61.5500,-0.026586
12.839,61.5500,-0.026586
12.855,61.5500,-0.027794
12.873,61.5500,-0.021752
12.887,61.5500,-0.024169
12.907,61.5500,-0.024169
12.919,61.5500,-0.021752
12.935,61.5500,-0.021752
12.951,61.5500,-0.021752
12.967,61.5500,-0.025377
12.983,61.5500,-0.019335
12.999,61.5500,-0.026586
13.021,61.5500,-0.024169
13.034,61.5500,-0.026586
13.049,61.5500,-0.022961
13.064,61.5500,-0.024169
13.079,61.5500,-0.020544
13.097,61.5500,-0.022961
13.111,61.5500,-0.024169
13.127,61.5500,-0.024169
13.144,61.5500,-0.025377
13.159,61.5500,-0.018127
13.176,61.5500,-0.020544
13.201,61.5500,-0.021752
13.216,61.5500,-0.021752
13.232,61.5500,-0.020544
13.248,61.5500,-0.022961
13.265,61.5500,-0.018127
13.281,61.5500,-0.013293
13.296,61.5500,-0.016918
13.312,61.5500,-0.021752
13.328,61.5500,-0.021752
13.344,61.5500,-0.016918
13.361,61.5500,-0.019335
13.376,61.5500,-0.019335
13.392,61.5500,-0.024169
13.408,61.5500,-0.024169
13.423,61.5500,-0.014501
13.440,61.5500,-0.009668
13.456,61.5500,-0.018127
13.472,61.5500,-0.020544
13.488,61.5500,-0.022961
13.505,61.5500,-0.022961
13.519,61.5500,-0.022961
13.536,61.5500,-0.016918
13.552,61.5500,-0.020544
13.568,61.5500,-0.016918
13.583,61.5500,-0.022961
13.599,61.5500,-0.022961
13.616,61.5500,-0.022961
13.632,61.5500,-0.022961
13.649,61.5500,-0.022961
13.663,61.5500,-0.020544
13.680,61.5500,-0.021752
13.696,61.5500,-0.021752
13.711,61.5500,-0.022961
13.734,61.5500,-0.019335
13.749,61.5500,-0.019335
13.765,61.5500,-0.019335
13.781,61.5500,-0.018127
13.798,61.5500,-0.021752
13.814,61.5500,-0.019335
13.830,61.5500,-0.013293
13.845,61.5500,-0.018127
13.869,61.5500,-0.019335
13.887,61.5500,-0.019335
13.908,61.5500,-0.020544
13.928,61.5500,-0.021752
13.941,61.5500,-0.016918
13.957,61.5500,-0.014501
13.975,61.5500,-0.014501
13.990,61.5500,-0.010876
14.006,61.5500,-0.010876
14.021,61.5500,-0.015710
14.037,61.5500,-0.015710
14.055,61.5500,-0.018127
14.069,61.5500,-0.021752
14.085,61.5500,-0.021752
14.101,61.5500,-0.027794
14.118,61.5500,-0.016918
14.133,61.5500,-0.012084
14.149,61.5500,-0.016918
14.165,61.5500,-0.021752
14.183,61.5500,-0.012084
14.198,61.5500,-0.019335
14.216,61.5500,-0.019335
14.229,61.5500,-0.014501
14.257,61.5500,-0.014501
14.272,61.5500,-0.021752
14.290,61.5500,-0.021752
14.304,61.5500,-0.021752
14.320,61.5500,-0.020544
14.336,61.5500,-0.019335
14.352,61.5500,-0.020544
14.369,61.5500,-0.020544
14.384,61.5500,-0.019335
14.401,61.5500,-0.019335
14.417,61.5500,-0.020544
14.432,61.5500,-0.015710
14.448,61.5500,-0.015710
14.464,61.5500,-0.012084
14.480,61.5500,-0.015710
14.496,61.5500,-0.016918
14.512,61.5500,-0.014501
14.528,61.5500,-0.016918
14.544,61.5500,-0.016918
14.561,61.5500,-0.013293
14.576,61.5500,-0.013293
14.592,61.5500,-0.013293
14.610,61.5500,-0.015710
14.624,61.5500,-0.016918
14.640,61.5500,-0.014501
14.656,61.5500,-0.015710
14.675,61.5500,-0.019335
14.688,61.5500,-0.013293
14.704,61.5500,-0.014501
14.720,61.5500,-0.020544
14.736,61.5500,-0.019335
14.752,61.5500,-0.018127
14.768,61.5500,-0.025377
14.791,61.5500,-0.025377
14.807,61.5500,-0.016918
14.824,61.5500,-0.013293
14.839,61.5500,-0.015710
14.855,61.5500,-0.018127
14.871,61.5500,-0.018127
14.887,61.5500,-0.016918
14.903,61.5500,-0.013293
14.920,61.5500,-0.013293
14.936,61.5500,-0.013293
14.951,61.5500,-0.018127
14.966,61.5500,-0.015710
14.983,61.5500,-0.014501
14.999,61.5500,-0.014501
15.015,61.5500,-0.012084
15.031,61.5500,-0.015710
15.048,61.5500,-0.020544
15.063,61.5500,-0.018127
15.079,61.5500,-0.016918
15.095,61.5500,-0.021752
15.112,61.5500,-0.010876
15.128,61.5500,-0.009668
15.146,61.5500,-0.012084
15.159,61.5500,-0.006042
15.176,61.5500,-0.020544
15.191,61.5500,-0.020544
15.208,61.5500,-0.015710
15.223,61.5500,-0.015710
15.239,61.5500,-0.015710
15.255,61.5500,-0.014501
15.270,61.5500,-0.016918
15.290,61.5500,-0.013293
15.316,61.5500,-0.013293
15.332,61.5500,-0.019335
15.349,61.5500,-0.016918
15.365,61.5500,-0.014501
15.382,61.5500,-0.019335
15.398,61.5500,-0.014501
15.413,61.5500,-0.014501
15.433,61.5500,-0.014501
15.445,61.5500,-0.014501
15.463,61.5500,-0.016918
15.477,61.5500,-0.012084
15.493,61.5500,-0.010876
15.509,61.5500,-0.010876
15.526,61.5500,-0.010876
15.541,61.5500,-0.015710
15.557,61.5500,-0.015710
15.573,61.5500,-0.013293
15.592,61.5500,-0.015710
15.605,61.5500,-0.009668
15.631,61.5500,-0.013293
15.654,61.5500,-0.019335
15.671,61.5500,-0.016918
15.685,61.5500,-0.015710
15.700,61.5500,-0.016918
15.718,61.5500,-0.013293
15.732,61.5500,-0.016918
15.749,61.5500,-0.016918
15.766,61.5500,-0.015710
15.787,61.5500,-0.013293
15.810,61.5500,-0.013293
15.828,61.5500,-0.014501
15.844,61.5500,-0.018127
15.860,61.5500,-0.010876
15.876,61.5500,-0.018127
15.892,61.5500,-0.018127
15.908,61.5500,-0.018127
15.927,61.5500,-0.014501
15.940,61.5500,-0.016918
15.956,61.5500,-0.013293
15.972,61.5500,-0.012084
15.989,61.5500,-0.019335
16.004,61.5500,-0.018127
16.021,61.5500,-0.018127
16.036,61.5500,-0.015710
16.053,61.5500,-0.016918
16.069,61.5500,-0.015710
16.086,61.5500,-0.015710
16.100,61.5500,-0.013293
16.116,61.5500,-0.009668
16.132,61.5500,-0.013293
16.148,61.5500,-0.012084
16.165,61.5500,-0.012084
16.180,61.5500,-0.009668
16.196,61.5500,-0.016918
16.212,61.5500,-0.019335
16.229,61.5500,-0.016918
16.245,61.5500,-0.009668
16.261,61.5500,-0.014501
16.277,61.5500,-0.018127
16.293,61.5500,-0.013293
16.308,61.5500,-0.013293
16.324,61.5500,-0.016918
16.340,61.5500,-0.022961
16.357,61.5500,-0.022961
16.373,61.5500,-0.012084
16.388,61.5500,-0.010876
16.418,61.5500,-0.015710
16.435,61.5500,-0.008459
16.450,61.5500,-0.019335
16.466,61.5500,-0.015710
16.484,61.5500,-0.013293
16.500,61.5500,-0.013293
16.514,61.5500,-0.013293
16.530,61.5500,-0.012084
16.546,61.5500,-0.012084
16.563,61.5500,-0.010876
16.579,61.5500,-0.012084
16.594,61.5500,-0.015710
16.610,61.5500,-0.012084
16.626,61.5500,-0.009668
16.642,61.5500,-0.013293
16.663,61.5500,-0.009668
16.674,61.5500,-0.018127
16.690,61.5500,-0.018127
16.706,61.5500,-0.014501
16.723,61.5500,-0.015710
16.738,61.5500,-0.015710
16.755,61.5500,-0.014501
16.770,61.5500,-0.016918
16.787,61.5500,-0.016918
16.802,61.5500,-0.019335
16.819,61.5500,-0.013293
16.835,61.5500,-0.013293
16.850,61.5500,-0.014501
16.868,61.5500,-0.014501
16.882,61.5500,-0.013293
16.899,61.5500,-0.013293
16.915,61.5500,-0.008459
16.932,61.5500,-0.015710
16.956,61.5500,-0.014501
16.972,61.5500,-0.015710
16.988,61.5500,-0.018127
17.004,61.5500,-0.019335
17.021,61.5500,-0.012084
17.036,61.5500,-0.012084
17.052,61.5500,-0.015710
17.068,61.5500,-0.013293
17.084,61.5500,-0.012084
17.100,61.5500,-0.013293
17.118,61.5500,-0.013293
17.132,61.5500,-0.014501
17.148,61.5500,-0.014501
17.164,61.5500,-0.020544
17.180,61.5500,-0.004834
17.198,61.5500,-0.004834
17.212,61.5500,-0.009668
17.228,61.5500,-0.009668
17.244,61.5500,-0.010876
17.263,61.5500,-0.012084
17.276,61.5500,-0.012084
17.292,61.5500,-0.010876
17.308,61.5500,-0.013293
17.326,61.5500,-0.008459
17.340,61.5500,-0.014501
17.356,61.5500,-0.016918
17.372,61.5500,-0.016918
17.388,61.5500,-0.016918
17.404,61.5500,-0.013293
17.420,61.5500,-0.010876
17.436,61.5500,-0.015710
17.452,61.5500,-0.019335
17.469,61.5500,-0.019335
17.485,61.5500,-0.020544
17.509,61.5500,-0.013293
17.523,61.5500,-0.013293
17.540,61.5500,-0.010876
17.556,61.5500,-0.010876
17.573,61.5500,-0.012084
17.588,61.5500,-0.018127
17.605,61.5500,-0.018127
17.620,61.5500,-0.014501
17.637,61.5500,-0.014501
17.652,61.5500,-0.010876
17.669,61.5500,-0.009668
17.683,61.5500,-0.013293
17.701,61.5500,-0.014501
17.715,61.5500,-0.014501
17.732,61.5500,-0.012084
17.747,61.5500,-0.014501
17.763,61.5500,-0.015710
17.780,61.5500,-0.003625
17.795,61.5500,-0.014501
17.814,61.5500,-0.013293
17.827,61.5500,-0.014501
17.844,61.5500,-0.013293
17.859,61.5500,-0.012084
17.876,61.5500,-0.012084
17.891,61.5500,-0.013293
17.907,61.5500,-0.016918
17.923,61.5500,-0.014501
17.941,61.5500,-0.015710
17.956,61.5500,-0.010876
17.972,61.5500,-0.016918
17.987,61.5500,-0.018127
18.003,61.5500,-0.016918
18.020,61.5500,-0.013293
18.036,61.5500,-0.010876
18.064,61.5500,-0.015710
18.080,61.5500,-0.016918
18.095,61.5500,-0.016918
18.111,61.5500,-0.018127
18.128,61.5500,-0.014501
18.144,61.5500,-0.015710
18.160,61.5500,-0.016918
18.175,61.5500,-0.018127
18.192,61.5500,-0.009668
18.208,61.5500,-0.013293
18.225,61.5500,-0.013293
18.240,61.5500,-0.008459
18.255,61.5500,-0.016918
18.272,61.5500,-0.012084
18.287,61.5500,-0.012084
18.304,61.5500,-0.012084
18.326,61.5500,-0.010876
18.336,61.5500,-0.007251
18.351,61.5500,-0.013293
18.367,61.5500,-0.013293
18.383,61.5500,-0.016918
18.400,61.5500,-0.013293
18.415,61.5500,-0.019335
18.432,61.5500,-0.015710
18.447,61.5500,-0.015710
18.463,61.5500,-0.013293
18.479,61.5500,-0.014501
18.496,61.5500,-0.020544
18.512,61.5500,-0.021752
18.529,61.5500,-0.015710
18.544,61.5500,-0.010876
18.559,61.5500,-0.012084
18.576,61.5500,-0.006042
18.605,61.5500,-0.006042
18.621,61.5500,-0.010876
18.637,61.5500,-0.014501
18.653,61.5500,-0.016918
18.671,61.5500,-0.016918
18.685,61.5500,-0.012084
18.704,61.5500,-0.014501
18.718,61.5500,-0.015710
18.734,61.5500,-0.013293
18.749,61.5500,-0.008459
18.765,61.5500,-0.015710
18.781,61.5500,-0.009668
18.797,61.5500,-0.013293
18.813,61.5500,-0.014501
18.829,61.5500,-0.015710
18.845,61.5500,-0.010876
18.861,61.5500,-0.009668
18.877,61.5500,-0.013293
18.895,61.5500,-0.014501
18.909,61.5500,-0.014501
18.927,61.5500,-0.019335
18.941,61.5500,-0.019335
18.959,61.5500,-0.015710
18.973,61.5500,-0.012084
18.989,61.5500,-0.012084
19.005,61.5500,-0.014501
19.022,61.5500,-0.010876
19.037,61.5500,-0.010876
19.053,61.5500,-0.013293
19.069,61.5500,-0.014501
19.086,61.5500,-0.010876
19.101,61.5500,-0.014501
19.118,61.5500,-0.008459
19.147,61.5500,-0.012084
19.163,61.5500,-0.010876
19.179,61.5500,-0.012084
19.195,61.5500,-0.013293
19.212,61.5500,-0.015710
19.227,61.5500,-0.019335
19.246,61.5500,-0.014501
19.259,61.5500,-0.010876
19.276,61.5500,-0.013293
19.291,61.5500,-0.012084
19.307,61.5500,-0.012084
19.324,61.5500,-0.014501
19.339,61.5500,-0.014501
19.355,61.5500,-0.010876
19.371,61.5500,-0.013293
19.388,61.5500,-0.014501
19.404,61.5500,-0.010876
19.420,61.5500,-0.015710
19.435,61.5500,-0.007251
19.454,61.5500,-0.008459
19.467,61.5500,-0.012084
19.483,61.5500,-0.014501
19.499,61.5500,-0.014501
19.516,61.5500,-0.019335
19.531,61.5500,-0.015710
19.548,61.5500,-0.015710
19.563,61.5500,-0.010876
19.580,61.5500,-0.012084
19.595,61.5500,-0.012084
19.614,61.5500,-0.015710
19.627,61.5500,-0.013293
19.643,61.5500,-0.012084
19.659,61.5500,-0.010876
19.675,61.5500,-0.014501
19.699,61.5500,-0.009668
19.715,61.5500,-0.009668
19.731,61.5500,-0.008459
19.747,61.5500,-0.006042
19.764,61.5500,-0.016918
19.779,61.5500,-0.016918
19.795,61.5500,-0.014501
19.811,61.5500,-0.007251
19.827,61.5500,-0.008459
19.842,61.5500,-0.018127
19.859,61.5500,-0.021752
19.875,61.5500,-0.018127
19.894,61.5500,-0.009668
19.907,61.5500,-0.009668
19.922,61.5500,-0.007251
19.940,61.5500,-0.013293
19.956,61.5500,-0.013293
19.970,61.5500,-0.007251
19.987,61.5500,-0.016918
20.003,61.5500,-0.018127
20.019,61.5500,-0.018127
20.035,61.5500,-0.014501
20.050,61.5500,-0.009668
20.067,61.5500,-0.013293
20.083,61.5500,-0.014501
20.098,61.5500,-0.013293
20.115,61.5500,-0.019335
20.130,61.5500,-0.018127
20.147,61.5500,-0.015710
20.162,61.5500,-0.013293
20.179,61.5500,-0.015710
20.195,61.5500,-0.010876
20.212,61.5500,-0.018127
20.236,61.5500,-0.012084
20.252,61.5500,-0.014501
20.268,61.5500,-0.014501
20.284,61.5500,-0.006042
20.301,61.5500,-0.012084
20.317,61.5500,-0.012084
20.332,61.5500,-0.012084
20.348,61.5500,-0.014501
20.365,61.5500,-0.010876
20.381,61.5500,-0.009668
20.398,61.5500,-0.009668
20.412,61.5500,-0.014501
20.428,61.5500,-0.009668
20.445,61.5500,-0.008459
20.460,61.5500,-0.015710
20.477,61.5500,-0.012084
20.493,61.5500,-0.012084
20.508,61.5500,-0.012084
20.524,61.5500,-0.014501
20.540,61.5500,-0.012084
20.557,61.5500,-0.015710
20.572,61.5500,-0.009668
20.588,61.5500,-0.012084
20.604,61.5500,-0.012084
20.620,61.5500,-0.012084
20.636,61.5500,-0.013293
20.652,61.5500,-0.010876
20.668,61.5500,-0.010876
20.684,61.5500,-0.010876
20.701,61.5500,-0.015710
20.716,61.5500,-0.012084
20.733,61.5500,-0.013293
20.748,61.5500,-0.009668
20.764,61.5500,-0.014501
20.791,61.5500,-0.018127
20.807,61.5500,-0.009668
20.823,61.5500,-0.009668
20.839,61.5500,-0.009668
20.856,61.5500,-0.009668
20.872,61.5500,-0.010876
20.889,61.5500,-0.010876
20.903,61.5500,-0.014501
20.919,61.5500,-0.014501
20.936,61.5500,-0.012084
20.951,61.5500,-0.010876
20.968,61.5500,-0.015710
20.983,61.5500,-0.010876
20.999,61.5500,-0.015710
21.015,61.5500,-0.013293
21.031,61.5500,-0.013293
21.048,61.5500,-0.009668
21.064,61.5500,-0.013293
21.079,61.5500,-0.012084
21.096,61.5500,-0.018127
21.111,61.5500,-0.009668
21.127,61.5500,-0.020544
21.143,61.5500,-0.015710
21.159,61.5500,-0.014501
21.175,61.5500,-0.013293
21.192,61.5500,-0.010876
21.207,61.5500,-0.010876
21.224,61.5500,-0.013293
21.240,61.5500,-0.012084
21.255,61.5500,-0.012084
21.271,61.5500,-0.013293
21.288,61.5500,-0.013293
21.304,61.5500,-0.012084
21.320,61.5500,-0.013293
21.344,61.5500,-0.010876
21.360,61.5500,-0.014501
21.376,61.5500,-0.009668
21.392,61.5500,-0.010876
21.408,61.5500,-0.010876
21.424,61.5500,-0.012084
21.440,61.5500,-0.013293
21.455,61.5500,-0.015710
21.472,61.5500,-0.010876
21.488,61.5500,-0.010876
21.504,61.5500,-0.016918
21.520,61.5500,-0.012084
21.536,61.5500,-0.013293
21.552,61.5500,-0.014501
21.567,61.5500,-0.014501
21.587,61.5500,-0.016918
21.601,61.5500,-0.013293
21.616,61.5500,-0.012084
21.632,61.5500,-0.013293
21.650,61.5500,-0.010876
21.663,61.5500,-0.015710
21.679,61.5500,-0.019335
21.695,61.5500,-0.012084
21.712,61.5500,-0.012084
21.728,61.5500,-0.013293
21.744,61.5500,-0.014501
21.760,61.5500,-0.019335
21.777,61.5500,-0.019335
21.792,61.5500,-0.014501
21.808,61.5500,-0.020544
21.824,61.5500,-0.012084
21.840,61.5500,-0.012084
21.855,61.5500,-0.012084
21.872,61.5500,-0.014501
21.896,61.5500,-0.016918
21.912,61.5500,-0.014501
21.927,61.5500,-0.012084
21.943,61.5500,-0.013293
21.960,61.5500,-0.009668
21.976,61.5500,-0.007251
21.992,61.5500,-0.012084
22.007,61.5500,-0.015710
22.027,61.5500,-0.015710
22.040,61.5500,-0.014501
22.056,61.5500,-0.014501
22.072,61.5500,-0.006042
22.088,61.5500,-0.013293
22.104,61.5500,-0.014501
22.119,61.5500,-0.010876
22.136,61.5500,-0.010876
22.152,61.5500,-0.006042
22.167,61.5500,-0.007251
22.186,61.5500,-0.012084
22.199,61.5500,-0.012084
22.215,61.5500,-0.010876
22.231,61.5500,-0.007251
22.249,61.5500,-0.010876
22.263,61.5500,-0.015710
22.279,61.5500,-0.010876
22.295,61.5500,-0.012084
22.312,61.5500,-0.010876
22.328,61.5500,-0.010876
22.344,61.5500,-0.012084
22.359,61.5500,-0.019335
22.376,61.5500,-0.016918
22.391,61.5500,-0.016918
22.409,61.5500,-0.015710
22.433,61.5500,-0.013293
22.449,61.5500,-0.013293
22.464,61.5500,-0.012084
22.481,61.5500,-0.020544
22.499,61.5500,-0.020544
22.512,61.5500,-0.010876
22.528,61.5500,-0.008459
22.544,61.5500,-0.010876
22.560,61.5500,-0.014501
22.576,61.5500,-0.013293
22.593,61.5500,-0.015710
22.608,61.5500,-0.014501
22.625,61.5500,-0.007251
22.641,61.5500,-0.004834
22.656,61.5500,-0.007251
22.672,61.5500,-0.007251
22.693,61.5500,-0.007251
22.704,61.5500,-0.012084
22.720,61.5500,-0.007251
22.736,61.5500,-0.013293
22.753,61.5500,-0.009668
22.768,61.5500,-0.009668
22.784,61.5500,-0.012084
22.809,61.5500,-0.012084
22.830,61.5500,-0.009668
22.849,61.5500,-0.009668
22.864,61.5500,-0.014501
22.880,61.5500,-0.007251
22.896,61.5500,-0.007251
22.912,61.5500,-0.010876
22.932,61.5500,-0.014501
22.955,61.5500,-0.014501
22.972,61.5500,-0.009668
22.988,61.5500,-0.010876
23.004,61.5500,-0.008459
23.020,61.5500,-0.013293
23.037,61.5500,-0.009668
23.052,61.5500,-0.010876
23.069,61.5500,-0.010876
23.084,61.5500,-0.008459
23.100,61.5500,-0.008459
23.116,61.5500,-0.007251
23.132,61.5500,-0.012084
23.148,61.5500,-0.012084
23.164,61.5500,-0.010876
23.180,61.5500,-0.009668
23.201,61.5500,-0.009668
23.212,61.5500,-0.006042
23.228,61.5500,-0.010876
23.244,61.5500,-0.014501
23.261,61.5500,-0.015710
23.276,61.5500,-0.015710
23.294,61.5500,-0.009668
23.309,61.5500,-0.009668
23.324,61.5500,-0.010876
23.343,61.5500,-0.007251
23.355,61.5500,-0.014501
23.372,61.5500,-0.013293
23.388,61.5500,-0.015710
23.404,61.5500,-0.009668
23.420,61.5500,-0.010876
23.437,61.5500,-0.009668
23.453,61.5500,-0.012084
23.468,61.5500,-0.012084
23.491,61.5500,-0.010876
23.506,61.5500,-0.013293
23.524,61.5500,-0.013293
23.538,61.5500,-0.009668
23.553,61.5500,-0.010876
23.570,61.5500,-0.012084
23.585,61.5500,-0.012084
23.602,61.5500,-0.012084
23.617,61.5500,-0.012084
23.633,61.5500,-0.014501
23.650,61.5500,-0.007251
23.665,61.5500,-0.013293
23.688,61.5500,-0.008459
23.699,61.5500,-0.016918
23.714,61.5500,-0.010876
23.729,61.5500,-0.019335
23.746,61.5500,-0.019335
23.761,61.5500,-0.015710
23.777,61.5500,-0.008459
23.794,61.5500,-0.015710
23.810,61.5500,-0.007251
23.826,61.5500,-0.007251
23.841,61.5500,-0.010876
23.857,61.5500,-0.010876
23.874,61.5500,-0.008459
23.889,61.5500,-0.008459
23.905,61.5500,-0.010876
23.921,61.5500,-0.013293
23.937,61.5500,-0.012084
23.953,61.5500,-0.012084
23.969,61.5500,-0.007251
23.986,61.5500,-0.007251
24.002,61.5500,-0.010876
24.017,61.5500,-0.014501
24.044,61.5500,-0.013293
24.060,61.5500,-0.019335
24.076,61.5500,-0.014501
24.092,61.5500,-0.012084
24.112,61.5500,-0.013293
24.124,61.5500,-0.015710
24.140,61.5500,-0.007251
24.156,61.5500,-0.009668
24.172,61.5500,-0.010876
24.188,61.5500,-0.007251
24.204,61.5500,-0.018127
24.220,61.5500,-0.010876
24.236,61.5500,-0.014501
24.253,61.5500,-0.006042
24.268,61.5500,-0.013293
24.285,61.5500,-0.016918
24.301,61.5500,-0.009668
24.318,61.5500,-0.009668
24.332,61.5500,-0.010876
24.349,61.5500,-0.009668
24.366,61.5500,-0.007251
24.382,61.5151,-0.015710
24.396,61.3322,0.148639
24.412,61.1156,0.020544
24.428,60.8979,0.064048
24.446,60.6513,0.064048
24.461,60.4540,0.099093
24.476,60.2306,0.099093
24.492,60.0224,0.149848
24.512,59.7320,0.149848
24.525,59.5758,0.194560
24.541,59.3594,0.204228
24.556,59.1470,0.181267
24.580,58.8155,0.163140
24.596,58.5921,0.013293
24.612,58.3853,0.007251
24.629,58.1346,0.007251
24.643,57.9509,0.009668
24.660,57.7194,0.000000
24.675,57.5043,-0.006042
24.691,57.2975,-0.010876
24.708,57.0686,0.007251
24.723,56.8563,0.008459
24.739,56.6385,-0.003625
24.756,56.4042,-0.003625
24.772,56.1824,-0.002417
24.788,55.9645,0.000000
24.803,55.7630,-0.001208
24.823,55.5138,0.001208
24.836,55.4999,-0.039879
24.851,55.4999,-0.001208
24.867,55.4999,-0.001208
24.883,55.4999,0.006042
24.899,55.4999,0.000000
24.915,55.4999,0.000000
24.932,55.4999,-0.006042
24.947,55.4999,0.010876
24.964,55.4999,0.002417
24.980,55.4999,0.002417
24.996,55.4999,0.004834
25.011,55.4999,-0.001208
25.027,55.4999,-0.003625
25.043,55.4999,-0.006042
25.060,55.4999,-0.002417
25.075,55.4999,0.002417
25.091,55.4999,0.000000
25.107,55.4999,-0.007251
25.123,55.4999,0.002417
25.139,55.4999,-0.004834
25.155,55.4999,-0.004834
25.171,55.4999,-0.003625
25.188,55.4999,0.002417
25.203,55.4999,-0.002417
25.219,55.5837,-0.027794
25.235,55.7985,-0.061631
25.251,56.0122,-0.007251
25.268,56.2451,-0.004834
25.284,56.4671,-0.003625
25.300,56.6945,0.010876
25.316,56.9000,0.010876
25.331,57.1261,-0.004834
25.347,57.3275,-0.006042
25.364,57.5727,-0.001208
25.379,57.7755,-0.002417
25.395,57.9837,0.006042
25.411,58.2042,-0.003625
25.427,58.4221,-0.006042
25.453,58.7810,-0.006042
25.473,59.0618,-0.007251
25.493,59.3564,-0.004834
25.509,59.5441,-0.004834
25.523,59.7400,-0.008459
25.542,59.9989,-0.008459
25.556,60.1922,-0.008459
25.571,60.4059,-0.019335
25.587,60.6141,-0.022961
25.602,60.8305,-0.019335
25.621,61.0868,-0.032628
25.647,61.4349,-0.032628
25.660,61.4999,0.089425
25.677,61.4999,0.089425
25.693,61.4999,-0.047129
25.708,61.4999,-0.047129
25.724,61.4999,-0.049546
25.741,61.4999,-0.041087
25.757,61.4999,-0.037462
25.774,61.4999,-0.045921
25.790,61.4999,-0.032628
25.805,61.4999,-0.036253
25.821,61.4999,-0.030211
25.837,61.4999,-0.031420
25.852,61.4999,-0.024169
25.869,61.4999,-0.031420
25.885,61.4999,-0.031420
25.901,61.4999,-0.029003
25.917,61.4999,-0.029003
25.932,61.4999,-0.024169
25.949,61.4999,-0.027794
25.965,61.4999,-0.027794
25.983,61.4999,-0.026586
25.997,61.4999,-0.021752
26.012,61.4999,-0.029003
26.029,61.4999,-0.030211
26.045,61.4999,-0.029003
26.061,61.4999,-0.027794
26.077,61.4999,-0.024169
26.093,61.4999,-0.022961
26.108,61.4999,-0.021752
26.125,61.4999,-0.027794
26.140,61.4999,-0.024169
26.158,61.4999,-0.025377
26.172,61.4999,-0.024169
26.194,61.4999,-0.022961
26.210,61.4999,-0.022961
26.227,61.4999,-0.029003
26.242,61.4999,-0.020544
26.259,61.4999,-0.018127
26.275,61.4999,-0.018127
26.291,61.4999,-0.022961
26.306,61.4999,-0.022961
26.322,61.4999,-0.021752
26.338,61.4999,-0.015710
26.354,61.4999,-0.025377
26.371,61.4999,-0.025377
26.386,61.4999,-0.024169
26.402,61.4999,-0.022961
26.418,61.4999,-0.022961
26.437,61.4999,-0.025377
26.450,61.4999,-0.018127
26.467,61.4999,-0.021752
26.482,61.4999,-0.021752
26.499,61.4999,-0.025377
26.514,61.4999,-0.019335
26.530,61.4999,-0.020544
26.546,61.4999,-0.020544
26.566,61.4999,-0.018127
26.579,61.4999,-0.020544
26.595,61.4999,-0.019335
26.611,61.4999,-0.022961
26.626,61.4999,-0.025377
26.642,61.4999,-0.024169
26.659,61.4999,-0.021752
26.674,61.4999,-0.016918
26.693,61.4999,-0.016918
26.706,61.4999,-0.019335
26.723,61.4999,-0.025377
26.738,61.4999,-0.019335
26.761,61.4999,-0.021752
26.777,61.4999,-0.019335
26.792,61.4999,-0.019335
26.808,61.4999,-0.019335
26.825,61.4999,-0.021752
26.841,61.4999,-0.015710
26.856,61.4999,-0.019335
26.872,61.4999,-0.019335
26.888,61.4999,-0.019335
26.904,61.4999,-0.019335
26.920,61.4999,-0.018127
26.936,61.4999,-0.015710
26.954,61.4999,-0.019335
26.968,61.4999,-0.018127
26.985,61.4999,-0.014501
27.000,61.4999,-0.019335
27.016,61.4999,-0.019335
27.032,61.4999,-0.018127
27.048,61.4999,-0.019335
27.064,61.4999,-0.020544
27.081,61.4999,-0.018127
27.096,61.4999,-0.019335
27.113,61.4999,-0.020544
27.128,61.4999,-0.015710
27.144,61.4999,-0.015710
27.160,61.4999,-0.020544
27.176,61.4999,-0.020544
27.200,61.4999,-0.020544
27.223,61.4999,-0.008459
27.240,61.4999,-0.018127
27.258,61.4999,-0.018127
27.272,61.4999,-0.014501
27.288,61.4999,-0.013293
27.304,61.4999,-0.021752
27.320,61.4999,-0.015710
27.336,61.4999,-0.015710
27.351,61.4999,-0.016918
27.368,61.4999,-0.016918
27.387,61.4999,-0.018127
27.400,61.4999,-0.015710
27.416,61.4999,-0.016918
27.432,61.4999,-0.021752
27.448,61.4999,-0.014501
27.464,61.4999,-0.016918
27.480,61.4999,-0.016918
27.496,61.4999,-0.015710
27.512,61.4999,-0.015710
27.528,61.4999,-0.021752
27.545,61.4999,-0.024169
27.560,61.4999,-0.014501
27.576,61.4999,-0.015710
27.592,61.4999,-0.020544
27.608,61.4999,-0.019335
27.624,61.4999,-0.015710
27.640,61.4999,-0.013293
27.656,61.4999,-0.020544
27.672,61.4999,-0.021752
27.688,61.4999,-0.013293
27.703,61.4999,-0.018127
27.720,61.4999,-0.016918
27.735,61.4999,-0.015710
27.752,61.4999,-0.013293
27.768,61.4999,-0.014501
27.786,61.4999,-0.014501
27.801,61.4999,-0.021752
27.816,61.4999,-0.016918
27.832,61.4999,-0.019335
27.857,61.4999,-0.016918
27.872,61.4999,-0.015710
27.889,61.4999,-0.015710
27.904,61.4999,-0.016918
27.921,61.4999,-0.020544
27.936,61.4999,-0.020544
27.954,61.4999,-0.009668
27.968,61.4999,-0.010876
27.984,61.4999,-0.021752
28.001,61.4999,-0.015710
28.016,61.4999,-0.019335
28.033,61.4999,-0.015710
28.049,61.4999,-0.022961
28.065,61.4999,-0.022961
28.082,61.4999,-0.015710
28.097,61.4999,-0.010876
28.114,61.4999,-0.014501
28.129,61.4999,-0.013293
28.148,61.4999,-0.019335
28.160,61.4999,-0.019335
28.177,61.4999,-0.015710
28.192,61.4999,-0.016918
28.208,61.4999,-0.021752
28.227,61.4999,-0.022961
28.240,61.4999,-0.012084
28.257,61.4999,-0.012084
28.272,61.4999,-0.018127
28.288,61.4999,-0.012084
28.305,61.4999,-0.018127
28.321,61.4999,-0.018127
28.336,61.4999,-0.016918
28.354,61.4999,-0.015710
28.369,61.4999,-0.015710
28.384,61.4999,-0.010876
28.416,61.4999,-0.014501
28.431,61.4999,-0.018127
28.448,61.4999,-0.013293
28.463,61.4999,-0.016918
28.480,61.4999,-0.021752
28.496,61.4999,-0.015710
28.511,61.4999,-0.015710
28.530,61.4999,-0.015710
28.544,61.4999,-0.014501
28.559,61.4999,-0.013293
28.575,61.4999,-0.016918
28.592,61.4999,-0.018127
28.608,61.4999,-0.014501
28.623,61.4999,-0.013293
28.639,61.4999,-0.019335
28.655,61.4999,-0.014501
28.671,61.4999,-0.018127
28.687,61.4999,-0.013293
28.712,61.4999,-0.008459
28.735,61.4999,-0.018127
28.752,61.4999,-0.015710
28.768,61.4999,-0.009668
28.783,61.4999,-0.007251
28.800,61.4999,-0.015710
28.815,61.4999,-0.018127
28.832,61.4999,-0.015710
28.847,61.4999,-0.014501
28.864,61.4999,-0.014501
28.880,61.4999,-0.015710
28.895,61.4999,-0.016918
28.911,61.4999,-0.015710
28.927,61.4999,-0.018127
28.943,61.4999,-0.015710
28.959,61.4999,-0.010876
28.975,61.4999,-0.012084
28.991,61.4999,-0.009668
29.008,61.4999,-0.009668
29.023,61.4999,-0.016918
29.040,61.4999,-0.015710
29.055,61.4999,-0.015710
29.073,61.4999,-0.012084
29.087,61.4999,-0.012084
29.103,61.4999,-0.014501
29.119,61.4999,-0.019335
29.135,61.4999,-0.019335
29.152,61.4999,-0.019335
29.168,61.4999,-0.015710
29.182,61.4999,-0.016918
29.199,61.4999,-0.014501
29.215,61.4999,-0.014501
29.231,61.4999,-0.012084
29.247,61.4999,-0.015710
29.263,61.4999,-0.018127
29.279,61.4999,-0.016918
29.294,61.4999,-0.014501
29.313,61.4999,-0.015710
29.327,61.4999,-0.008459
29.342,61.4999,-0.014501
29.359,61.4999,-0.015710
29.375,61.4999,-0.013293
29.391,61.4999,-0.014501
29.407,61.4999,-0.010876
29.423,61.4999,-0.014501
29.439,61.4999,-0.016918
29.456,61.4999,-0.012084
29.472,61.4999,-0.019335
29.500,61.4999,-0.018127
29.516,61.4999,-0.012084
29.532,61.4999,-0.014501
29.548,61.4999,-0.014501
29.565,61.4999,-0.012084
29.580,61.4999,-0.015710
29.596,61.4999,-0.015710
29.612,61.4999,-0.016918
29.628,61.4999,-0.016918
29.645,61.4999,-0.008459
29.662,61.4999,-0.021752
29.676,61.4999,-0.021752
29.692,61.4999,-0.009668
29.708,61.4999,-0.013293
29.724,61.4999,-0.016918
29.741,61.4999,-0.012084
29.756,61.4999,-0.012084
29.772,61.4999,-0.013293
29.788,61.4999,-0.013293
29.807,61.4999,-0.016918
29.820,61.4999,-0.018127
29.836,61.4999,-0.015710
29.852,61.4999,-0.016918
29.868,61.4999,-0.016918
29.883,61.4999,-0.012084
29.899,61.4999,-0.019335
29.916,61.4999,-0.019335
29.933,61.4999,-0.012084
29.948,61.4999,-0.010876
29.964,61.4999,-0.012084
29.979,61.4999,-0.012084
29.998,61.4999,-0.009668
30.012,61.4999,-0.013293
30.028,61.4999,-0.014501
30.043,61.4999,-0.016918
30.067,61.4999,-0.014501
30.081,61.4999,-0.013293
30.097,61.4999,-0.013293
30.113,61.4999,-0.010876
30.130,61.4999,-0.010876
30.146,61.4999,-0.016918
30.161,61.4999,-0.022961
30.177,61.4999,-0.013293
30.196,61.4999,-0.013293
30.209,61.4999,-0.016918
30.225,61.4999,-0.008459
30.241,61.4999,-0.013293
30.257,61.4999,-0.013293
30.274,61.4999,-0.015710
30.290,61.4999,-0.010876
30.305,61.4999,-0.010876
30.322,61.4999,-0.013293
30.337,61.4999,-0.013293
30.355,61.4999,-0.012084
30.369,61.4999,-0.007251
30.388,61.4999,-0.019335
30.402,61.4999,-0.019335
30.417,61.4999,-0.019335
30.434,61.4999,-0.013293
30.449,61.4999,-0.014501
30.466,61.4999,-0.014501
30.482,61.4999,-0.012084
30.498,61.4999,-0.010876
30.513,61.4999,-0.013293
30.529,61.4999,-0.010876
30.549,61.4999,-0.008459
30.561,61.4999,-0.014501
30.578,61.4999,-0.020544
30.593,61.4999,-0.018127
30.617,61.4999,-0.018127
30.632,61.4999,-0.016918
30.648,61.4999,-0.016918
30.664,61.4999,-0.009668
30.681,61.4999,-0.016918
30.696,61.4999,-0.016918
30.713,61.4999,-0.013293
30.728,61.4999,-0.016918
30.752,61.4999,-0.013293
30.775,61.4999,-0.014501
30.793,61.4999,-0.013293
30.809,61.4999,-0.013293
30.826,61.4999,-0.013293
30.841,61.4999,-0.012084
30.856,61.4999,-0.014501
30.873,61.4999,-0.013293
30.889,61.4999,-0.013293
30.905,61.4999,-0.008459
30.920,61.4999,-0.015710
30.940,61.4999,-0.015710
30.953,61.4999,-0.020544
30.968,61.4999,-0.018127
30.984,61.4999,-0.018127
31.000,61.4999,-0.008459
31.017,61.4999,-0.009668
31.032,61.4999,-0.015710
31.049,61.4999,-0.015710
31.064,61.4999,-0.014501
31.080,61.4999,-0.009668
31.096,61.4999,-0.009668
31.112,61.4999,-0.009668
31.128,61.4999,-0.009668
31.144,61.4999,-0.010876
31.167,61.4999,-0.015710
31.183,61.4999,-0.016918
31.199,61.4999,-0.016918
31.215,61.4999,-0.012084
31.231,61.4999,-0.013293
31.248,61.4999,-0.013293
31.266,61.4999,-0.013293
31.279,61.4999,-0.012084
31.295,61.4999,-0.013293
31.311,61.4999,-0.018127
31.328,61.4999,-0.016918
31.343,61.4999,-0.014501
31.359,61.4999,-0.014501
31.375,61.4999,-0.006042
31.391,61.4999,-0.015710
31.408,61.4999,-0.014501
31.423,61.4999,-0.013293
31.439,61.4999,-0.008459
31.455,61.4999,-0.012084
31.472,61.4999,-0.010876
31.487,61.4999,-0.014501
31.503,61.4999,-0.014501
31.519,61.4999,-0.008459
31.536,61.4999,-0.008459
31.552,61.4999,-0.015710
31.568,61.4999,-0.012084
31.583,61.4999,-0.014501
31.599,61.4999,-0.010876
31.615,61.4999,-0.012084
31.631,61.4999,-0.015710
31.647,61.4999,-0.010876
31.664,61.4999,-0.010876
31.679,61.4999,-0.008459
31.695,61.4999,-0.004834
31.724,61.4999,-0.009668
31.740,61.4999,-0.016918
31.756,61.4999,-0.013293
31.772,61.4999,-0.008459
31.788,61.4999,-0.007251
31.804,61.4999,-0.007251
31.821,61.4999,-0.010876
31.835,61.4999,-0.009668
31.853,61.4999,-0.016918
31.868,61.4999,-0.016918
31.886,61.4999,-0.016918
31.899,61.4999,-0.010876
31.916,61.4999,-0.014501
31.931,61.4999,-0.014501
31.948,61.4999,-0.014501
31.964,61.4999,-0.014501
31.980,61.4999,-0.016918
31.996,61.4999,-0.015710
32.012,61.4999,-0.019335
32.032,61.4999,-0.015710
32.043,61.4999,-0.012084
32.060,61.4999,-0.009668
32.075,61.4999,-0.009668
32.095,61.4999,-0.019335
32.108,61.4999,-0.013293
32.124,61.4999,-0.010876
32.141,61.4999,-0.013293
32.156,61.4999,-0.004834
32.172,61.4999,-0.013293
32.190,61.4999,-0.013293
32.203,61.4999,-0.014501
32.220,61.4999,-0.010876
32.237,61.4999,-0.014501
32.251,61.4999,-0.013293
32.268,61.4999,-0.013293
32.297,61.4999,-0.013293
32.312,61.4999,-0.015710
32.328,61.4999,-0.013293
32.343,61.4999,-0.013293
32.361,61.4999,-0.008459
32.375,61.4999,-0.007251
32.392,61.4999,-0.020544
32.408,61.4999,-0.015710
32.424,61.4999,-0.012084
32.440,61.4999,-0.013293
32.456,61.4999,-0.015710
32.471,61.4999,-0.009668
32.489,61.4999,-0.014501
32.504,61.4999,-0.015710
32.520,61.4999,-0.014501
32.537,61.4999,-0.008459
32.551,61.4999,-0.010876
32.568,61.4999,-0.010876
32.584,61.4999,-0.014501
32.599,61.4999,-0.007251
32.615,61.4999,-0.007251
32.631,61.4999,-0.016918
32.649,61.4999,-0.012084
32.663,61.4999,-0.013293
32.678,61.4999,-0.019335
32.695,61.4999,-0.021752
32.711,61.4999,-0.012084
32.727,61.4999,-0.012084
32.744,61.4999,-0.004834
32.759,61.4999,-0.015710
32.776,61.4999,-0.015710
32.792,61.4999,-0.018127
32.808,61.4999,-0.013293
32.823,61.4999,-0.006042
32.839,61.4999,-0.010876
32.855,61.4999,-0.010876
32.872,61.4999,-0.014501
32.887,61.4999,-0.014501
32.903,61.4999,-0.015710
32.919,61.4999,-0.018127
32.935,61.4999,-0.012084
32.951,61.4999,-0.014501
32.968,61.4999,-0.016918
32.983,61.4999,-0.010876
32.999,61.4999,-0.009668
33.015,61.4999,-0.004834
33.038,61.4999,-0.018127
33.049,61.4999,-0.014501
33.064,61.4999,-0.012084
33.079,61.4999,-0.006042
33.096,61.4999,-0.016918
33.112,61.4999,-0.015710
33.127,61.4999,-0.008459
33.143,61.4999,-0.007251
33.160,61.4999,-0.013293
33.175,61.4999,-0.006042
33.192,61.4999,-0.007251
33.207,61.4999,-0.014501
33.226,61.4999,-0.016918
33.239,61.4999,-0.016918
33.255,61.4999,-0.016918
33.271,61.4999,-0.010876
33.288,61.4999,-0.012084
33.304,61.4999,-0.013293
33.319,61.4999,-0.009668
33.335,61.4999,-0.014501
33.351,61.4999,-0.014501
33.367,61.4999,-0.008459
33.383,61.4999,-0.010876
33.406,61.4999,-0.013293
33.421,61.4999,-0.012084
33.437,61.4999,-0.016918
33.453,61.4999,-0.013293
33.470,61.4999,-0.015710
33.486,61.4999,-0.010876
33.502,61.4999,-0.012084
33.517,61.4999,-0.008459
33.534,61.4999,-0.015710
33.549,61.4999,-0.012084
33.565,61.4999,-0.012084
33.581,61.4999,-0.018127
33.598,61.4999,-0.018127
33.613,61.4999,-0.008459
33.630,61.4999,-0.007251
33.645,61.4999,-0.014501
33.661,61.4999,-0.014501
33.677,61.4999,-0.014501
33.693,61.4999,-0.015710
33.717,61.4999,-0.013293
33.739,61.4999,-0.008459
33.757,61.4999,-0.008459
33.774,61.4999,-0.014501
33.789,61.4999,-0.015710
33.805,61.4999,-0.010876
33.821,61.4999,-0.007251
33.837,61.4999,-0.007251
33.854,61.4999,-0.012084
33.869,61.4999,-0.021752
33.885,61.4999,-0.018127
33.901,61.4999,-0.016918
33.917,61.4999,-0.016918
33.933,61.4999,-0.006042
33.962,61.4999,-0.012084
33.978,61.4999,-0.012084
33.994,61.4999,-0.013293
34.010,61.4999,-0.014501
34.028,61.4999,-0.014501
34.041,61.4999,-0.010876
34.058,61.4999,-0.012084
34.074,61.4999,-0.013293
34.090,61.4999,-0.013293
34.106,61.4999,-0.013293
34.123,61.4999,-0.016918
34.138,61.4999,-0.014501
34.162,61.4999,-0.014501
34.187,61.4999,-0.010876
34.201,61.4999,-0.010876
34.218,61.4999,-0.012084
34.234,61.4999,-0.015710
34.249,61.4999,-0.019335
34.266,61.4999,-0.010876
34.282,61.4999,-0.008459
34.298,61.4999,-0.013293
34.314,61.4999,-0.012084
34.330,61.4999,-0.014501
34.346,61.4999,-0.013293
34.361,61.4999,-0.014501
34.378,61.4999,-0.018127
34.394,61.4999,-0.016918
34.409,61.4999,-0.008459
34.426,61.4999,-0.010876
34.441,61.4999,-0.007251
34.458,61.4999,-0.004834
34.474,61.4999,-0.018127
34.489,61.4999,-0.009668
34.517,61.4999,-0.015710
34.534,61.4999,-0.013293
34.550,61.4999,-0.015710
34.565,61.4999,-0.020544
34.583,61.4999,-0.018127
34.598,61.4999,-0.015710
34.616,61.4999,-0.015710
34.629,61.4999,-0.008459
34.646,61.4999,-0.008459
34.662,61.4999,-0.014501
34.678,61.4999,-0.013293
34.693,61.4999,-0.009668
34.709,61.4999,-0.014501
34.726,61.4999,-0.012084
34.741,61.4999,-0.012084
34.758,61.4999,-0.012084
34.774,61.4999,-0.008459
34.789,61.4999,-0.016918
34.805,61.4999,-0.015710
34.822,61.4999,-0.010876
34.837,61.4999,-0.010876
34.854,61.4999,-0.014501
34.869,61.4999,-0.012084
34.886,61.4999,-0.012084
34.901,61.4999,-0.012084
34.919,61.4999,-0.012084
34.934,61.4999,-0.014501
34.949,61.4999,-0.008459
34.966,61.4999,-0.008459
34.981,61.4999,-0.009668
34.997,61.4999,-0.007251
35.014,61.4999,-0.012084
35.029,61.4999,-0.010876
35.054,61.4999,-0.010876
35.069,61.4999,-0.009668
35.084,61.4999,-0.008459
35.101,61.4999,-0.009668
35.118,61.4999,-0.009668
35.133,61.4999,-0.010876
35.150,61.4999,-0.020544
35.166,61.4999,-0.020544
35.181,61.4999,-0.019335
35.197,61.4999,-0.019335
35.213,61.4999,-0.009668
35.230,61.4999,-0.013293
35.246,61.4999,-0.013293
35.261,61.4999,-0.010876
35.278,61.4999,-0.010876
35.293,61.4999,-0.010876
35.309,61.4999,-0.009668
35.325,61.4999,-0.016918
35.343,61.4999,-0.008459
35.357,61.4999,-0.009668
35.373,61.4999,-0.015710
35.389,61.4999,-0.015710
35.405,61.4999,-0.018127
35.421,61.4999,-0.008459
35.437,61.4999,-0.007251
35.453,61.4999,-0.004834
35.470,61.4999,-0.009668
35.485,61.4999,-0.009668
35.501,61.4999,-0.014501
35.517,61.4999,-0.009668
35.534,61.4999,-0.009668
35.550,61.4999,-0.015710
35.568,61.4999,-0.016918
35.592,61.4999,-0.013293
35.608,61.4999,-0.012084
35.624,61.4999,-0.010876
35.640,61.4999,-0.008459
35.657,61.4999,-0.008459
35.672,61.4999,-0.009668
35.687,61.4999,-0.009668
35.704,61.4999,-0.013293
35.721,61.4999,-0.012084
35.736,61.4999,-0.010876
35.752,61.4999,-0.006042
35.768,61.4999,-0.010876
35.784,61.4999,-0.010876
35.800,61.4999,-0.007251
35.816,61.4999,-0.009668
35.832,61.4999,-0.016918
35.848,61.4999,-0.013293
35.864,61.4999,-0.013293
35.883,61.4999,-0.010876
35.896,61.4999,-0.010876
35.912,61.4999,-0.013293
35.928,61.4999,-0.013293
35.944,61.4999,-0.014501
35.960,61.4999,-0.006042
35.976,61.4999,-0.010876
35.992,61.4999,-0.012084
36.009,61.4999,-0.014501
36.024,61.4999,-0.012084
36.040,61.4999,-0.010876
36.056,61.4999,-0.010876
36.073,61.4999,-0.009668
36.088,61.4999,-0.012084
36.107,61.4999,-0.013293
36.131,61.4999,-0.020544
36.147,61.4999,-0.020544
36.163,61.4999,-0.010876
36.179,61.4999,-0.018127
36.196,61.4999,-0.014501
36.211,61.4999,-0.012084
36.228,61.4999,-0.012084
36.243,61.4999,-0.010876
36.259,61.4999,-0.015710
36.275,61.4999,-0.015710
36.291,61.4999,-0.012084
36.307,61.4999,-0.012084
36.323,61.4999,-0.009668
36.339,61.4999,-0.009668
36.355,61.4999,-0.013293
36.378,61.4999,-0.013293
36.393,61.4999,-0.013293
36.416,61.4999,-0.016918
36.434,61.4999,-0.016918
36.450,61.4999,-0.008459
36.466,61.4999,-0.009668
36.482,61.4999,-0.008459
36.499,61.4999,-0.007251
36.515,61.4999,-0.009668
36.530,61.4999,-0.008459
36.546,61.4999,-0.008459
36.564,61.4999,-0.013293
36.579,61.4999,-0.013293
36.595,61.4999,-0.013293
36.610,61.4999,-0.013293
36.628,61.4999,-0.015710
36.642,61.4999,-0.010876
36.659,61.4999,-0.008459
36.685,61.4999,-0.010876
36.699,61.4999,-0.010876
36.715,61.4999,-0.013293
36.731,61.4999,-0.016918
36.748,61.4999,-0.016918
36.765,61.4999,-0.010876
36.780,61.4999,-0.013293
36.796,61.4999,-0.013293
36.811,61.4999,-0.009668
36.828,61.4999,-0.007251
36.843,61.4999,-0.013293
36.859,61.4999,-0.012084
36.876,61.4999,-0.012084
36.892,61.4999,-0.015710
36.907,61.4999,-0.006042
36.923,61.4999,-0.015710
36.939,61.4999,-0.016918
36.955,61.4999,-0.016918
36.971,61.4999,-0.016918
36.987,61.4999,-0.013293
37.003,61.4999,-0.006042
37.019,61.4999,-0.004834
37.036,61.4999,-0.004834
37.051,61.4999,-0.013293
37.067,61.4999,-0.018127
37.083,61.4999,-0.014501
37.104,61.4999,-0.012084
37.116,61.4999,-0.007251
37.131,61.4999,-0.010876
37.147,61.4999,-0.012084
37.164,61.4999,-0.012084
37.179,61.4999,-0.018127
37.195,61.4999,-0.018127
37.226,61.4999,-0.018127
37.241,61.4999,-0.016918
37.258,61.4999,-0.016918
37.273,61.4999,-0.012084
37.289,61.4999,-0.014501
37.306,61.4999,-0.012084
37.321,61.4999,-0.009668
37.338,61.4896,-0.010876
37.353,61.3198,0.037462
37.369,61.1018,0.015710
37.385,60.8865,0.030211
37.403,60.6367,0.050755
37.419,60.4145,0.050755
37.433,60.2268,0.116011
37.450,59.9936,0.163140
37.465,59.7825,0.161932
37.482,59.5520,0.186101
37.497,59.3436,0.184892
37.514,59.1049,0.199394
37.530,58.8868,0.182476
37.546,58.6618,0.080966
37.561,58.4604,0.007251
37.577,58.2327,0.001208
37.593,58.0050,0.000000
37.609,57.7924,-0.003625
37.625,57.5786,-0.003625
37.641,57.3453,-0.002417
37.657,57.1246,0.008459
37.673,56.9052,0.008459
37.690,56.6747,0.006042
37.706,56.4622,0.004834
37.721,56.2469,-0.006042
37.737,56.0316,0.000000
37.753,55.8011,0.000000
37.769,55.5900,0.003625
37.785,55.4500,0.003625
37.801,55.4499,-0.008459
37.817,55.4499,0.000000
37.834,55.4499,-0.007251
37.849,55.4499,-0.004834
37.865,55.4499,-0.004834
37.881,55.4499,-0.007251
37.897,55.4499,-0.007251
37.913,55.4499,-0.006042
37.931,55.4499,0.008459
37.945,55.4499,0.008459
37.961,55.4499,-0.002417
37.977,55.4499,0.001208
37.994,55.4499,0.002417
38.009,55.4499,-0.008459
38.025,55.4499,-0.002417
38.043,55.4499,0.001208
38.057,55.4499,0.001208
38.073,55.4499,0.003625
38.089,55.4499,0.003625
38.107,55.4499,-0.001208
38.121,55.4499,-0.003625
38.138,55.4499,-0.001208
38.152,55.4499,-0.001208
38.170,55.4499,0.001208
38.185,55.4499,0.001208
38.201,55.4499,-0.002417
38.216,55.4792,-0.009668
38.233,55.6755,-0.119636
38.249,55.8964,-0.007251
38.265,56.1129,-0.002417
38.288,56.4304,0.007251
38.304,56.6512,0.002417
38.320,56.8748,-0.007251
38.336,57.0913,0.000000
38.352,57.3190,-0.008459
38.368,57.5386,-0.008459
38.384,57.7566,-0.006042
38.401,57.9884,0.007251
38.415,58.1954,0.007251
38.432,58.4245,-0.003625
38.448,58.6384,0.001208
38.464,58.8647,-0.003625
38.480,59.0882,0.000000
38.498,59.3407,0.001208
38.512,59.5188,-0.004834
38.528,59.7506,-0.003625
38.544,59.9867,-0.010876
38.561,60.2020,-0.014501
38.576,60.4158,-0.016918
38.593,60.6380,-0.022961
38.608,60.8491,-0.019335
38.624,61.0810,-0.031420
38.640,61.2962,-0.030211
38.656,61.4474,-0.007251
38.672,61.4499,-0.019335
38.688,61.4499,-0.050755
38.703,61.4499,-0.036253
38.719,61.4499,-0.053172
38.736,61.4499,-0.039879
38.751,61.4499,-0.036253
38.768,61.4499,-0.027794
38.783,61.4499,-0.032628
38.815,61.4499,-0.035045
38.829,61.4499,-0.029003
38.845,61.4499,-0.026586
38.861,61.4499,-0.021752
38.878,61.4499,-0.021752
38.893,61.4499,-0.030211
38.910,61.4499,-0.022961
38.925,61.4499,-0.025377
38.948,61.4499,-0.025377
38.963,61.4499,-0.029003
38.974,61.4499,-0.026586
38.989,61.4499,-0.027794
39.005,61.4499,-0.022961
39.022,61.4499,-0.024169
39.037,61.4499,-0.026586
39.054,61.4499,-0.021752
39.069,61.4499,-0.024169
39.085,61.4499,-0.020544
39.101,61.4499,-0.022961
39.121,61.4499,-0.024169
39.135,61.4499,-0.027794
39.151,61.4499,-0.025377
39.166,61.4499,-0.022961
39.181,61.4499,-0.025377
39.198,61.4499,-0.020544
39.215,61.4499,-0.027794
39.229,61.4499,-0.025377
39.248,61.4499,-0.020544
39.261,61.4499,-0.021752
39.278,61.4499,-0.027794
39.293,61.4499,-0.025377
39.310,61.4499,-0.024169
39.326,61.4499,-0.024169
39.344,61.4499,-0.021752
39.368,61.4499,-0.022961
39.384,61.4499,-0.022961
39.400,61.4499,-0.025377
