Elapsed Time (s),Position (mm),Force (N)
-0.019,54.0999,-0.020544
0.001,54.0999,-0.020544
0.014,54.0999,-0.019335
0.033,54.0999,-0.019335
0.057,54.0999,-0.021752
0.084,54.0999,-0.018127
0.104,54.0999,-0.019335
0.121,54.0999,-0.019335
0.137,54.0999,-0.018127
0.152,54.0999,-0.015710
0.170,54.0999,-0.010876
0.184,54.0999,-0.016918
0.200,54.0999,-0.016918
0.216,54.0999,-0.025377
0.232,54.0999,-0.013293
0.251,54.0999,-0.013293
0.264,54.0999,-0.014501
0.280,54.0999,-0.012084
0.296,54.0999,-0.020544
0.316,54.0999,-0.020544
0.328,54.0999,-0.015710
0.344,54.0999,-0.018127
0.360,54.0999,-0.020544
0.378,54.0999,-0.021752
0.392,54.0999,-0.021752
0.408,54.0999,-0.015710
0.424,54.0999,-0.015710
0.451,54.0999,-0.022961
0.473,54.0999,-0.022961
0.488,54.0999,-0.016918
0.505,54.0999,-0.012084
0.521,54.0999,-0.018127
0.536,54.0999,-0.020544
0.552,54.0999,-0.021752
0.568,54.0999,-0.016918
0.584,54.0999,-0.012084
0.614,54.0999,-0.018127
0.629,54.0999,-0.013293
0.645,54.0999,-0.014501
0.661,54.0999,-0.014501
0.677,54.0999,-0.019335
0.703,54.0999,-0.016918
0.725,54.0999,-0.018127
0.743,54.0999,-0.010876
0.757,54.0999,-0.015710
0.773,54.0999,-0.020544
0.790,54.0999,-0.020544
0.806,54.0999,-0.016918
0.821,54.0999,-0.016918
0.837,54.0999,-0.013293
0.853,54.0999,-0.012084
0.869,54.0999,-0.019335
0.885,54.0999,-0.014501
0.901,54.0999,-0.014501
0.917,54.0999,-0.015710
0.933,54.0999,-0.013293
0.949,54.0999,-0.015710
0.965,54.0999,-0.016918
0.981,54.0999,-0.016918
1.000,54.0999,-0.012084
1.014,54.0999,-0.016918
1.029,54.0999,-0.012084
1.045,54.0999,-0.015710
1.062,54.0999,-0.015710
1.079,54.0999,-0.019335
1.096,54.0999,-0.019335
1.109,54.0999,-0.008459
1.125,54.0999,-0.019335
1.141,54.0999,-0.019335
1.157,54.0999,-0.013293
1.181,54.0999,-0.018127
1.195,54.0999,-0.019335
1.211,54.0999,-0.018127
1.227,54.0999,-0.019335
1.244,54.0999,-0.012084
1.260,54.0999,-0.012084
1.277,54.0999,-0.012084
1.292,54.0999,-0.016918
1.310,54.0999,-0.016918
1.325,54.0999,-0.010876
1.342,54.0999,-0.010876
1.355,54.0999,-0.016918
1.371,54.0999,-0.015710
1.387,54.0999,-0.008459
1.403,54.0999,-0.014501
1.427,54.0999,-0.016918
1.438,54.0999,-0.014501
1.452,54.0999,-0.009668
1.468,54.0999,-0.010876
1.484,54.0999,-0.012084
1.501,54.0999,-0.012084
1.516,54.0999,-0.008459
1.531,54.0999,-0.016918
1.549,54.0999,-0.015710
1.565,54.0999,-0.014501
1.583,54.0999,-0.022961
1.595,54.0999,-0.015710
1.615,54.0999,-0.015710
1.627,54.0999,-0.018127
1.644,54.0999,-0.010876
1.659,54.0999,-0.014501
1.675,54.0999,-0.018127
1.692,54.0999,-0.013293
1.707,54.0999,-0.012084
1.731,54.0999,-0.012084
1.751,54.0999,-0.015710
1.762,54.0999,-0.012084
1.778,54.0999,-0.014501
1.794,54.0999,-0.013293
1.811,54.0999,-0.014501
1.826,54.0999,-0.013293
1.842,54.0999,-0.013293
1.859,54.0999,-0.012084
1.875,54.0999,-0.014501
1.890,54.0999,-0.010876
1.906,54.0999,-0.018127
1.923,54.0999,-0.018127
1.939,54.0999,-0.013293
1.957,54.0999,-0.014501
1.971,54.0999,-0.016918
1.987,54.0999,-0.016918
2.003,54.0999,-0.016918
2.019,54.0999,-0.012084
2.034,54.0999,-0.014501
2.050,54.0999,-0.009668
2.066,54.0999,-0.013293
2.082,54.0999,-0.013293
2.098,54.0999,-0.014501
2.115,54.0999,-0.018127
2.130,54.0999,-0.013293
2.145,54.0999,-0.016918
2.169,54.0999,-0.016918
2.184,54.0999,-0.013293
2.195,54.0999,-0.014501
2.210,54.0999,-0.014501
2.227,54.0999,-0.012084
2.242,54.0999,-0.012084
2.258,54.0999,-0.012084
2.274,54.0999,-0.013293
2.298,54.0999,-0.013293
2.314,54.0999,-0.010876
2.330,54.0999,-0.015710
2.345,54.0999,-0.008459
2.364,54.0999,-0.009668
2.377,54.0999,-0.014501
2.393,54.0999,-0.009668
2.409,54.0999,-0.014501
2.427,54.0999,-0.014501
2.442,54.0999,-0.018127
2.457,54.0999,-0.016918
2.473,54.0999,-0.012084
2.493,54.0999,-0.015710
2.505,54.0999,-0.016918
2.521,54.0999,-0.009668
2.537,54.0999,-0.010876
2.554,54.0999,-0.010876
2.569,54.0999,-0.015710
2.586,54.0999,-0.007251
2.601,54.0999,-0.012084
2.617,54.0999,-0.016918
2.633,54.0999,-0.016918
2.650,54.0999,-0.015710
2.664,54.0999,-0.012084
2.681,54.0999,-0.014501
2.697,54.0999,-0.009668
2.713,54.0999,-0.009668
2.730,54.0999,-0.012084
2.751,54.0999,-0.012084
2.764,54.0999,-0.015710
2.777,54.0999,-0.007251
2.793,54.0999,-0.012084
2.809,54.0999,-0.014501
2.831,54.0999,-0.016918
2.846,54.0999,-0.016918
2.862,54.0999,-0.016918
2.878,54.0999,-0.010876
2.894,54.0999,-0.009668
2.910,54.0999,-0.008459
2.927,54.0999,-0.008459
2.942,54.0999,-0.010876
2.959,54.0999,-0.013293
2.975,54.0999,-0.009668
2.991,54.0999,-0.009668
3.005,54.0999,-0.012084
3.022,54.0999,-0.008459
3.038,54.0999,-0.008459
3.054,54.0999,-0.010876
3.078,54.0999,-0.012084
3.101,54.0999,-0.012084
3.120,54.0999,-0.007251
3.135,54.0999,-0.012084
3.150,54.0999,-0.013293
3.166,54.0999,-0.014501
3.182,54.0999,-0.013293
3.200,54.0999,-0.015710
3.214,54.0999,-0.015710
3.230,54.0999,-0.015710
3.246,54.0999,-0.014501
3.262,54.0999,-0.014501
3.278,54.0999,-0.013293
3.293,54.0999,-0.013293
3.313,54.0999,-0.013293
3.326,54.0999,-0.013293
3.341,54.0999,-0.009668
3.358,54.0999,-0.013293
3.381,54.0999,-0.013293
3.396,54.0999,-0.013293
3.412,54.0999,-0.015710
3.428,54.0999,-0.019335
3.444,54.0999,-0.012084
3.461,54.0999,-0.018127
3.477,54.0999,-0.012084
3.492,54.0999,-0.008459
3.510,54.0999,-0.008459
3.525,54.0999,-0.010876
3.540,54.0999,-0.014501
3.556,54.0999,-0.009668
3.574,54.0999,-0.014501
3.589,54.0999,-0.013293
3.605,54.0999,-0.009668
3.621,54.0999,-0.009668
3.639,54.0999,-0.019335
3.653,54.0999,-0.015710
3.668,54.0999,-0.013293
3.685,54.0999,-0.010876
3.701,54.0999,-0.010876
3.717,54.0999,-0.016918
3.732,54.0999,-0.016918
3.750,54.0999,-0.013293
3.765,54.0999,-0.019335
3.780,54.0999,-0.010876
3.802,54.0999,-0.010876
3.814,54.0999,-0.008459
3.829,54.0999,-0.018127
3.846,54.0999,-0.015710
3.861,54.0999,-0.009668
3.877,54.0999,-0.013293
3.893,54.0999,-0.016918
3.923,54.0999,-0.014501
3.938,54.0999,-0.007251
3.954,54.0999,-0.010876
3.970,54.0999,-0.012084
3.989,54.0999,-0.012084
4.003,54.0999,-0.013293
4.021,54.0999,-0.018127
4.034,54.0999,-0.010876
4.052,54.0999,-0.013293
4.067,54.0999,-0.015710
4.085,54.0999,-0.015710
4.098,54.0999,-0.015710
4.114,54.0999,-0.008459
4.130,54.0999,-0.008459
4.146,54.0999,-0.012084
4.163,54.0999,-0.008459
4.178,54.0999,-0.007251
4.195,54.0999,-0.018127
4.210,54.0999,-0.014501
4.235,54.0999,-0.014501
4.256,54.0999,-0.006042
4.275,54.0999,-0.012084
4.290,54.0999,-0.009668
4.307,54.0999,-0.014501
4.322,54.0999,-0.015710
4.339,54.0999,-0.009668
4.355,54.0999,-0.013293
4.371,54.0999,-0.013293
4.388,54.0999,-0.010876
4.402,54.0999,-0.007251
4.419,54.0999,-0.010876
4.434,54.0999,-0.016918
4.450,54.0999,-0.016918
4.466,54.0999,-0.016918
4.489,54.0999,-0.015710
4.504,54.0999,-0.007251
4.521,54.0999,-0.009668
4.536,54.0999,-0.010876
4.552,54.0999,-0.013293
4.568,54.0999,-0.009668
4.584,54.0999,-0.012084
4.600,54.0999,-0.012084
4.622,54.0999,-0.012084
4.633,54.0999,-0.012084
4.648,54.0999,-0.016918
4.664,54.0999,-0.015710
4.681,54.0999,-0.009668
4.696,54.0999,-0.007251
4.712,54.0999,-0.009668
4.728,54.0999,-0.007251
4.745,54.0999,-0.010876
4.760,54.0999,-0.008459
4.777,54.0999,-0.008459
4.792,54.0999,-0.009668
4.809,54.0999,-0.014501
4.824,54.0999,-0.009668
4.843,54.0999,-0.009668
4.856,54.0999,-0.010876
4.872,54.0999,-0.010876
4.888,54.0999,-0.012084
4.904,54.0999,-0.016918
4.920,54.0999,-0.013293
4.936,54.0999,-0.009668
4.952,54.0999,-0.009668
4.968,54.0999,-0.015710
4.992,54.0999,-0.020544
5.014,54.0999,-0.010876
5.032,54.0999,-0.009668
5.048,54.0999,-0.015710
5.065,54.0999,-0.013293
5.080,54.0999,-0.010876
5.096,54.0999,-0.013293
5.112,54.0999,-0.008459
5.131,54.0999,-0.013293
5.144,54.0999,-0.015710
5.160,54.0999,-0.009668
5.176,54.0999,-0.009668
5.193,54.0999,-0.009668
5.208,54.0999,-0.014501
5.225,54.0999,-0.014501
5.240,54.0999,-0.014501
5.257,54.0999,-0.019335
5.273,54.0999,-0.015710
5.290,54.0999,-0.018127
5.304,54.0999,-0.007251
5.320,54.0999,-0.007251
5.336,54.0999,-0.014501
5.351,54.0999,-0.014501
5.368,54.0999,-0.008459
5.385,54.0999,-0.010876
5.400,54.0999,-0.012084
5.416,54.0999,-0.012084
5.432,54.0999,-0.016918
5.449,54.0999,-0.010876
5.464,54.0999,-0.012084
5.479,54.0999,-0.015710
5.499,54.0999,-0.013293
5.511,54.0999,-0.016918
5.528,54.0999,-0.009668
5.543,54.0999,-0.010876
5.567,54.0999,-0.008459
5.586,54.0999,-0.008459
5.598,54.0999,-0.012084
5.615,54.0999,-0.004834
5.630,54.0999,-0.008459
5.647,54.0999,-0.010876
5.663,54.0999,-0.012084
5.678,54.0999,-0.008459
5.702,54.0999,-0.009668
5.725,54.0999,-0.010876
5.744,54.0999,-0.014501
5.760,54.0999,-0.014501
5.775,54.0999,-0.012084
5.791,54.0999,-0.010876
5.806,54.0999,-0.010876
5.825,54.0999,-0.008459
5.838,54.0999,-0.015710
5.854,54.0999,-0.004834
5.870,54.0999,-0.010876
5.890,54.0999,-0.007251
5.902,54.0999,-0.012084
5.920,54.0999,-0.015710
5.936,54.0999,-0.008459
5.950,54.0999,-0.009668
5.966,54.0999,-0.006042
5.982,54.0999,-0.006042
5.999,54.0999,-0.015710
6.015,54.0999,-0.007251
6.032,54.0999,-0.007251
6.046,54.0999,-0.007251
6.062,54.0999,-0.009668
6.078,54.0999,-0.010876
6.094,54.0999,-0.013293
6.118,54.0999,-0.013293
6.133,54.0999,-0.013293
6.150,54.0999,-0.013293
6.165,54.0999,-0.004834
6.183,54.0999,-0.012084
6.199,54.0999,-0.008459
6.213,54.0999,-0.015710
6.229,54.0999,-0.015710
6.249,54.0999,-0.009668
6.261,54.0999,-0.010876
6.277,54.0999,-0.009668
6.293,54.0999,-0.009668
6.310,54.0999,-0.009668
6.325,54.0999,-0.012084
6.341,54.0999,-0.014501
6.357,54.0999,-0.013293
6.374,54.0999,-0.006042
6.389,54.0999,-0.009668
6.409,54.0999,-0.010876
6.423,54.0999,-0.008459
6.437,54.0999,-0.009668
6.455,54.0999,-0.012084
6.469,54.0999,-0.014501
6.486,54.0999,-0.009668
6.502,54.0999,-0.009668
6.517,54.0999,-0.004834
6.536,54.0999,-0.004834
6.549,54.0999,-0.014501
6.565,54.0999,-0.009668
6.581,54.0999,-0.008459
6.598,54.0999,-0.014501
6.613,54.0999,-0.009668
6.629,54.0999,-0.009668
6.658,54.0999,-0.013293
6.673,54.0999,-0.013293
6.689,54.0999,-0.013293
6.705,54.0999,-0.009668
6.721,54.0999,-0.010876
6.737,54.0999,-0.008459
6.753,54.0999,-0.008459
6.769,54.0999,-0.012084
6.785,54.0999,-0.015710
6.801,54.0999,-0.010876
6.817,54.0999,-0.012084
6.833,54.0999,-0.012084
6.849,54.0999,-0.008459
6.864,54.0999,-0.009668
6.881,54.0999,-0.007251
6.897,54.0999,-0.007251
6.913,54.0999,-0.010876
6.929,54.0999,-0.007251
6.952,54.0999,-0.010876
6.975,54.0999,-0.012084
6.993,54.0999,-0.010876
7.012,54.0999,-0.009668
7.025,54.0999,-0.010876
7.042,54.0999,-0.010876
7.061,54.0999,-0.007251
7.074,54.0999,-0.013293
7.089,54.0999,-0.013293
7.105,54.0999,-0.009668
7.122,54.0999,-0.009668
7.138,54.0999,-0.013293
7.153,54.0999,-0.012084
7.169,54.0999,-0.008459
7.198,54.0999,-0.007251
7.213,54.0999,-0.003625
7.229,54.0999,-0.004834
7.245,54.0999,-0.012084
7.262,54.0999,-0.012084
7.278,54.0999,-0.015710
7.293,54.0999,-0.007251
7.309,54.0999,-0.013293
7.325,54.0999,-0.014501
7.341,54.0999,-0.014501
7.359,54.0999,-0.013293
7.373,54.0999,-0.014501
7.390,54.0999,-0.014501
7.405,54.0999,-0.013293
7.421,54.0999,-0.013293
7.437,54.0999,-0.009668
7.453,54.0999,-0.008459
7.469,54.0999,-0.013293
7.485,54.0999,-0.002417
7.500,54.0999,-0.006042
7.517,54.0999,-0.008459
7.533,54.0999,-0.008459
7.549,54.0999,-0.007251
7.566,54.0999,-0.008459
7.581,54.0999,-0.013293
7.597,54.0999,-0.012084
7.614,54.0999,-0.007251
7.628,54.0999,-0.008459
7.646,54.0999,-0.006042
7.660,54.0999,-0.013293
7.678,54.0999,-0.012084
7.693,54.0999,-0.008459
7.708,54.0999,-0.012084
7.740,54.0999,-0.012084
7.757,54.0999,-0.009668
7.772,54.0999,-0.012084
7.788,54.0999,-0.014501
7.804,54.0999,-0.013293
7.820,54.0999,-0.016918
7.836,54.0999,-0.010876
7.851,54.0999,-0.012084
7.868,54.0999,-0.004834
7.884,54.0999,-0.007251
7.902,54.0999,-0.007251
7.915,54.0999,-0.004834
7.932,54.0999,-0.004834
7.948,54.0999,-0.012084
7.963,54.0999,-0.006042
7.979,54.0999,-0.003625
7.996,54.0999,-0.006042
8.012,54.0999,-0.004834
8.027,54.0999,-0.012084
8.044,54.0999,-0.013293
8.059,54.0999,-0.015710
8.075,54.0999,-0.008459
8.091,54.0999,-0.008459
8.111,54.0999,-0.006042
8.124,54.0999,-0.013293
8.139,54.0999,-0.018127
8.155,54.0999,-0.008459
8.172,54.0999,-0.008459
8.188,54.0999,-0.014501
8.204,54.0999,-0.010876
8.219,54.0999,-0.012084
8.236,54.0999,-0.008459
8.252,54.0999,-0.008459
8.271,54.0999,-0.009668
8.295,54.0999,-0.014501
8.311,54.0999,-0.010876
8.327,54.0999,-0.004834
8.343,54.0999,-0.004834
8.360,54.0999,-0.008459
8.376,54.0999,-0.012084
8.392,54.0999,-0.012084
8.407,54.0999,-0.008459
8.425,54.0999,-0.003625
8.440,54.0999,-0.014501
8.457,54.0999,-0.018127
8.472,54.0999,-0.008459
8.488,54.0999,-0.010876
8.504,54.0999,-0.010876
8.519,54.0999,-0.010876
8.535,54.0999,-0.012084
8.552,54.0999,-0.012084
8.568,54.0999,-0.007251
8.583,54.0999,-0.015710
8.608,54.0999,-0.008459
8.630,54.0999,-0.012084
8.648,54.0999,-0.008459
8.665,54.0999,-0.010876
8.680,54.0999,-0.001208
8.696,54.0999,-0.004834
8.711,54.0999,-0.014501
8.728,54.0999,-0.015710
8.744,54.0999,-0.010876
8.760,54.0999,-0.008459
8.777,54.0999,-0.008459
8.791,54.0999,0.000000
8.807,54.0999,-0.002417
8.823,54.0999,-0.009668
8.846,54.0999,-0.007251
8.861,54.0999,-0.009668
8.877,54.0999,-0.007251
8.893,54.0999,-0.010876
8.910,54.0999,-0.010876
8.926,54.0999,-0.013293
8.942,54.0999,-0.009668
8.956,54.0999,-0.014501
8.979,54.0999,-0.009668
8.990,54.0999,-0.007251
9.006,54.0999,-0.009668
9.022,54.0999,-0.007251
9.037,54.0999,-0.013293
9.054,54.0999,-0.015710
9.069,54.0999,-0.014501
9.085,54.0999,-0.007251
9.102,54.0999,-0.007251
9.117,54.0999,-0.004834
9.134,54.0999,-0.013293
9.149,54.0999,-0.014501
9.165,54.0999,-0.013293
9.182,54.0999,-0.012084
9.197,54.0999,-0.014501
9.213,54.0999,-0.004834
9.232,54.0999,-0.004834
9.245,54.0999,-0.013293
9.261,54.0999,-0.002417
9.278,54.0999,-0.014501
9.294,54.0999,-0.015710
9.309,54.0999,-0.008459
9.324,54.0999,-0.008459
9.341,54.0999,-0.004834
9.357,54.0999,-0.007251
9.373,54.0999,-0.009668
9.395,54.0999,-0.014501
9.411,54.0999,-0.008459
9.427,54.0999,-0.010876
9.443,54.0999,-0.004834
9.460,54.0999,-0.010876
9.476,54.0999,-0.016918
9.491,54.0999,-0.013293
9.508,54.0999,-0.007251
9.523,54.0999,-0.003625
9.539,54.0999,-0.013293
9.555,54.0999,-0.008459
9.571,54.0999,-0.002417
9.587,54.0999,-0.009668
9.604,54.0999,-0.009668
9.621,54.0999,-0.009668
9.635,54.0999,-0.010876
9.651,54.0999,-0.002417
9.669,54.0999,-0.003625
9.683,54.0999,-0.003625
9.699,54.0999,-0.008459
9.715,54.0999,-0.013293
9.733,54.0999,-0.014501
9.747,54.0999,-0.007251
9.763,54.0999,-0.007251
9.778,54.0999,-0.010876
9.797,54.0999,-0.009668
9.812,54.0999,-0.014501
9.826,54.0999,-0.010876
9.843,54.0999,-0.013293
9.860,54.0999,-0.013293
9.876,54.0999,-0.008459
9.893,54.0999,-0.009668
9.917,54.0999,-0.003625
9.933,54.0999,-0.012084
9.949,54.0999,-0.008459
9.965,54.0999,-0.012084
9.981,54.0999,-0.009668
9.998,54.0999,-0.010876
10.014,54.0999,-0.010876
10.030,54.0999,-0.008459
10.046,54.0999,-0.006042
10.061,54.0999,-0.010876
10.078,54.0999,-0.010876
10.093,54.0999,-0.008459
10.109,54.0999,-0.009668
10.125,54.0999,-0.007251
10.142,54.0999,-0.006042
10.157,54.0999,-0.007251
10.173,54.0999,-0.013293
10.189,54.0999,-0.014501
10.205,54.0999,-0.015710
10.222,54.0999,-0.012084
10.237,54.0999,-0.009668
10.261,54.0999,-0.009668
10.282,54.0999,-0.016918
10.302,54.0999,-0.014501
10.318,54.0999,-0.013293
10.334,54.0999,-0.007251
10.350,54.0999,-0.009668
10.365,54.0999,-0.003625
10.382,54.0999,-0.012084
10.398,54.0999,-0.012084
10.415,54.0999,-0.008459
10.444,54.0999,-0.008459
10.458,54.0999,-0.009668
10.474,54.0999,-0.012084
10.490,54.0999,-0.009668
10.510,54.0999,-0.012084
10.523,54.0999,-0.006042
10.540,54.0999,-0.008459
10.555,54.0999,-0.009668
10.572,54.0999,-0.009668
10.587,54.0999,-0.004834
10.602,54.0999,-0.004834
10.620,54.0999,-0.009668
10.634,54.0999,-0.013293
10.651,54.0999,-0.010876
10.666,54.0999,-0.001208
10.682,54.0999,-0.001208
10.700,54.0999,-0.006042
10.714,54.0999,-0.007251
10.731,54.0999,-0.004834
10.747,54.0999,-0.012084
10.762,54.0999,-0.009668
10.780,54.0999,-0.009668
10.795,54.0999,-0.006042
10.811,54.0999,-0.006042
10.826,54.0999,-0.012084
10.843,54.0999,-0.013293
10.858,54.0999,-0.008459
10.874,54.0999,-0.013293
10.890,54.0999,-0.007251
10.910,54.0999,-0.008459
10.922,54.0999,-0.008459
10.938,54.0999,-0.007251
10.954,54.0999,-0.014501
10.978,54.0999,-0.009668
10.994,54.0999,-0.004834
11.009,54.0999,-0.009668
11.025,54.0999,-0.012084
11.044,54.0999,-0.013293
11.057,54.0999,-0.009668
11.074,54.0999,-0.010876
11.091,54.0999,-0.010876
11.106,54.0999,-0.007251
11.122,54.0999,-0.015710
11.139,54.0999,-0.008459
11.156,54.0562,0.070090
11.170,53.8344,0.070090
11.185,53.5575,0.071298
11.201,53.2565,0.031420
11.218,52.9387,0.097884
11.234,52.6320,0.097884
11.249,52.3608,0.163140
11.266,52.0148,0.210270
11.282,51.7400,0.210270
11.297,51.4520,0.228397
11.313,51.1509,0.082174
11.329,50.8443,0.082174
11.346,50.5281,0.001208
11.361,50.2626,0.001208
11.376,49.9672,0.001208
11.393,49.6680,0.002417
11.409,49.3650,0.003625
11.425,49.0696,0.000000
11.442,48.7405,0.000000
11.457,48.4581,-0.001208
11.473,48.1775,0.002417
11.489,48.0499,-0.107552
11.514,48.0499,-0.004834
11.529,48.0499,-0.004834
11.545,48.0499,0.003625
11.560,48.0499,0.002417
11.578,48.0499,0.000000
11.593,48.0499,-0.001208
11.610,48.0499,-0.001208
11.626,48.0499,-0.003625
11.641,48.0499,0.001208
11.657,48.0499,0.002417
11.673,48.0499,0.001208
11.691,48.0499,0.004834
11.705,48.0499,0.000000
11.720,48.0499,0.000000
11.737,48.0499,0.000000
11.753,48.0499,-0.002417
11.769,48.0499,0.006042
11.785,48.0499,0.002417
11.801,48.0499,-0.007251
11.818,48.0499,-0.001208
11.834,48.0499,-0.001208
11.849,48.0499,0.004834
11.865,48.0499,0.002417
11.881,48.0499,-0.001208
11.897,48.0499,-0.004834
11.912,48.0499,-0.004834
11.931,48.0499,0.002417
11.945,48.1014,-0.099093
11.961,48.3622,-0.163140
11.976,48.6483,0.008459
11.993,48.9662,0.008459
12.009,49.2542,0.008459
12.024,49.5496,-0.001208
12.040,49.8470,-0.004834
12.064,50.2996,-0.004834
12.082,50.6230,0.004834
12.096,50.8867,0.007251
12.113,51.2027,0.000000
12.128,51.4758,0.000000
12.143,51.7881,-0.001208
12.160,52.0928,0.001208
12.175,52.3715,-0.010876
12.192,52.6725,-0.010876
12.207,52.9681,-0.016918
12.223,53.2653,-0.014501
12.239,53.5720,-0.025377
12.256,53.8931,-0.035045
12.272,54.0484,0.026586
12.287,54.0499,0.000000
12.304,54.0499,-0.044713
12.321,54.0499,-0.035045
12.335,54.0499,-0.049546
12.352,54.0499,-0.041087
12.369,54.0499,-0.048338
12.384,54.0499,-0.036253
12.400,54.0499,-0.036253
12.415,54.0499,-0.030211
12.432,54.0499,-0.032628
12.448,54.0499,-0.027794
12.464,54.0499,-0.027794
12.479,54.0499,-0.027794
12.496,54.0499,-0.027794
12.511,54.0499,-0.027794
12.527,54.0499,-0.025377
12.543,54.0499,-0.021752
12.559,54.0499,-0.021752
12.575,54.0499,-0.021752
12.591,54.0499,-0.029003
12.616,54.0499,-0.016918
12.630,54.0499,-0.029003
12.647,54.0499,-0.022961
12.662,54.0499,-0.022961
12.679,54.0499,-0.021752
12.695,54.0499,-0.021752
12.713,54.0499,-0.024169
12.727,54.0499,-0.015710
12.743,54.0499,-0.015710
12.758,54.0499,-0.022961
12.774,54.0499,-0.020544
12.790,54.0499,-0.015710
12.807,54.0499,-0.022961
12.822,54.0499,-0.022961
12.842,54.0499,-0.018127
12.856,54.0499,-0.022961
12.871,54.0499,-0.019335
12.887,54.0499,-0.015710
12.903,54.0499,-0.020544
12.919,54.0499,-0.015710
12.934,54.0499,-0.018127
12.950,54.0499,-0.020544
12.967,54.0499,-0.019335
12.982,54.0499,-0.014501
12.999,54.0499,-0.015710
13.015,54.0499,-0.021752
13.030,54.0499,-0.021752
13.047,54.0499,-0.020544
13.063,54.0499,-0.021752
13.078,54.0499,-0.016918
13.094,54.0499,-0.020544
13.110,54.0499,-0.018127
13.126,54.0499,-0.024169
13.150,54.0499,-0.019335
13.165,54.0499,-0.018127
13.181,54.0499,-0.015710
13.197,54.0499,-0.016918
13.217,54.0499,-0.018127
13.229,54.0499,-0.020544
13.246,54.0499,-0.012084
13.261,54.0499,-0.019335
13.277,54.0499,-0.021752
13.293,54.0499,-0.019335
13.309,54.0499,-0.024169
13.326,54.0499,-0.016918
13.342,54.0499,-0.015710
13.360,54.0499,-0.008459
13.373,54.0499,-0.012084
13.389,54.0499,-0.012084
13.405,54.0499,-0.016918
13.421,54.0499,-0.016918
13.437,54.0499,-0.015710
13.453,54.0499,-0.015710
13.469,54.0499,-0.020544
13.485,54.0499,-0.015710
13.502,54.0499,-0.016918
13.518,54.0499,-0.020544
13.533,54.0499,-0.018127
13.549,54.0499,-0.015710
13.566,54.0499,-0.014501
13.581,54.0499,-0.015710
13.597,54.0499,-0.010876
13.613,54.0499,-0.015710
13.629,54.0499,-0.018127
13.645,54.0499,-0.018127
13.661,54.0499,-0.018127
13.692,54.0499,-0.020544
13.708,54.0499,-0.019335
13.724,54.0499,-0.018127
13.740,54.0499,-0.012084
13.755,54.0499,-0.015710
13.772,54.0499,-0.015710
13.788,54.0499,-0.015710
13.804,54.0499,-0.014501
13.820,54.0499,-0.008459
13.836,54.0499,-0.010876
13.853,54.0499,-0.018127
13.868,54.0499,-0.014501
13.884,54.0499,-0.014501
13.899,54.0499,-0.015710
13.916,54.0499,-0.010876
13.931,54.0499,-0.013293
13.948,54.0499,-0.019335
13.964,54.0499,-0.010876
13.980,54.0499,-0.016918
13.996,54.0499,-0.009668
14.012,54.0499,-0.013293
14.028,54.0499,-0.014501
14.044,54.0499,-0.012084
14.061,54.0499,-0.018127
14.075,54.0499,-0.014501
14.093,54.0499,-0.014501
14.108,54.0499,-0.020544
14.123,54.0499,-0.018127
14.140,54.0499,-0.013293
14.156,54.0499,-0.014501
14.171,54.0499,-0.014501
14.188,54.0499,-0.015710
14.204,54.0499,-0.016918
14.227,54.0499,-0.010876
14.243,54.0499,-0.009668
14.259,54.0499,-0.009668
14.275,54.0499,-0.010876
14.292,54.0499,-0.018127
14.308,54.0499,-0.010876
14.323,54.0499,-0.018127
14.339,54.0499,-0.019335
14.356,54.0499,-0.012084
14.372,54.0499,-0.012084
14.387,54.0499,-0.012084
14.404,54.0499,-0.020544
14.420,54.0499,-0.016918
14.435,54.0499,-0.012084
14.451,54.0499,-0.012084
14.467,54.0499,-0.015710
14.483,54.0499,-0.012084
14.499,54.0499,-0.012084
14.515,54.0499,-0.018127
14.533,54.0499,-0.018127
14.548,54.0499,-0.012084
14.564,54.0499,-0.018127
14.579,54.0499,-0.018127
14.595,54.0499,-0.012084
14.611,54.0499,-0.012084
14.627,54.0499,-0.010876
14.643,54.0499,-0.009668
14.660,54.0499,-0.013293
14.675,54.0499,-0.018127
14.691,54.0499,-0.016918
14.707,54.0499,-0.010876
14.724,54.0499,-0.009668
14.739,54.0499,-0.012084
14.755,54.0499,-0.018127
14.776,54.0499,-0.015710
14.792,54.0499,-0.012084
14.809,54.0499,-0.009668
14.824,54.0499,-0.010876
14.840,54.0499,-0.010876
14.856,54.0499,-0.013293
14.874,54.0499,-0.013293
14.888,54.0499,-0.015710
14.905,54.0499,-0.006042
14.920,54.0499,-0.006042
14.936,54.0499,-0.015710
14.956,54.0499,-0.008459
14.968,54.0499,-0.012084
14.984,54.0499,-0.014501
15.000,54.0499,-0.019335
15.017,54.0499,-0.009668
15.033,54.0499,-0.013293
15.050,54.0499,-0.008459
15.065,54.0499,-0.006042
15.080,54.0499,-0.006042
15.096,54.0499,-0.014501
15.112,54.0499,-0.010876
15.129,54.0499,-0.013293
15.145,54.0499,-0.014501
15.161,54.0499,-0.014501
15.178,54.0499,-0.008459
15.193,54.0499,-0.014501
15.208,54.0499,-0.016918
15.225,54.0499,-0.007251
15.241,54.0499,-0.010876
15.256,54.0499,-0.009668
15.272,54.0499,-0.009668
15.290,54.0499,-0.003625
15.315,54.0499,-0.008459
15.330,54.0499,-0.020544
15.346,54.0499,-0.015710
15.362,54.0499,-0.015710
15.378,54.0499,-0.014501
15.394,54.0499,-0.010876
15.411,54.0499,-0.010876
15.426,54.0499,-0.010876
15.442,54.0499,-0.010876
15.459,54.0499,-0.009668
15.474,54.0499,-0.009668
15.495,54.0499,-0.015710
15.506,54.0499,-0.012084
15.522,54.0499,-0.010876
15.538,54.0499,-0.013293
15.555,54.0499,-0.016918
15.570,54.0499,-0.016918
15.586,54.0499,-0.015710
15.602,54.0499,-0.008459
15.619,54.0499,-0.010876
15.635,54.0499,-0.014501
15.650,54.0499,-0.015710
15.666,54.0499,-0.014501
15.682,54.0499,-0.018127
15.698,54.0499,-0.014501
15.714,54.0499,-0.010876
15.730,54.0499,-0.010876
15.747,54.0499,-0.015710
15.764,54.0499,-0.015710
15.777,54.0499,-0.013293
15.794,54.0499,-0.018127
15.810,54.0499,-0.018127
15.826,54.0499,-0.013293
15.850,54.0499,-0.013293
15.866,54.0499,-0.012084
15.882,54.0499,-0.007251
15.898,54.0499,-0.019335
15.914,54.0499,-0.007251
15.930,54.0499,-0.012084
15.946,54.0499,-0.010876
15.962,54.0499,-0.008459
15.979,54.0499,-0.008459
15.995,54.0499,-0.014501
16.010,54.0499,-0.018127
16.026,54.0499,-0.014501
16.047,54.0499,-0.014501
16.058,54.0499,-0.012084
16.074,54.0499,-0.010876
16.090,54.0499,-0.010876
16.106,54.0499,-0.010876
16.122,54.0499,-0.014501
16.138,54.0499,-0.012084
16.154,54.0499,-0.015710
16.169,54.0499,-0.009668
16.186,54.0499,-0.003625
16.202,54.0499,-0.003625
16.220,54.0499,-0.008459
16.235,54.0499,-0.008459
16.251,54.0499,-0.008459
16.266,54.0499,-0.018127
16.282,54.0499,-0.018127
16.300,54.0499,-0.012084
16.315,54.0499,-0.014501
16.330,54.0499,-0.019335
16.346,54.0499,-0.015710
16.362,54.0499,-0.013293
16.379,54.0499,-0.008459
16.407,54.0499,-0.008459
16.429,54.0499,-0.010876
16.449,54.0499,-0.009668
16.464,54.0499,-0.010876
16.480,54.0499,-0.012084
16.495,54.0499,-0.013293
16.510,54.0499,-0.013293
16.526,54.0499,-0.007251
16.542,54.0499,-0.013293
16.558,54.0499,-0.013293
16.573,54.0499,-0.016918
16.589,54.0499,-0.013293
16.601,54.0499,-0.013293
16.615,54.0499,-0.003625
16.630,54.0499,-0.008459
16.647,54.0499,-0.010876
16.663,54.0499,-0.010876
16.678,54.0499,-0.009668
16.694,54.0499,-0.015710
16.710,54.0499,-0.013293
16.727,54.0499,-0.009668
16.743,54.0499,-0.009668
16.759,54.0499,-0.006042
16.778,54.0499,-0.009668
16.791,54.0499,-0.013293
16.807,54.0499,-0.015710
16.823,54.0499,-0.008459
16.839,54.0499,-0.012084
16.855,54.0499,-0.010876
16.870,54.0499,-0.012084
16.886,54.0499,-0.006042
16.902,54.0499,-0.003625
16.918,54.0499,-0.009668
16.934,54.0499,-0.012084
16.957,54.0499,-0.013293
16.973,54.0499,-0.013293
16.989,54.0499,-0.015710
17.005,54.0499,-0.010876
17.022,54.0499,-0.013293
17.038,54.0499,-0.009668
17.054,54.0499,-0.013293
17.069,54.0499,-0.012084
17.093,54.0499,-0.009668
17.103,54.0499,-0.009668
17.118,54.0499,-0.012084
17.134,54.0499,-0.012084
17.151,54.0499,-0.012084
17.166,54.0499,-0.018127
17.182,54.0499,-0.010876
17.197,54.0499,-0.009668
17.214,54.0499,-0.008459
17.230,54.0499,-0.008459
17.245,54.0499,-0.013293
17.261,54.0499,-0.012084
17.278,54.0499,-0.010876
17.294,54.0499,-0.010876
17.309,54.0499,-0.013293
17.325,54.0499,-0.014501
17.343,54.0499,-0.014501
17.357,54.0499,-0.006042
17.373,54.0499,-0.009668
17.389,54.0499,-0.013293
17.405,54.0499,-0.013293
17.421,54.0499,-0.009668
17.437,54.0499,-0.008459
17.455,54.0499,-0.012084
17.470,54.0499,-0.013293
17.486,54.0499,-0.009668
17.501,54.0499,-0.015710
17.522,54.0499,-0.012084
17.538,54.0499,-0.015710
17.554,54.0499,-0.006042
17.570,54.0499,-0.007251
17.586,54.0499,-0.015710
17.602,54.0499,-0.013293
17.618,54.0499,-0.012084
17.635,54.0499,-0.018127
17.650,54.0499,-0.018127
17.666,54.0499,-0.010876
17.682,54.0499,-0.018127
17.706,54.0499,-0.018127
17.729,54.0499,-0.008459
17.746,54.0499,-0.014501
17.762,54.0499,-0.012084
17.778,54.0499,-0.007251
17.794,54.0499,-0.012084
17.810,54.0499,-0.013293
17.827,54.0499,-0.018127
17.843,54.0499,-0.016918
17.858,54.0499,-0.004834
17.874,54.0499,-0.009668
17.891,54.0499,-0.009668
17.908,54.0499,-0.012084
17.922,54.0499,-0.013293
17.938,54.0499,-0.010876
17.958,54.0499,-0.019335
17.970,54.0499,-0.018127
17.986,54.0499,-0.004834
18.002,54.0499,-0.008459
18.020,54.0499,-0.007251
18.034,54.0499,-0.001208
18.050,54.0499,-0.007251
18.072,54.0499,-0.016918
18.088,54.0499,-0.014501
18.104,54.0499,-0.013293
18.120,54.0499,-0.013293
18.138,54.0499,-0.012084
18.152,54.0499,-0.013293
18.168,54.0499,-0.007251
18.184,54.0499,-0.009668
18.201,54.0499,-0.009668
18.216,54.0499,-0.010876
18.232,54.0499,-0.010876
18.248,54.0499,-0.013293
18.269,54.0499,-0.016918
18.280,54.0499,-0.016918
18.296,54.0499,-0.009668
18.312,54.0499,-0.006042
18.328,54.0499,-0.010876
18.344,54.0499,-0.010876
18.360,54.0499,-0.012084
18.378,54.0499,-0.012084
18.391,54.0499,-0.013293
18.408,54.0499,-0.009668
18.423,54.0499,-0.013293
18.442,54.0499,-0.009668
18.456,54.0499,-0.008459
18.472,54.0499,-0.008459
18.494,54.0499,-0.009668
18.517,54.0499,-0.006042
18.535,54.0499,-0.014501
18.551,54.0499,-0.007251
18.567,54.0499,-0.014501
18.583,54.0499,-0.003625
18.608,54.0499,-0.019335
18.622,54.0499,-0.019335
18.638,54.0499,-0.008459
18.654,54.0499,-0.007251
18.673,54.0499,-0.009668
18.687,54.0499,-0.008459
18.702,54.0499,-0.012084
18.718,54.0499,-0.010876
18.734,54.0499,-0.014501
18.750,54.0499,-0.006042
18.767,54.0499,-0.010876
18.782,54.0499,-0.012084
18.802,54.0499,-0.015710
18.814,54.0499,-0.016918
18.830,54.0499,-0.015710
18.846,54.0499,-0.009668
18.863,54.0499,-0.010876
18.879,54.0499,-0.008459
18.895,54.0499,-0.007251
18.910,54.0499,-0.014501
18.930,54.0499,-0.012084
18.942,54.0499,-0.012084
18.958,54.0499,-0.010876
18.974,54.0499,-0.008459
18.990,54.0499,-0.007251
19.007,54.0499,-0.010876
19.022,54.0499,-0.009668
19.040,54.0499,-0.010876
19.054,54.0499,-0.018127
19.072,54.0499,-0.018127
19.086,54.0499,-0.014501
19.102,54.0499,-0.014501
19.119,54.0499,-0.006042
19.134,54.0499,-0.009668
19.157,54.0499,-0.009668
19.174,54.0499,-0.009668
19.190,54.0499,-0.013293
19.205,54.0499,-0.014501
19.222,54.0499,-0.010876
19.238,54.0499,-0.004834
19.256,54.0499,-0.004834
19.269,54.0499,-0.009668
19.286,54.0499,-0.012084
19.301,54.0499,-0.012084
19.317,54.0499,-0.009668
19.334,54.0499,-0.008459
19.350,54.0499,-0.012084
19.365,54.0499,-0.008459
19.381,54.0499,-0.010876
19.401,54.0499,-0.014501
19.415,54.0499,-0.014501
19.429,54.0499,-0.008459
19.446,54.0499,-0.006042
19.461,54.0499,-0.004834
19.478,54.0499,-0.004834
19.494,54.0499,-0.009668
19.509,54.0499,-0.016918
19.525,54.0499,-0.013293
19.541,54.0499,-0.013293
19.558,54.0499,-0.013293
19.573,54.0499,-0.016918
19.590,54.0499,-0.012084
19.605,54.0499,-0.014501
19.621,54.0499,-0.014501
19.637,54.0499,-0.012084
19.654,54.0499,-0.003625
19.669,54.0499,-0.003625
19.685,54.0499,-0.012084
19.701,54.0499,-0.012084
19.724,54.0499,-0.012084
19.739,54.0499,-0.019335
19.755,54.0499,-0.013293
19.771,54.0499,-0.009668
19.787,54.0499,-0.013293
19.803,54.0499,-0.013293
19.819,54.0499,-0.007251
19.835,54.0499,-0.009668
19.855,54.0499,-0.008459
19.867,54.0499,-0.007251
19.883,54.0499,-0.007251
19.899,54.0499,-0.010876
19.915,54.0499,-0.010876
19.931,54.0499,-0.009668
19.949,54.0499,-0.010876
19.963,54.0499,-0.009668
19.980,54.0499,-0.010876
19.995,54.0499,-0.018127
20.013,54.0499,-0.018127
20.027,54.0499,-0.012084
20.043,54.0499,-0.006042
20.059,54.0499,-0.006042
20.075,54.0499,-0.010876
20.091,54.0499,-0.010876
20.108,54.0499,-0.010876
20.124,54.0499,-0.015710
20.139,54.0499,-0.010876
20.156,54.0499,-0.004834
20.171,54.0499,-0.002417
20.187,54.0499,-0.007251
20.203,54.0499,-0.009668
20.221,54.0499,-0.013293
20.235,54.0499,-0.007251
20.251,54.0499,-0.012084
20.267,54.0499,-0.008459
20.290,54.0499,-0.009668
20.306,54.0499,-0.014501
20.322,54.0499,-0.013293
20.338,54.0499,-0.009668
20.361,54.0499,-0.008459
20.385,54.0499,-0.014501
20.402,54.0499,-0.007251
20.418,54.0499,-0.010876
20.434,54.0499,-0.013293
20.450,54.0499,-0.013293
20.466,54.0499,-0.010876
20.482,54.0499,-0.008459
20.497,54.0499,-0.010876
20.513,54.0499,-0.008459
20.531,54.0499,-0.008459
20.546,54.0499,-0.016918
20.562,54.0499,-0.015710
20.578,54.0499,-0.010876
20.595,54.0499,-0.006042
20.611,54.0499,-0.006042
20.629,54.0499,-0.010876
20.641,54.0499,-0.012084
20.658,54.0499,-0.009668
20.674,54.0499,-0.010876
20.689,54.0499,-0.010876
20.705,54.0499,-0.009668
20.722,54.0499,-0.013293
20.745,54.0499,-0.019335
20.768,54.0499,-0.010876
20.786,54.0499,-0.009668
20.802,54.0499,-0.004834
20.817,54.0499,-0.013293
20.839,54.0499,-0.007251
20.854,54.0499,-0.013293
20.871,54.0499,-0.013293
20.886,54.0499,-0.015710
20.903,54.0499,-0.015710
20.919,54.0499,-0.009668
20.934,54.0499,-0.004834
20.950,54.0499,-0.004834
20.967,54.0499,-0.013293
20.983,54.0499,-0.013293
20.998,54.0499,-0.009668
21.015,54.0499,-0.008459
21.030,54.0499,-0.007251
21.046,54.0499,-0.012084
21.063,54.0499,-0.010876
21.080,54.0499,-0.009668
21.094,54.0499,-0.012084
21.111,54.0499,-0.012084
21.127,54.0499,-0.012084
21.142,54.0499,-0.012084
21.158,54.0499,-0.009668
21.174,54.0499,-0.007251
21.191,54.0499,-0.007251
21.207,54.0499,-0.012084
21.223,54.0499,-0.009668
21.238,54.0499,-0.009668
21.254,54.0499,-0.003625
21.270,54.0499,-0.003625
21.286,54.0499,-0.013293
21.303,54.0499,-0.013293
21.320,54.0499,-0.010876
21.334,54.0499,-0.012084
21.366,54.0499,-0.009668
21.381,54.0499,-0.012084
21.397,54.0499,-0.006042
21.413,54.0499,-0.007251
21.435,54.0499,-0.012084
21.447,54.0499,-0.008459
21.462,54.0499,-0.012084
21.477,54.0499,-0.012084
21.495,54.0499,-0.013293
21.510,54.0499,-0.010876
21.526,54.0499,-0.007251
21.541,54.0499,-0.009668
21.559,54.0499,-0.012084
21.574,54.0499,-0.009668
21.590,54.0499,-0.009668
21.605,54.0499,-0.007251
21.622,54.0499,-0.007251
21.638,54.0499,-0.010876
21.653,54.0499,-0.009668
21.669,54.0499,-0.007251
21.686,54.0499,-0.009668
21.702,54.0499,-0.009668
21.717,54.0499,-0.010876
21.733,54.0499,-0.010876
21.749,54.0499,-0.015710
21.765,54.0499,-0.009668
21.781,54.0499,-0.013293
21.800,54.0499,-0.008459
21.813,54.0499,-0.007251
21.829,54.0499,-0.018127
21.845,54.0499,-0.009668
21.862,54.0499,-0.018127
21.877,54.0499,-0.015710
21.892,54.0499,-0.003625
21.909,54.0499,-0.016918
21.933,54.0499,-0.010876
21.948,54.0499,-0.007251
21.964,54.0499,-0.012084
21.980,54.0499,-0.012084
21.997,54.0499,-0.009668
22.012,54.0499,-0.009668
22.028,54.0499,-0.008459
22.044,54.0499,-0.010876
22.061,54.0499,-0.014501
22.076,54.0499,-0.007251
22.093,54.0499,-0.006042
22.109,54.0499,-0.012084
22.124,54.0499,-0.013293
22.141,54.0499,-0.007251
22.157,54.0499,-0.006042
22.172,54.0499,-0.008459
22.189,54.0499,-0.006042
22.204,54.0499,-0.009668
22.222,54.0499,-0.013293
22.238,54.0499,-0.006042
22.253,54.0499,-0.006042
22.268,54.0499,-0.012084
22.284,54.0499,-0.007251
22.301,54.0499,-0.013293
22.317,54.0499,-0.006042
22.333,54.0499,-0.009668
22.348,54.0499,-0.008459
22.365,54.0499,-0.012084
22.380,54.0499,-0.012084
22.398,54.0499,-0.004834
22.412,54.0499,-0.002417
22.428,54.0499,-0.008459
22.444,54.0499,-0.008459
22.461,54.0499,-0.014501
22.485,54.0499,-0.013293
22.501,54.0499,-0.007251
22.517,54.0499,-0.007251
22.533,54.0499,-0.009668
22.549,54.0499,-0.009668
22.565,54.0499,-0.012084
22.581,54.0499,-0.009668
22.596,54.0499,-0.014501
22.613,54.0499,-0.010876
22.630,54.0499,-0.010876
22.644,54.0499,-0.014501
22.666,54.0499,-0.008459
22.677,54.0499,-0.015710
22.694,54.0499,-0.012084
22.708,54.0499,-0.008459
22.726,54.0499,-0.009668
22.741,54.0499,-0.010876
22.756,54.0499,-0.008459
22.773,54.0499,-0.013293
22.789,54.0499,-0.013293
22.805,54.0499,-0.016918
22.821,54.0499,-0.013293
22.838,54.0499,-0.012084
22.853,54.0499,-0.009668
22.870,54.0499,-0.009668
22.885,54.0499,-0.012084
22.901,54.0499,-0.012084
22.917,54.0499,-0.010876
22.933,54.0499,-0.007251
22.948,54.0499,-0.004834
22.964,54.0499,-0.007251
22.980,54.0499,-0.010876
22.996,54.0499,-0.002417
23.020,54.0499,-0.002417
23.036,54.0499,-0.012084
23.051,54.0499,-0.008459
23.067,54.0499,-0.008459
23.084,54.0499,-0.010876
23.100,54.0499,-0.010876
23.117,54.0499,-0.013293
23.131,54.0499,-0.015710
23.151,54.0499,-0.009668
23.164,54.0499,-0.010876
23.180,54.0499,-0.013293
23.195,54.0499,-0.006042
23.212,54.0499,-0.010876
23.227,54.0499,-0.014501
23.243,54.0499,-0.009668
23.268,54.0499,-0.009668
23.278,54.0499,-0.013293
23.292,54.0499,-0.004834
23.308,54.0499,-0.004834
23.324,54.0499,-0.013293
23.341,54.0499,-0.010876
23.356,54.0499,-0.015710
23.371,54.0499,-0.012084
23.389,54.0499,-0.013293
23.403,54.0499,-0.010876
23.419,54.0499,-0.012084
23.435,54.0499,-0.014501
23.452,54.0499,-0.008459
23.468,54.0499,-0.013293
23.484,54.0499,-0.010876
23.499,54.0499,-0.003625
23.517,54.0499,-0.010876
23.531,54.0499,-0.010876
23.548,54.0499,-0.003625
23.573,54.0499,-0.013293
23.588,54.0499,-0.010876
23.604,54.0499,-0.007251
23.620,54.0499,-0.008459
23.637,54.0499,-0.010876
23.653,54.0499,-0.010876
23.668,54.0499,-0.012084
23.684,54.0499,-0.006042
23.707,54.0499,-0.006042
23.721,54.0499,-0.009668
23.732,54.0499,-0.009668
23.748,54.0499,-0.014501
23.764,54.0499,-0.003625
23.780,54.0499,-0.003625
23.796,54.0499,-0.010876
23.812,54.0499,-0.009668
23.828,54.0499,-0.009668
23.844,54.0499,-0.009668
23.860,54.0499,-0.008459
23.878,53.9994,0.058005
23.892,53.7545,0.169183
23.909,53.4422,0.031420
23.926,53.1280,0.053172
23.941,52.8531,0.090634
23.956,52.5688,0.112386
23.972,52.2715,0.169183
23.989,51.9442,0.192143
24.005,51.6226,0.212687
24.020,51.3703,0.223563
24.036,51.0747,0.099093
24.053,50.7550,0.099093
24.068,50.4689,0.001208
24.085,50.1603,0.000000
24.112,49.6554,0.006042
24.128,49.3525,0.000000
24.144,49.0514,0.000000
24.160,48.7597,0.001208
24.177,48.4250,-0.002417
24.192,48.1527,-0.004834
24.208,48.0002,-0.030211
24.224,47.9999,-0.123262
24.242,47.9999,-0.001208
24.258,47.9999,-0.009668
24.272,47.9999,0.000000
24.290,47.9999,-0.004834
24.305,47.9999,-0.002417
24.321,47.9999,-0.001208
24.336,47.9999,-0.003625
24.352,47.9999,-0.003625
24.368,47.9999,0.003625
24.384,47.9999,0.004834
24.402,47.9999,0.002417
24.416,47.9999,-0.001208
24.432,47.9999,-0.006042
24.448,47.9999,0.001208
24.465,47.9999,0.002417
24.480,47.9999,-0.003625
24.496,47.9999,-0.002417
24.512,47.9999,0.002417
24.528,47.9999,-0.001208
24.544,47.9999,-0.003625
24.560,47.9999,0.000000
24.577,47.9999,-0.008459
24.592,47.9999,-0.008459
24.608,47.9999,-0.003625
24.639,47.9999,-0.004834
24.656,47.9999,0.000000
24.672,47.9999,0.001208
24.687,47.9999,-0.001208
24.704,48.0787,-0.001208
24.719,48.3477,-0.153473
24.736,48.6525,0.000000
24.752,48.9555,0.000000
24.768,49.2584,0.003625
24.783,49.5464,0.009668
24.798,49.8306,0.002417
24.814,50.1280,-0.007251
24.831,50.4328,0.002417
24.846,50.7413,0.001208
24.869,51.1509,0.003625
24.880,51.3585,0.002417
24.895,51.6370,0.012084
24.913,51.9849,0.000000
24.926,52.2243,-0.008459
24.942,52.5216,-0.008459
24.959,52.8394,-0.015710
24.975,53.1237,-0.020544
24.990,53.4191,-0.035045
25.006,53.7240,-0.037462
25.022,53.9646,-0.025377
25.039,53.9999,0.084591
25.055,53.9999,-0.042296
25.073,53.9999,-0.044713
25.086,53.9999,-0.045921
25.103,53.9999,-0.045921
25.119,53.9999,-0.048338
25.135,53.9999,-0.031420
25.164,53.9999,-0.025377
25.180,53.9999,-0.033837
25.195,53.9999,-0.025377
25.211,53.9999,-0.032628
25.228,53.9999,-0.031420
25.244,53.9999,-0.030211
25.259,53.9999,-0.019335
25.276,53.9999,-0.021752
25.295,53.9999,-0.021752
25.308,53.9999,-0.031420
25.323,53.9999,-0.027794
25.341,53.9999,-0.021752
25.355,53.9999,-0.021752
25.371,53.9999,-0.024169
25.387,53.9999,-0.016918
25.403,53.9999,-0.027794
25.419,53.9999,-0.027794
25.436,53.9999,-0.025377
25.451,53.9999,-0.024169
25.468,53.9999,-0.021752
25.484,53.9999,-0.021752
25.500,53.9999,-0.022961
25.515,53.9999,-0.014501
25.532,53.9999,-0.024169
25.547,53.9999,-0.020544
25.565,53.9999,-0.025377
25.581,53.9999,-0.025377
25.595,53.9999,-0.024169
25.612,53.9999,-0.022961
25.627,53.9999,-0.016918
25.646,53.9999,-0.020544
25.659,53.9999,-0.015710
25.675,53.9999,-0.021752
25.691,53.9999,-0.015710
25.714,53.9999,-0.018127
25.729,53.9999,-0.016918
25.745,53.9999,-0.018127
25.761,53.9999,-0.018127
25.778,53.9999,-0.021752
25.793,53.9999,-0.018127
25.810,53.9999,-0.020544
25.825,53.9999,-0.014501
25.842,53.9999,-0.019335
25.857,53.9999,-0.020544
25.873,53.9999,-0.020544
25.889,53.9999,-0.015710
25.905,53.9999,-0.026586
25.923,53.9999,-0.018127
25.937,53.9999,-0.013293
25.952,53.9999,-0.018127
25.969,53.9999,-0.016918
25.985,53.9999,-0.020544
26.001,53.9999,-0.020544
26.017,53.9999,-0.015710
26.033,53.9999,-0.015710
26.050,53.9999,-0.019335
26.065,53.9999,-0.014501
26.081,53.9999,-0.015710
26.097,53.9999,-0.014501
26.113,53.9999,-0.010876
26.138,53.9999,-0.018127
26.149,53.9999,-0.021752
26.161,53.9999,-0.012084
26.178,53.9999,-0.022961
26.198,53.9999,-0.019335
26.209,53.9999,-0.020544
26.225,53.9999,-0.019335
26.241,53.9999,-0.019335
26.266,53.9999,-0.018127
26.281,53.9999,-0.018127
26.297,53.9999,-0.020544
26.313,53.9999,-0.020544
26.330,53.9999,-0.021752
26.345,53.9999,-0.019335
26.361,53.9999,-0.019335
26.379,53.9999,-0.016918
26.398,53.9999,-0.018127
26.410,53.9999,-0.019335
26.426,53.9999,-0.014501
26.442,53.9999,-0.014501
26.458,53.9999,-0.019335
26.473,53.9999,-0.021752
26.490,53.9999,-0.020544
26.505,53.9999,-0.020544
26.522,53.9999,-0.016918
26.537,53.9999,-0.018127
26.553,53.9999,-0.012084
26.569,53.9999,-0.013293
26.586,53.9999,-0.020544
26.601,53.9999,-0.014501
26.617,53.9999,-0.016918
26.632,53.9999,-0.015710
26.650,53.9999,-0.016918
26.665,53.9999,-0.010876
26.684,53.9999,-0.012084
26.696,53.9999,-0.008459
26.713,53.9999,-0.016918
26.730,53.9999,-0.016918
26.745,53.9999,-0.012084
26.764,53.9999,-0.012084
26.777,53.9999,-0.019335
26.793,53.9999,-0.013293
26.808,53.9999,-0.016918
26.832,53.9999,-0.012084
26.847,53.9999,-0.006042
26.863,53.9999,-0.012084
26.879,53.9999,-0.015710
26.897,53.9999,-0.009668
26.912,53.9999,-0.008459
26.928,53.9999,-0.014501
26.943,53.9999,-0.019335
26.959,53.9999,-0.022961
26.975,53.9999,-0.012084
26.994,53.9999,-0.014501
27.007,53.9999,-0.014501
27.024,53.9999,-0.010876
27.039,53.9999,-0.010876
27.057,53.9999,-0.015710
27.072,53.9999,-0.015710
27.087,53.9999,-0.010876
27.103,53.9999,-0.019335
27.119,53.9999,-0.016918
27.138,53.9999,-0.009668
27.151,53.9999,-0.009668
27.168,53.9999,-0.014501
27.183,53.9999,-0.010876
27.200,53.9999,-0.010876
27.216,53.9999,-0.009668
27.232,53.9999,-0.010876
27.247,53.9999,-0.018127
27.269,53.9999,-0.018127
27.280,53.9999,-0.012084
27.295,53.9999,-0.010876
27.311,53.9999,-0.018127
27.329,53.9999,-0.013293
27.344,53.9999,-0.013293
27.359,53.9999,-0.015710
27.375,53.9999,-0.018127
27.391,53.9999,-0.018127
27.407,53.9999,-0.018127
27.424,53.9999,-0.013293
27.439,53.9999,-0.015710
27.456,53.9999,-0.010876
27.472,53.9999,-0.010876
27.488,53.9999,-0.014501
27.503,53.9999,-0.012084
27.519,53.9999,-0.012084
27.536,53.9999,-0.016918
27.551,53.9999,-0.016918
27.567,53.9999,-0.013293
27.587,53.9999,-0.016918
27.599,53.9999,-0.014501
27.616,53.9999,-0.018127
27.632,53.9999,-0.018127
27.647,53.9999,-0.016918
27.663,53.9999,-0.019335
27.679,53.9999,-0.008459
27.696,53.9999,-0.010876
27.712,53.9999,-0.015710
27.728,53.9999,-0.009668
27.744,53.9999,-0.020544
27.760,53.9999,-0.020544
27.775,53.9999,-0.015710
27.792,53.9999,-0.012084
27.807,53.9999,-0.010876
27.824,53.9999,-0.012084
27.840,53.9999,-0.014501
27.855,53.9999,-0.016918
27.871,53.9999,-0.015710
27.889,53.9999,-0.013293
27.903,53.9999,-0.010876
27.919,53.9999,-0.014501
27.935,53.9999,-0.013293
27.951,53.9999,-0.013293
27.967,53.9999,-0.013293
27.983,53.9999,-0.014501
27.999,53.9999,-0.013293
28.015,53.9999,-0.013293
28.031,53.9999,-0.013293
28.047,53.9999,-0.016918
28.063,53.9999,-0.013293
28.083,53.9999,-0.018127
28.096,53.9999,-0.010876
28.111,53.9999,-0.010876
28.127,53.9999,-0.010876
28.144,53.9999,-0.014501
28.159,53.9999,-0.016918
28.175,53.9999,-0.016918
28.191,53.9999,-0.014501
28.207,53.9999,-0.009668
28.223,53.9999,-0.013293
28.240,53.9999,-0.007251
28.254,53.9999,-0.015710
28.273,53.9999,-0.015710
28.287,53.9999,-0.016918
28.303,53.9999,-0.014501
28.319,53.9999,-0.014501
28.335,53.9999,-0.009668
28.351,53.9999,-0.009668
28.367,53.9999,-0.010876
28.383,53.9999,-0.010876
28.399,53.9999,-0.013293
28.415,53.9999,-0.014501
28.431,53.9999,-0.014501
28.449,53.9999,-0.012084
28.463,53.9999,-0.019335
28.479,53.9999,-0.016918
28.495,53.9999,-0.013293
28.517,53.9999,-0.018127
28.537,53.9999,-0.015710
28.549,53.9999,-0.018127
28.565,53.9999,-0.018127
28.581,53.9999,-0.006042
28.597,53.9999,-0.007251
28.613,53.9999,-0.009668
28.628,53.9999,-0.001208
28.645,53.9999,-0.010876
28.661,53.9999,-0.015710
28.677,53.9999,-0.014501
28.693,53.9999,-0.012084
28.710,53.9999,-0.007251
28.725,53.9999,-0.004834
28.741,53.9999,-0.012084
28.757,53.9999,-0.018127
28.773,53.9999,-0.010876
28.790,53.9999,-0.014501
28.804,53.9999,-0.007251
28.821,53.9999,-0.009668
28.838,53.9999,-0.002417
28.853,53.9999,-0.020544
28.869,53.9999,-0.015710
28.885,53.9999,-0.010876
28.900,53.9999,-0.010876
28.917,53.9999,-0.012084
28.933,53.9999,-0.010876
28.949,53.9999,-0.014501
28.966,53.9999,-0.015710
28.981,53.9999,-0.015710
28.996,53.9999,-0.014501
29.013,53.9999,-0.015710
29.030,53.9999,-0.007251
29.044,53.9999,-0.009668
29.060,53.9999,-0.009668
29.077,53.9999,-0.016918
29.093,53.9999,-0.016918
29.109,53.9999,-0.013293
29.124,53.9999,-0.015710
29.142,53.9999,-0.006042
29.156,53.9999,-0.012084
29.172,53.9999,-0.016918
29.188,53.9999,-0.012084
29.206,53.9999,-0.016918
29.221,53.9999,-0.015710
29.237,53.9999,-0.009668
29.252,53.9999,-0.008459
29.269,53.9999,-0.009668
29.285,53.9999,-0.012084
29.300,53.9999,-0.013293
29.317,53.9999,-0.015710
29.332,53.9999,-0.015710
29.349,53.9999,-0.009668
29.364,53.9999,-0.010876
29.381,53.9999,-0.010876
29.397,53.9999,-0.013293
29.413,53.9999,-0.013293
29.428,53.9999,-0.006042
29.444,53.9999,-0.010876
29.461,53.9999,-0.010876
29.476,53.9999,-0.015710
29.493,53.9999,-0.012084
29.508,53.9999,-0.015710
29.524,53.9999,-0.014501
29.540,53.9999,-0.010876
29.558,53.9999,-0.015710
29.572,53.9999,-0.015710
29.588,53.9999,-0.010876
29.604,53.9999,-0.004834
29.628,53.9999,-0.002417
29.643,53.9999,-0.009668
29.659,53.9999,-0.015710
29.675,53.9999,-0.013293
29.691,53.9999,-0.013293
29.707,53.9999,-0.009668
29.723,53.9999,-0.010876
29.739,53.9999,-0.015710
29.755,53.9999,-0.015710
29.771,53.9999,-0.018127
29.788,53.9999,-0.010876
29.803,53.9999,-0.007251
29.819,53.9999,-0.009668
29.835,53.9999,-0.012084
29.851,53.9999,-0.010876
29.867,53.9999,-0.015710
29.885,53.9999,-0.015710
29.899,53.9999,-0.013293
29.916,53.9999,-0.013293
29.931,53.9999,-0.014501
29.947,53.9999,-0.009668
29.964,53.9999,-0.008459
29.979,53.9999,-0.008459
29.995,53.9999,-0.015710
30.011,53.9999,-0.015710
30.027,53.9999,-0.014501
30.044,53.9999,-0.013293
30.059,53.9999,-0.014501
30.075,53.9999,-0.010876
30.091,53.9999,-0.012084
30.107,53.9999,-0.013293
30.126,53.9999,-0.013293
30.139,53.9999,-0.009668
30.155,53.9999,-0.014501
30.171,53.9999,-0.015710
30.195,53.9999,-0.010876
30.210,53.9999,-0.010876
30.226,53.9999,-0.012084
30.242,53.9999,-0.012084
30.258,53.9999,-0.014501
30.274,53.9999,-0.013293
30.290,53.9999,-0.014501
30.306,53.9999,-0.009668
30.328,53.9999,-0.009668
30.339,53.9999,-0.013293
30.354,53.9999,-0.012084
30.373,53.9999,-0.012084
30.386,53.9999,-0.012084
30.402,53.9999,-0.008459
30.418,53.9999,-0.009668
30.434,53.9999,-0.010876
30.450,53.9999,-0.010876
30.466,53.9999,-0.012084
30.483,53.9999,-0.012084
30.498,53.9999,-0.007251
30.514,53.9999,-0.015710
30.530,53.9999,-0.015710
30.546,53.9999,-0.016918
30.564,53.9999,-0.016918
30.578,53.9999,-0.014501
30.594,53.9999,-0.013293
30.609,53.9999,-0.013293
30.626,53.9999,-0.009668
30.642,53.9999,-0.015710
30.658,53.9999,-0.010876
30.675,53.9999,-0.009668
30.691,53.9999,-0.010876
30.706,53.9999,-0.009668
30.737,53.9999,-0.006042
30.754,53.9999,-0.006042
30.769,53.9999,-0.013293
30.785,53.9999,-0.015710
30.801,53.9999,-0.012084
30.817,53.9999,-0.010876
30.833,53.9999,-0.007251
30.849,53.9999,-0.003625
30.866,53.9999,-0.013293
30.881,53.9999,-0.013293
30.897,53.9999,-0.016918
30.913,53.9999,-0.010876
30.930,53.9999,-0.006042
30.945,53.9999,-0.007251
30.962,53.9999,-0.007251
30.977,53.9999,-0.006042
30.992,53.9999,-0.012084
31.008,53.9999,-0.016918
31.024,53.9999,-0.015710
31.041,53.9999,-0.010876
31.057,53.9999,-0.010876
31.073,53.9999,-0.010876
31.088,53.9999,-0.008459
31.105,53.9999,-0.010876
31.121,53.9999,-0.015710
31.136,53.9999,-0.010876
31.152,53.9999,-0.006042
31.169,53.9999,-0.008459
31.186,53.9999,-0.012084
31.200,53.9999,-0.015710
31.216,53.9999,-0.016918
31.235,53.9999,-0.016918
31.249,53.9999,-0.009668
31.264,53.9999,-0.009668
31.280,53.9999,-0.008459
31.304,53.9999,-0.009668
31.319,53.9999,-0.009668
31.335,53.9999,-0.009668
31.351,53.9999,-0.009668
31.367,53.9999,-0.012084
31.384,53.9999,-0.010876
31.399,53.9999,-0.014501
31.415,53.9999,-0.015710
31.431,53.9999,-0.009668
31.448,53.9999,-0.012084
31.464,53.9999,-0.014501
31.479,53.9999,-0.015710
31.495,53.9999,-0.009668
31.511,53.9999,-0.008459
31.527,53.9999,-0.012084
31.543,53.9999,-0.012084
31.561,53.9999,-0.012084
31.577,53.9999,-0.012084
31.591,53.9999,-0.012084
31.607,53.9999,-0.006042
31.623,53.9999,-0.006042
31.639,53.9999,-0.001208
31.655,53.9999,-0.012084
31.673,53.9999,-0.012084
31.687,53.9999,-0.008459
31.704,53.9999,-0.010876
31.719,53.9999,-0.010876
31.735,53.9999,-0.018127
31.751,53.9999,-0.018127
31.767,53.9999,-0.014501
31.785,53.9999,-0.006042
31.799,53.9999,-0.012084
31.815,53.9999,-0.012084
31.831,53.9999,-0.013293
31.855,53.9999,-0.008459
31.870,53.9999,-0.009668
31.886,53.9999,-0.008459
31.902,53.9999,-0.008459
31.918,53.9999,-0.016918
31.934,53.9999,-0.009668
31.950,53.9999,-0.009668
31.966,53.9999,-0.004834
31.983,53.9999,-0.004834
31.998,53.9999,-0.009668
32.014,53.9999,-0.007251
32.030,53.9999,-0.010876
32.047,53.9999,-0.010876
32.062,53.9999,-0.013293
32.078,53.9999,-0.014501
32.094,53.9999,-0.007251
32.112,53.9999,-0.007251
32.126,53.9999,-0.014501
32.142,53.9999,-0.008459
32.158,53.9999,-0.014501
32.175,53.9999,-0.018127
32.190,53.9999,-0.012084
32.207,53.9999,-0.007251
32.222,53.9999,-0.009668
32.239,53.9999,-0.009668
32.254,53.9999,-0.015710
32.271,53.9999,-0.015710
32.285,53.9999,-0.012084
32.302,53.9999,-0.018127
32.318,53.9999,-0.008459
32.334,53.9999,-0.008459
32.349,53.9999,-0.009668
32.366,53.9999,-0.013293
32.382,53.9999,-0.012084
32.398,53.9999,-0.013293
32.421,53.9999,-0.008459
32.437,53.9999,-0.007251
32.453,53.9999,-0.007251
32.469,53.9999,-0.012084
32.485,53.9999,-0.015710
32.501,53.9999,-0.015710
32.517,53.9999,-0.010876
32.534,53.9999,-0.010876
32.550,53.9999,-0.009668
32.565,53.9999,-0.016918
32.581,53.9999,-0.012084
32.598,53.9999,-0.006042
32.614,53.9999,-0.003625
32.629,53.9999,-0.013293
32.645,53.9999,-0.012084
32.664,53.9999,-0.010876
32.677,53.9999,-0.013293
32.693,53.9999,-0.013293
32.709,53.9999,-0.012084
32.725,53.9999,-0.014501
32.741,53.9999,-0.013293
32.757,53.9999,-0.010876
32.773,53.9999,-0.009668
32.789,53.9999,-0.008459
32.806,53.9999,-0.016918
32.824,53.9999,-0.016918
32.837,53.9999,-0.015710
32.854,53.9999,-0.013293
32.869,53.9999,-0.009668
32.886,53.9999,-0.010876
32.901,53.9999,-0.014501
32.918,53.9999,-0.008459
32.933,53.9999,-0.007251
32.949,53.9999,-0.012084
32.965,53.9999,-0.009668
32.982,53.9999,-0.007251
32.996,53.9999,-0.004834
33.019,53.9999,-0.007251
33.042,53.9999,-0.009668
33.061,53.9999,-0.009668
33.077,53.9999,-0.014501
33.093,53.9999,-0.016918
33.109,53.9999,-0.012084
33.124,53.9999,-0.007251
33.141,53.9999,-0.009668
33.157,53.9999,-0.009668
33.173,53.9999,-0.009668
33.189,53.9999,-0.013293
33.204,53.9999,-0.013293
33.221,53.9999,-0.007251
33.237,53.9999,-0.014501
33.253,53.9999,-0.014501
33.269,53.9999,-0.012084
33.284,53.9999,-0.012084
33.300,53.9999,-0.012084
33.317,53.9999,-0.007251
33.333,53.9999,-0.007251
33.348,53.9999,-0.009668
33.364,53.9999,-0.014501
33.380,53.9999,-0.008459
33.396,53.9999,-0.009668
33.414,53.9999,-0.012084
33.429,53.9999,-0.010876
33.444,53.9999,-0.013293
33.460,53.9999,-0.015710
33.478,53.9999,-0.016918
33.492,53.9999,-0.016918
33.508,53.9999,-0.014501
33.524,53.9999,-0.010876
33.547,53.9999,-0.009668
33.563,53.9999,-0.008459
33.579,53.9999,-0.018127
33.594,53.9999,-0.012084
33.611,53.9999,-0.013293
33.627,53.9999,-0.007251
33.642,53.9999,-0.006042
33.658,53.9999,-0.010876
33.675,53.9999,-0.012084
33.691,53.9999,-0.012084
33.706,53.9999,-0.012084
33.722,53.9999,-0.007251
33.739,53.9999,-0.012084
33.755,53.9999,-0.012084
33.771,53.9999,-0.009668
33.787,53.9999,-0.008459
33.804,53.9999,-0.007251
33.819,53.9999,-0.008459
33.836,53.9999,-0.009668
33.850,53.9999,-0.015710
33.867,53.9999,-0.012084
33.883,53.9999,-0.010876
33.898,53.9999,-0.010876
33.915,53.9999,0.000000
33.931,53.9999,-0.007251
33.947,53.9999,-0.007251
33.963,53.9999,-0.007251
33.980,53.9999,-0.013293
33.995,53.9999,-0.003625
34.013,53.9999,-0.003625
34.026,53.9999,-0.007251
34.042,53.9999,-0.009668
34.058,53.9999,-0.014501
34.074,53.9999,-0.008459
34.097,53.9999,-0.009668
34.113,53.9999,-0.004834
34.129,53.9999,-0.008459
34.145,53.9999,-0.013293
34.161,53.9999,-0.012084
34.178,53.9999,-0.006042
34.193,53.9999,-0.007251
34.209,53.9999,-0.007251
34.229,53.9999,-0.012084
34.241,53.9999,-0.010876
34.257,53.9999,-0.008459
34.273,53.9999,-0.007251
34.289,53.9999,-0.014501
34.306,53.9999,-0.009668
34.321,53.9999,-0.008459
34.337,53.9999,-0.009668
34.353,53.9999,-0.009668
34.369,53.9999,-0.009668
34.393,53.9999,-0.009668
34.417,53.9999,-0.018127
34.436,53.9999,-0.018127
34.450,53.9999,-0.014501
34.466,53.9999,-0.008459
34.482,53.9999,-0.014501
34.497,53.9999,-0.012084
34.518,53.9999,-0.014501
34.530,53.9999,-0.014501
34.545,53.9999,-0.009668
34.562,53.9999,-0.009668
34.578,53.9999,-0.004834
34.594,53.9999,-0.004834
34.609,53.9999,-0.012084
34.639,53.9999,-0.013293
34.655,53.9999,-0.013293
34.671,53.9999,-0.013293
34.687,53.9999,-0.006042
34.703,53.9999,-0.004834
34.720,53.9999,-0.004834
34.735,53.9999,-0.015710
34.752,53.9999,-0.015710
34.767,53.9999,-0.008459
34.783,53.9999,-0.007251
34.799,53.9999,-0.013293
34.820,53.9999,-0.013293
34.831,53.9999,-0.008459
34.847,53.9999,-0.009668
34.863,53.9999,-0.009668
34.879,53.9999,-0.012084
34.895,53.9999,-0.013293
34.910,53.9999,-0.004834
34.928,53.9999,-0.010876
34.943,53.9999,-0.012084
34.959,53.9999,-0.015710
34.975,53.9999,-0.012084
34.991,53.9999,-0.010876
35.007,53.9999,-0.015710
35.022,53.9999,-0.015710
35.039,53.9999,-0.006042
35.056,53.9999,-0.012084
35.070,53.9999,-0.009668
35.087,53.9999,-0.008459
35.103,53.9999,-0.010876
35.118,53.9999,-0.004834
35.134,53.9999,-0.008459
35.151,53.9999,-0.002417
35.167,53.9999,-0.001208
35.183,53.9999,-0.006042
35.199,53.9999,-0.007251
35.215,53.9999,-0.007251
35.231,53.9999,-0.010876
35.247,53.9999,-0.008459
35.265,53.9999,-0.008459
35.278,53.9999,-0.013293
35.295,53.9999,-0.015710
35.310,53.9999,-0.015710
35.326,53.9999,-0.015710
35.344,53.9999,-0.015710
35.359,53.9999,-0.008459
35.374,53.9999,-0.007251
35.391,53.9999,-0.007251
35.407,53.9999,-0.014501
35.423,53.9999,-0.014501
35.438,53.9999,-0.010876
35.454,53.9999,-0.013293
35.471,53.9999,-0.012084
35.486,53.9999,-0.004834
35.502,53.9999,-0.009668
35.519,53.9999,-0.010876
35.534,53.9999,-0.010876
35.550,53.9999,-0.010876
35.574,53.9999,-0.014501
35.585,53.9999,-0.007251
35.599,53.9999,-0.007251
35.615,53.9999,-0.009668
35.630,53.9999,-0.010876
35.646,53.9999,-0.018127
35.662,53.9999,-0.008459
35.678,53.9999,-0.007251
35.702,53.9999,-0.009668
35.718,53.9999,-0.009668
35.733,53.9999,-0.014501
35.749,53.9999,-0.010876
35.765,53.9999,-0.015710
35.783,53.9999,-0.012084
35.798,53.9999,-0.006042
35.813,53.9999,-0.003625
35.837,53.9999,-0.012084
35.859,53.9999,-0.008459
35.880,53.9999,-0.013293
35.894,53.9999,-0.014501
35.910,53.9999,-0.008459
35.926,53.9999,-0.008459
35.941,53.9999,-0.004834
35.959,53.9999,-0.010876
35.974,53.9999,-0.014501
35.989,53.9999,-0.014501
36.005,53.9999,-0.014501
36.022,53.9999,-0.015710
36.037,53.9999,-0.003625
36.053,53.9999,-0.010876
36.072,53.9999,-0.013293
36.085,53.9999,-0.012084
36.101,53.9999,-0.015710
36.117,53.9999,-0.012084
36.136,53.9999,-0.002417
36.150,53.9999,-0.006042
36.165,53.9999,-0.013293
36.181,53.9999,-0.009668
36.199,53.9999,-0.007251
36.214,53.9999,-0.007251
36.230,53.9999,-0.009668
36.257,53.9999,-0.009668
36.273,53.9999,-0.009668
36.290,53.9999,-0.009668
36.305,53.9999,-0.012084
36.321,53.9999,-0.010876
36.338,53.9999,-0.007251
36.353,53.9999,-0.007251
36.377,53.9999,-0.006042
36.388,53.9999,-0.003625
36.401,53.9999,-0.002417
36.418,53.9999,-0.013293
36.433,53.9999,-0.009668
36.449,53.9999,-0.008459
36.465,53.9999,-0.014501
36.481,53.9999,-0.007251
36.499,53.9999,-0.004834
36.514,53.9999,-0.009668
36.529,53.9999,-0.009668
36.545,53.9999,-0.006042
36.561,53.9999,-0.006042
36.577,53.9999,-0.008459
36.593,53.9999,-0.009668
36.609,53.9999,-0.008459
36.625,53.9999,-0.008459
36.641,53.9999,-0.009668
36.657,53.9999,-0.006042
36.675,53.9999,-0.004834
36.689,53.9999,-0.008459
36.705,53.9999,-0.012084
36.722,53.9999,-0.012084
36.737,53.9999,-0.004834
36.754,53.9999,-0.009668
36.783,53.9999,-0.009668
36.801,53.9999,-0.007251
36.814,53.9999,-0.004834
36.830,53.9999,-0.007251
36.846,53.9999,-0.014501
36.862,53.9454,0.004834
36.879,53.6643,0.140180
36.894,53.3899,0.039879
36.911,53.0590,0.070090
36.926,52.7902,0.091842
36.942,52.4856,0.140180
36.958,52.1867,0.158307
36.977,51.8220,0.201811
36.991,51.5662,0.215104
37.007,51.2636,0.209061
37.024,50.9421,0.153473
37.038,50.6883,0.001208
37.056,50.3311,-0.002417
37.070,50.0849,-0.003625
37.088,49.7314,0.009668
37.103,49.4607,0.009668
37.118,49.1749,-0.001208
37.135,48.8496,0.000000
37.151,48.5583,0.000000
37.166,48.2612,-0.001208
37.182,48.0089,-0.009668
37.198,47.9499,-0.158307
37.214,47.9499,0.003625
37.230,47.9499,-0.002417
37.246,47.9499,-0.002417
37.262,47.9499,-0.004834
37.278,47.9499,-0.002417
37.293,47.9499,0.002417
37.310,47.9499,0.006042
37.326,47.9499,0.002417
37.342,47.9499,0.004834
37.357,47.9499,0.001208
37.377,47.9499,0.001208
37.389,47.9499,0.001208
37.405,47.9499,0.000000
37.423,47.9499,-0.003625
37.439,47.9499,0.008459
37.455,47.9499,0.006042
37.469,47.9499,0.002417
37.487,47.9499,-0.001208
37.501,47.9499,-0.006042
37.518,47.9499,0.000000
37.539,47.9499,0.003625
37.550,47.9499,0.006042
37.566,47.9499,0.004834
37.583,47.9499,-0.003625
37.598,47.9499,-0.008459
37.614,47.9499,-0.004834
37.630,47.9499,0.001208
37.646,47.9762,-0.047129
37.662,48.2084,-0.164349
37.678,48.5017,0.003625
37.693,48.7950,0.002417
37.715,49.2311,0.008459
37.727,49.4173,0.008459
37.742,49.7200,0.003625
37.758,50.0076,0.004834
37.774,50.3272,0.007251
37.790,50.6261,0.004834
37.805,50.9043,-0.001208
37.821,51.2033,-0.002417
37.837,51.5041,0.007251
37.854,51.8068,-0.008459
37.870,52.1094,-0.007251
37.885,52.4028,-0.006042
37.902,52.7167,-0.006042
37.917,53.0118,-0.014501
37.934,53.3183,-0.030211
37.950,53.6135,-0.030211
37.965,53.8838,0.002417
37.981,53.9499,0.002417
37.997,53.9499,-0.051963
38.018,53.9499,-0.043504
38.031,53.9499,-0.042296
38.046,53.9499,-0.037462
38.063,53.9499,-0.041087
38.078,53.9499,-0.036253
38.094,53.9499,-0.039879
38.110,53.9499,-0.027794
38.125,53.9499,-0.031420
38.143,53.9499,-0.026586
38.158,53.9499,-0.039879
38.174,53.9499,-0.030211
38.189,53.9499,-0.025377
38.207,53.9499,-0.029003
38.222,53.9499,-0.020544
38.237,53.9499,-0.035045
38.253,53.9499,-0.031420
38.270,53.9499,-0.031420
38.285,53.9499,-0.025377
38.302,53.9499,-0.033837
38.317,53.9499,-0.022961
38.333,53.9499,-0.022961
38.349,53.9499,-0.024169
38.366,53.9499,-0.020544
38.389,53.9499,-0.020544
38.405,53.9499,-0.021752
38.421,53.9499,-0.021752
38.437,53.9499,-0.020544
38.455,53.9499,-0.022961
38.469,53.9499,-0.021752
