Elapsed Time (s),Position (mm),Force (N)
-0.016,67.2403,0.015357
0.015,67.2403,0.015357
0.046,67.2403,0.015357
0.077,67.2403,0.015320
0.109,67.2403,0.015320
0.140,67.2403,0.015320
0.171,67.2403,0.015320
0.202,67.2403,0.015320
0.233,67.2403,0.015320
0.265,67.2403,0.015320
0.296,67.2403,0.015320
0.327,67.2403,0.015320
0.358,67.2403,0.015254
0.389,67.2403,0.015254
0.420,67.2403,0.015254
0.451,67.2403,0.015254
0.481,67.2403,0.015254
0.512,67.2403,0.015254
0.544,67.2403,0.015254
0.575,67.2403,0.015254
0.607,67.2403,0.015235
0.638,67.2403,0.015235
0.669,67.2403,0.015235
0.700,67.2403,0.015235
0.730,67.2403,0.015235
0.761,67.2403,0.015235
0.792,67.2403,0.015235
0.822,67.2403,0.015235
0.854,67.2403,0.015263
0.886,67.2403,0.015263
0.918,67.2403,0.015263
0.948,67.2403,0.015263
0.979,67.2403,0.015263
1.009,67.2403,0.015263
1.040,67.2403,0.015263
1.072,67.2403,0.015282
1.102,67.2403,0.015282
1.133,67.2403,0.015282
1.164,67.2403,0.015282
1.195,67.2403,0.015282
1.227,67.2403,0.015282
1.258,67.2403,0.015282
1.289,67.2403,0.015282
1.321,67.2403,0.015282
1.352,67.2403,0.015263
1.382,67.2403,0.015263
1.413,67.2403,0.015263
1.444,67.2403,0.015263
1.476,67.2403,0.015263
1.506,67.2403,0.015263
1.538,67.2403,0.015263
1.570,67.2403,0.015263
1.603,67.2403,0.015282
1.633,67.2403,0.015282
1.665,67.2403,0.015282
1.696,67.2403,0.015282
1.727,67.2403,0.015282
1.759,67.2403,0.015282
1.790,67.2403,0.015282
1.821,67.2403,0.015282
1.852,67.2403,0.015291
1.884,67.2403,0.015291
1.915,67.2403,0.015291
1.947,67.2403,0.015291
1.978,67.2403,0.015291
2.009,67.2403,0.015291
2.039,67.2403,0.015291
2.069,67.2403,0.015291
2.101,67.2403,0.015263
2.131,67.2403,0.015263
2.161,67.2403,0.015263
2.192,67.2403,0.015263
2.223,67.2403,0.015263
2.254,67.2403,0.015263
2.285,67.2403,0.015263
2.316,67.2403,0.015282
2.346,67.2403,0.015282
2.378,67.2403,0.015282
2.412,67.2403,0.015282
2.439,67.2403,0.015282
2.470,67.2403,0.015282
2.501,67.2403,0.015282
2.532,67.2403,0.015282
2.563,67.2403,0.015282
2.595,67.2403,0.015272
2.626,67.2403,0.015272
2.658,67.2403,0.015272
2.689,67.2403,0.015272
2.719,67.2403,0.015272
2.751,67.2403,0.015272
2.781,67.2403,0.015272
2.813,67.2403,0.015272
2.844,67.2403,0.015244
2.875,67.2403,0.015244
2.906,67.2403,0.015244
2.937,67.2403,0.015244
2.967,67.2403,0.015244
3.000,67.2403,0.015244
3.030,67.2403,0.015244
3.061,67.2403,0.015244
3.092,67.2403,0.015244
3.122,67.2403,0.015291
3.153,67.2403,0.015291
3.184,67.2403,0.015291
3.215,67.2403,0.015291
3.247,67.2403,0.015291
3.277,67.2403,0.015291
3.309,67.2403,0.015291
3.340,67.2403,0.015291
3.371,67.2403,0.015291
3.402,67.2403,0.015291
3.433,67.2403,0.015291
3.464,67.2403,0.015291
3.495,67.2403,0.015291
3.526,67.2403,0.015291
3.557,67.2403,0.015291
3.587,67.2403,0.015291
3.618,67.2403,0.015282
3.649,67.2403,0.015282
3.680,67.2403,0.015282
3.712,67.2403,0.015282
3.743,67.2403,0.015282
3.773,67.2403,0.015282
3.804,67.2403,0.015282
3.835,67.2403,0.015282
3.866,67.2403,0.015301
3.898,67.2403,0.015301
3.929,67.2403,0.015301
3.960,67.2403,0.015301
3.992,67.2403,0.015301
4.024,67.2403,0.015301
4.055,67.2403,0.015301
4.086,67.2403,0.015301
4.117,67.2403,0.015263
4.149,67.2402,0.015263
4.180,67.2393,0.015263
4.211,67.2376,0.015263
4.241,67.2353,0.015263
4.272,67.2322,0.015263
4.304,67.2286,0.015263
4.335,67.2238,0.015263
4.366,67.2187,0.015329
4.398,67.2124,0.015329
4.430,67.2062,0.015329
4.463,67.1996,0.015329
4.493,67.1937,0.015329
4.524,67.1872,0.015329
4.555,67.1811,0.015329
4.588,67.1746,0.015329
4.618,67.1686,0.015348
4.649,67.1624,0.015348
4.680,67.1562,0.015348
4.711,67.1500,0.015348
4.742,67.1437,0.015348
4.773,67.1375,0.015348
4.804,67.1315,0.015348
4.834,67.1255,0.015348
4.866,67.1190,0.015291
4.897,67.1128,0.015291
4.928,67.1067,0.015291
4.959,67.1005,0.015291
4.990,67.0942,0.015291
5.021,67.0880,0.015291
5.052,67.0818,0.015291
5.083,67.0757,0.015320
5.114,67.0694,0.015320
5.145,67.0632,0.015320
5.177,67.0569,0.015320
5.207,67.0505,0.015320
5.239,67.0445,0.015320
5.270,67.0383,0.015320
5.301,67.0322,0.015320
5.331,67.0260,0.015320
5.362,67.0198,0.015310
5.393,67.0137,0.015310
5.424,67.0074,0.015310
5.455,67.0011,0.015310
5.486,66.9950,0.015310
5.518,66.9887,0.015310
5.548,66.9826,0.015310
5.580,66.9761,0.015310
5.611,66.9701,0.015338
5.641,66.9641,0.015338
5.672,66.9578,0.015338
5.703,66.9517,0.015338
5.735,66.9452,0.015338
5.766,66.9390,0.015338
5.797,66.9328,0.015338
5.828,66.9265,0.015329
5.859,66.9204,0.015329
5.890,66.9140,0.015329
5.921,66.9080,0.015329
5.952,66.9017,0.015329
5.985,66.8951,0.015329
6.015,66.8892,0.015329
6.047,66.8827,0.015329
6.077,66.8767,0.015329
6.108,66.8706,0.015301
6.141,66.8640,0.015301
6.172,66.8578,0.015301
6.203,66.8514,0.015301
6.235,66.8453,0.015301
6.266,66.8388,0.015301
6.296,66.8330,0.015301
6.327,66.8267,0.015301
6.358,66.8206,0.015301
6.390,66.8142,0.015301
6.422,66.8078,0.015301
6.454,66.8014,0.015301
6.487,66.7949,0.015301
6.516,66.7889,0.015301
6.547,66.7829,0.015301
6.577,66.7768,0.015310
6.608,66.7706,0.015310
6.639,66.7644,0.015310
6.670,66.7581,0.015310
6.701,66.7520,0.015310
6.732,66.7457,0.015310
6.763,66.7396,0.015310
6.794,66.7333,0.015310
6.825,66.7272,0.015348
6.857,66.7208,0.015348
6.888,66.7147,0.015348
6.918,66.7085,0.015348
6.950,66.7023,0.015348
6.981,66.6960,0.015348
7.012,66.6898,0.015348
7.044,66.6833,0.015348
7.075,66.6772,0.015376
7.106,66.6709,0.015376
7.137,66.6648,0.015376
7.168,66.6586,0.015376
7.199,66.6524,0.015376
7.229,66.6462,0.015376
7.260,66.6403,0.015376
7.291,66.6341,0.015376
7.322,66.6277,0.015376
7.353,66.6215,0.015310
7.384,66.6153,0.015310
7.415,66.6094,0.015310
7.446,66.6031,0.015310
7.477,66.5969,0.015310
7.509,66.5904,0.015310
7.539,66.5843,0.015310
7.571,66.5780,0.015310
7.602,66.5717,0.015244
7.633,66.5656,0.015244
7.664,66.5595,0.015244
7.695,66.5532,0.015244
7.726,66.5471,0.015244
7.756,66.5408,0.015244
7.788,66.5346,0.015244
7.820,66.5282,0.015244
7.850,66.5222,0.015244
7.882,66.5159,0.015291
7.913,66.5094,0.015291
7.944,66.5034,0.015291
7.975,66.4974,0.015291
8.007,66.4909,0.015291
8.037,66.4849,0.015291
8.068,66.4785,0.015291
8.100,66.4723,0.015357
8.131,66.4659,0.015357
8.161,66.4599,0.015357
8.192,66.4537,0.015357
8.224,66.4475,0.015357
8.254,66.4413,0.015357
8.285,66.4350,0.015357
8.316,66.4289,0.015357
8.347,66.4229,0.015367
8.379,66.4164,0.015367
8.410,66.4103,0.015367
8.440,66.4041,0.015367
8.471,66.3981,0.015367
8.502,66.3919,0.015367
8.533,66.3857,0.015367
8.564,66.3795,0.015367
8.595,66.3733,0.015338
8.626,66.3670,0.015338
8.658,66.3607,0.015338
8.688,66.3546,0.015338
8.720,66.3483,0.015338
8.751,66.3420,0.015338
8.782,66.3359,0.015338
8.813,66.3297,0.015338
8.844,66.3235,0.015301
8.875,66.3172,0.015301
8.906,66.3109,0.015301
8.936,66.3050,0.015301
8.967,66.2983,0.015301
8.998,66.2926,0.015301
9.029,66.2864,0.015301
9.060,66.2802,0.015301
9.091,66.2739,0.015291
9.123,66.2675,0.015291
9.153,66.2614,0.015291
9.185,66.2553,0.015291
9.216,66.2489,0.015291
9.248,66.2428,0.015291
9.279,66.2363,0.015291
9.311,66.2300,0.015291
9.343,66.2237,0.015291
9.373,66.2176,0.015301
9.405,66.2113,0.015301
9.436,66.2048,0.015301
9.468,66.1986,0.015301
9.498,66.1925,0.015301
9.529,66.1863,0.015301
9.560,66.1803,0.015301
9.590,66.1741,0.015301
9.622,66.1679,0.015291
9.653,66.1615,0.015291
9.684,66.1555,0.015291
9.715,66.1491,0.015291
9.746,66.1431,0.015291
9.778,66.1365,0.015291
9.808,66.1305,0.015291
9.840,66.1242,0.015291
9.870,66.1183,0.015291
9.900,66.1122,0.015291
9.932,66.1059,0.015291
9.963,66.0997,0.015291
9.994,66.0933,0.015291
10.025,66.0871,0.015291
10.056,66.0811,0.015291
10.087,66.0749,0.015291
10.118,66.0686,0.015301
10.149,66.0623,0.015301
10.180,66.0564,0.015301
10.210,66.0502,0.015301
10.241,66.0440,0.015301
10.272,66.0378,0.015301
10.303,66.0316,0.015301
10.334,66.0255,0.015301
10.365,66.0193,0.015320
10.396,66.0128,0.015320
10.427,66.0069,0.015320
10.458,66.0007,0.015320
10.490,65.9941,0.015320
10.520,65.9884,0.015320
10.551,65.9818,0.015320
10.583,65.9758,0.015320
10.614,65.9694,0.015263
10.645,65.9634,0.015263
10.676,65.9569,0.015263
10.707,65.9510,0.015263
10.739,65.9444,0.015263
10.770,65.9382,0.015263
10.801,65.9319,0.015263
10.832,65.9259,0.015225
10.863,65.9196,0.015225
10.894,65.9134,0.015225
10.925,65.9072,0.015225
10.956,65.9011,0.015225
10.987,65.8948,0.015225
11.018,65.8884,0.015225
11.050,65.8822,0.015225
11.081,65.8760,0.015282
11.113,65.8697,0.015282
11.144,65.8633,0.015282
11.175,65.8571,0.015282
11.206,65.8511,0.015282
11.236,65.8449,0.015282
11.267,65.8390,0.015282
11.299,65.8324,0.015282
11.330,65.8263,0.015320
11.362,65.8199,0.015320
11.393,65.8137,0.015320
11.424,65.8073,0.015320
11.456,65.8011,0.015320
11.488,65.7947,0.015320
11.519,65.7884,0.015320
11.550,65.7822,0.015320
11.581,65.7761,0.015348
11.612,65.7698,0.015348
11.643,65.7637,0.015348
11.673,65.7576,0.015348
11.705,65.7511,0.015348
11.736,65.7449,0.015348
11.768,65.7386,0.015348
11.798,65.7327,0.015348
11.829,65.7263,0.015329
11.860,65.7203,0.015329
11.891,65.7138,0.015329
11.923,65.7077,0.015329
11.953,65.7017,0.015329
11.985,65.6953,0.015329
12.016,65.6891,0.015329
12.048,65.6826,0.015329
12.079,65.6766,0.015263
12.110,65.6703,0.015263
12.141,65.6641,0.015263
12.172,65.6579,0.015263
12.202,65.6517,0.015263
12.234,65.6455,0.015263
12.265,65.6388,0.015263
12.296,65.6330,0.015263
12.327,65.6268,0.015263
12.358,65.6206,0.015197
12.390,65.6142,0.015197
12.421,65.6080,0.015197
12.452,65.6018,0.015197
12.482,65.5959,0.015197
12.513,65.5894,0.015197
12.544,65.5833,0.015197
12.576,65.5768,0.015216
12.607,65.5707,0.015216
12.638,65.5646,0.015216
12.669,65.5584,0.015216
12.700,65.5523,0.015216
12.730,65.5461,0.015216
12.761,65.5401,0.015216
12.793,65.5336,0.015216
12.824,65.5273,0.015216
12.856,65.5211,0.015216
12.887,65.5149,0.015263
12.918,65.5086,0.015263
12.950,65.5022,0.015263
12.981,65.4959,0.015263
13.012,65.4897,0.015263
13.043,65.4835,0.015263
13.075,65.4772,0.015263
13.106,65.4709,0.015263
13.137,65.4649,0.015263
13.167,65.4590,0.015263
13.198,65.4527,0.015263
13.228,65.4467,0.015263
13.259,65.4405,0.015263
13.290,65.4344,0.015263
13.321,65.4281,0.015263
13.352,65.4219,0.015310
13.383,65.4157,0.015310
13.415,65.4093,0.015310
13.446,65.4029,0.015310
13.478,65.3967,0.015310
13.508,65.3906,0.015310
13.539,65.3844,0.015310
13.570,65.3783,0.015310
13.601,65.3721,0.015338
13.633,65.3657,0.015338
13.665,65.3594,0.015338
13.695,65.3533,0.015338
13.726,65.3470,0.015338
13.757,65.3408,0.015338
13.789,65.3346,0.015338
13.820,65.3282,0.015329
13.850,65.3223,0.015329
13.882,65.3158,0.015329
13.913,65.3097,0.015329
13.944,65.3034,0.015329
13.975,65.2972,0.015329
14.006,65.2911,0.015329
14.037,65.2849,0.015329
14.067,65.2789,0.015329
14.099,65.2727,0.015282
14.130,65.2663,0.015282
14.161,65.2601,0.015282
14.193,65.2537,0.015282
14.225,65.2474,0.015282
14.256,65.2412,0.015282
14.287,65.2348,0.015282
14.319,65.2284,0.015282
14.352,65.2218,0.015254
14.382,65.2157,0.015254
14.413,65.2095,0.015254
14.443,65.2036,0.015254
14.474,65.1975,0.015254
14.506,65.1911,0.015254
14.537,65.1849,0.015254
14.568,65.1787,0.015301
14.598,65.1727,0.015301
14.629,65.1664,0.015301
14.660,65.1602,0.015301
14.691,65.1540,0.015301
14.721,65.1478,0.015301
14.753,65.1416,0.015301
14.783,65.1356,0.015301
14.815,65.1292,0.015301
14.847,65.1230,0.015301
14.879,65.1165,0.015301
14.910,65.1103,0.015301
14.940,65.1042,0.015301
14.971,65.0980,0.015301
15.003,65.0917,0.015301
15.033,65.0855,0.015301
15.065,65.0792,0.015282
15.096,65.0732,0.015282
15.126,65.0670,0.015282
15.157,65.0608,0.015282
15.189,65.0545,0.015282
15.220,65.0483,0.015282
15.252,65.0417,0.015282
15.284,65.0355,0.015282
15.314,65.0295,0.015282
15.346,65.0233,0.015254
15.376,65.0171,0.015254
15.407,65.0109,0.015254
15.438,65.0047,0.015254
15.470,64.9982,0.015254
15.502,64.9919,0.015254
15.533,64.9857,0.015254
15.564,64.9796,0.015254
15.595,64.9734,0.015263
15.626,64.9671,0.015263
15.657,64.9609,0.015263
15.688,64.9548,0.015263
15.719,64.9486,0.015263
15.750,64.9423,0.015263
15.781,64.9358,0.015263
15.813,64.9297,0.015263
15.846,64.9230,0.015329
15.876,64.9170,0.015329
15.907,64.9106,0.015329
15.938,64.9047,0.015329
15.969,64.8985,0.015329
16.000,64.8923,0.015329
16.031,64.8860,0.015329
16.063,64.8798,0.015329
16.094,64.8733,0.015338
16.125,64.8674,0.015338
16.156,64.8610,0.015338
16.187,64.8548,0.015338
16.219,64.8485,0.015338
16.249,64.8424,0.015338
16.282,64.8357,0.015338
16.312,64.8298,0.015338
16.344,64.8235,0.015272
16.376,64.8170,0.015272
16.406,64.8112,0.015272
16.437,64.8049,0.015272
16.468,64.7986,0.015272
16.499,64.7924,0.015272
16.531,64.7861,0.015272
16.561,64.7800,0.015272
16.591,64.7740,0.015272
16.623,64.7675,0.015272
16.655,64.7613,0.015272
16.688,64.7547,0.015272
16.717,64.7488,0.015272
16.748,64.7427,0.015272
16.779,64.7364,0.015272
16.810,64.7304,0.015272
16.841,64.7240,0.015272
16.872,64.7178,0.015348
16.903,64.7116,0.015348
16.934,64.7055,0.015348
16.965,64.6994,0.015348
16.996,64.6931,0.015348
17.027,64.6869,0.015348
17.058,64.6806,0.015348
17.089,64.6745,0.015348
17.120,64.6683,0.015291
17.151,64.6620,0.015291
17.181,64.6558,0.015291
17.212,64.6498,0.015291
17.244,64.6435,0.015291
17.275,64.6372,0.015291
17.305,64.6312,0.015291
17.336,64.6250,0.015291
17.368,64.6187,0.015263
17.400,64.6124,0.015263
17.432,64.6060,0.015263
17.463,64.5997,0.015263
17.493,64.5936,0.015263
17.524,64.5873,0.015263
17.554,64.5815,0.015263
17.585,64.5753,0.015263
17.616,64.5691,0.015263
17.648,64.5629,0.015263
17.678,64.5567,0.015263
17.708,64.5506,0.015263
17.739,64.5444,0.015263
17.770,64.5382,0.015263
17.801,64.5319,0.015263
17.832,64.5259,0.015244
17.864,64.5195,0.015244
17.894,64.5134,0.015244
17.925,64.5072,0.015244
17.956,64.5011,0.015244
17.988,64.4947,0.015244
18.019,64.4886,0.015244
18.050,64.4823,0.015244
18.082,64.4758,0.015301
18.112,64.4697,0.015301
18.143,64.4638,0.015301
18.174,64.4575,0.015301
18.205,64.4514,0.015301
18.236,64.4451,0.015301
18.267,64.4390,0.015301
18.297,64.4328,0.015301
18.328,64.4266,0.015301
18.359,64.4205,0.015320
18.390,64.4143,0.015320
18.422,64.4080,0.015320
18.452,64.4019,0.015320
18.483,64.3957,0.015320
18.514,64.3895,0.015320
18.545,64.3832,0.015320
18.576,64.3772,0.015301
18.607,64.3709,0.015301
18.638,64.3647,0.015301
18.670,64.3582,0.015301
18.701,64.3520,0.015301
18.732,64.3460,0.015301
18.762,64.3398,0.015301
18.794,64.3336,0.015301
18.825,64.3274,0.015301
18.854,64.3214,0.015301
18.885,64.3151,0.015301
18.917,64.3090,0.015301
18.948,64.3027,0.015301
18.979,64.2965,0.015301
19.011,64.2899,0.015301
19.041,64.2841,0.015301
19.072,64.2779,0.015301
19.104,64.2715,0.015348
19.135,64.2652,0.015348
19.166,64.2589,0.015348
19.197,64.2528,0.015348
19.228,64.2466,0.015348
19.260,64.2404,0.015348
19.291,64.2342,0.015348
19.322,64.2279,0.015348
19.353,64.2218,0.015348
19.383,64.2156,0.015291
19.415,64.2099,0.015291
19.445,64.2049,0.015291
19.477,64.2007,0.015291
19.508,64.1971,0.015291
19.540,64.1943,0.015291
19.571,64.1922,0.015291
19.602,64.1909,0.015244
19.632,64.1903,0.015244
19.663,64.1903,0.015244
19.694,64.1903,0.015244
19.725,64.1903,0.015244
19.756,64.1903,0.015244
19.787,64.1903,0.015244
19.818,64.1906,0.015272
19.850,64.1916,0.015272
19.880,64.1932,0.015272
19.911,64.1955,0.015272
19.942,64.1987,0.015272
19.973,64.2026,0.015272
20.005,64.2073,0.015272
20.036,64.2125,0.015272
20.066,64.2185,0.015272
20.097,64.2245,0.015235
20.128,64.2306,0.015235
20.158,64.2368,0.015235
20.188,64.2428,0.015235
20.220,64.2492,0.015235
20.251,64.2553,0.015235
20.281,64.2615,0.015235
20.312,64.2676,0.015235
20.343,64.2738,0.015235
20.374,64.2800,0.015235
20.406,64.2863,0.015235
20.436,64.2924,0.015235
20.467,64.2986,0.015235
20.498,64.3048,0.015235
20.529,64.3110,0.015235
20.560,64.3172,0.015235
20.592,64.3235,0.015235
20.623,64.3298,0.015301
20.654,64.3360,0.015301
20.685,64.3422,0.015301
20.717,64.3486,0.015301
20.748,64.3548,0.015301
20.779,64.3610,0.015301
20.809,64.3672,0.015301
20.840,64.3731,0.015301
20.871,64.3793,0.015244
20.902,64.3855,0.015244
20.934,64.3919,0.015244
20.965,64.3983,0.015244
20.997,64.4045,0.015244
21.029,64.4108,0.015244
21.059,64.4170,0.015244
21.090,64.4232,0.015244
21.121,64.4292,0.015244
21.152,64.4358,0.015244
21.184,64.4418,0.015244
21.214,64.4482,0.015244
21.246,64.4542,0.015244
21.277,64.4607,0.015244
21.309,64.4670,0.015244
21.340,64.4732,0.015244
21.373,64.4798,0.015291
21.403,64.4860,0.015291
21.437,64.4924,0.015291
21.466,64.4985,0.015291
21.497,64.5047,0.015291
21.527,64.5107,0.015291
21.559,64.5169,0.015291
21.590,64.5232,0.015225
21.620,64.5293,0.015225
21.651,64.5353,0.015225
21.681,64.5415,0.015225
21.712,64.5476,0.015225
21.743,64.5540,0.015225
21.774,64.5600,0.015225
21.805,64.5664,0.015225
21.836,64.5724,0.015225
21.867,64.5788,0.015263
21.899,64.5848,0.015263
21.930,64.5913,0.015263
21.960,64.5972,0.015263
21.991,64.6033,0.015263
22.023,64.6098,0.015263
22.054,64.6158,0.015263
22.085,64.6223,0.015254
22.116,64.6284,0.015254
22.148,64.6347,0.015254
22.178,64.6408,0.015254
22.209,64.6471,0.015254
22.240,64.6532,0.015254
22.271,64.6592,0.015254
22.302,64.6657,0.015254
22.333,64.6718,0.015254
22.364,64.6780,0.015272
22.396,64.6844,0.015272
22.427,64.6905,0.015272
22.459,64.6971,0.015272
22.490,64.7032,0.015272
22.521,64.7094,0.015272
22.552,64.7157,0.015272
22.582,64.7216,0.015320
22.613,64.7277,0.015320
22.644,64.7340,0.015320
22.675,64.7401,0.015320
22.708,64.7467,0.015320
22.737,64.7525,0.015320
22.768,64.7588,0.015320
22.799,64.7649,0.015320
22.831,64.7714,0.015320
22.862,64.7776,0.015272
22.893,64.7839,0.015272
22.925,64.7901,0.015272
22.956,64.7964,0.015272
22.988,64.8026,0.015272
23.019,64.8091,0.015272
23.052,64.8155,0.015272
23.082,64.8217,0.015272
23.114,64.8280,0.015310
23.145,64.8344,0.015310
23.177,64.8404,0.015310
23.208,64.8468,0.015310
23.238,64.8527,0.015310
23.270,64.8592,0.015310
23.301,64.8652,0.015310
23.331,64.8713,0.015263
23.361,64.8775,0.015263
23.393,64.8837,0.015263
23.424,64.8901,0.015263
23.455,64.8961,0.015263
23.488,64.9028,0.015263
23.517,64.9085,0.015263
23.549,64.9150,0.015263
23.580,64.9212,0.015263
23.611,64.9274,0.015254
23.642,64.9335,0.015254
23.672,64.9398,0.015254
23.704,64.9460,0.015254
23.735,64.9521,0.015254
23.765,64.9581,0.015254
23.797,64.9645,0.015254
23.828,64.9709,0.015301
23.860,64.9771,0.015301
23.891,64.9833,0.015301
23.923,64.9896,0.015301
23.954,64.9960,0.015301
23.985,65.0023,0.015301
24.017,65.0085,0.015301
24.048,65.0148,0.015301
24.079,65.0209,0.015301
24.111,65.0273,0.015282
24.141,65.0334,0.015282
24.172,65.0396,0.015282
24.204,65.0460,0.015282
24.234,65.0522,0.015282
24.266,65.0582,0.015282
24.299,65.0649,0.015282
24.328,65.0709,0.015282
24.359,65.0770,0.015282
24.391,65.0834,0.015282
24.423,65.0899,0.015282
24.453,65.0958,0.015282
24.485,65.1021,0.015282
24.517,65.1086,0.015282
24.546,65.1144,0.015282
24.579,65.1210,0.015310
24.609,65.1269,0.015310
24.640,65.1333,0.015310
24.672,65.1395,0.015310
24.701,65.1454,0.015310
24.732,65.1515,0.015310
24.763,65.1577,0.015310
24.794,65.1640,0.015310
24.824,65.1700,0.015310
24.855,65.1763,0.015301
24.885,65.1821,0.015301
24.917,65.1886,0.015301
24.947,65.1945,0.015301
24.978,65.2009,0.015301
25.009,65.2069,0.015301
25.041,65.2135,0.015301
25.072,65.2195,0.015291
25.104,65.2258,0.015291
25.135,65.2321,0.015291
25.166,65.2384,0.015291
25.197,65.2446,0.015291
25.227,65.2506,0.015291
25.258,65.2568,0.015291
25.290,65.2630,0.015291
25.320,65.2691,0.015291
25.351,65.2754,0.015291
25.383,65.2817,0.015320
25.413,65.2877,0.015320
25.444,65.2940,0.015320
25.475,65.3000,0.015320
25.507,65.3064,0.015320
25.538,65.3127,0.015320
25.570,65.3192,0.015320
25.601,65.3253,0.015301
25.632,65.3316,0.015301
25.663,65.3378,0.015301
25.694,65.3439,0.015301
25.725,65.3501,0.015301
25.756,65.3563,0.015301
25.787,65.3625,0.015301
25.818,65.3689,0.015301
25.850,65.3750,0.015310
25.881,65.3814,0.015310
25.913,65.3875,0.015310
25.945,65.3942,0.015310
25.977,65.4004,0.015310
26.006,65.4064,0.015310
26.036,65.4124,0.015310
26.067,65.4186,0.015310
26.098,65.4247,0.015320
26.130,65.4312,0.015320
26.161,65.4372,0.015320
26.192,65.4436,0.015320
26.223,65.4498,0.015320
26.254,65.4560,0.015320
26.285,65.4621,0.015320
26.316,65.4683,0.015320
26.347,65.4745,0.015310
26.380,65.4810,0.015310
26.409,65.4870,0.015310
26.439,65.4929,0.015310
26.469,65.4993,0.015310
26.500,65.5051,0.015310
26.531,65.5112,0.015310
26.561,65.5174,0.015310
26.592,65.5236,0.015310
26.625,65.5301,0.015310
26.654,65.5360,0.015310
26.684,65.5422,0.015310
26.715,65.5481,0.015310
26.745,65.5541,0.015310
26.776,65.5603,0.015310
26.808,65.5666,0.015310
26.838,65.5728,0.015310
26.869,65.5789,0.015244
26.900,65.5852,0.015244
26.931,65.5913,0.015244
26.962,65.5976,0.015244
26.992,65.6036,0.015244
27.024,65.6099,0.015244
27.055,65.6161,0.015244
27.086,65.6223,0.015244
27.117,65.6285,0.015197
27.148,65.6349,0.015197
27.180,65.6410,0.015197
27.211,65.6473,0.015197
27.242,65.6534,0.015197
27.273,65.6599,0.015197
27.304,65.6658,0.015197
27.335,65.6723,0.015197
27.367,65.6785,0.015244
27.398,65.6847,0.015244
27.429,65.6909,0.015244
27.460,65.6971,0.015244
27.491,65.7035,0.015244
27.522,65.7096,0.015244
27.553,65.7156,0.015244
27.583,65.7219,0.015244
27.615,65.7283,0.015244
27.646,65.7343,0.015244
27.677,65.7405,0.015244
27.708,65.7468,0.015244
27.740,65.7530,0.015244
27.771,65.7593,0.015244
27.802,65.7655,0.015244
27.833,65.7717,0.015244
27.864,65.7779,0.015254
27.895,65.7841,0.015254
27.927,65.7905,0.015254
27.958,65.7969,0.015254
27.990,65.8031,0.015254
28.022,65.8094,0.015254
28.053,65.8156,0.015254
28.083,65.8216,0.015254
28.113,65.8278,0.015254
28.144,65.8339,0.015301
28.175,65.8401,0.015301
28.205,65.8462,0.015301
28.236,65.8525,0.015301
28.267,65.8586,0.015301
28.298,65.8649,0.015301
28.330,65.8711,0.015301
28.361,65.8774,0.015301
28.392,65.8836,0.015301
28.423,65.8899,0.015301
28.455,65.8963,0.015301
28.486,65.9023,0.015301
28.516,65.9084,0.015301
28.547,65.9145,0.015301
28.578,65.9208,0.015301
28.609,65.9268,0.015254
28.641,65.9333,0.015254
28.671,65.9393,0.015254
28.702,65.9454,0.015254
28.733,65.9517,0.015254
28.764,65.9579,0.015254
28.795,65.9641,0.015254
28.827,65.9704,0.015254
28.858,65.9766,0.015272
28.889,65.9829,0.015272
28.921,65.9893,0.015272
28.952,65.9957,0.015272
28.983,66.0017,0.015272
29.014,66.0079,0.015272
29.045,66.0142,0.015272
29.076,66.0204,0.015291
29.107,66.0265,0.015291
29.139,66.0328,0.015291
29.170,66.0390,0.015291
29.200,66.0452,0.015291
29.234,66.0519,0.015291
29.263,66.0577,0.015291
29.294,66.0641,0.015291
29.324,66.0699,0.015291
29.355,66.0762,0.015197
29.387,66.0824,0.015197
29.418,66.0887,0.015197
29.449,66.0949,0.015197
29.480,66.1013,0.015197
29.512,66.1075,0.015197
29.542,66.1137,0.015197
29.574,66.1199,0.015197
29.605,66.1263,0.015197
29.637,66.1324,0.015197
29.668,66.1386,0.015197
29.699,66.1448,0.015197
29.729,66.1509,0.015197
29.761,66.1573,0.015197
29.793,66.1637,0.015197
29.824,66.1701,0.015263
29.855,66.1761,0.015263
29.886,66.1823,0.015263
29.917,66.1885,0.015263
29.948,66.1948,0.015263
29.979,66.2009,0.015263
30.010,66.2071,0.015263
30.041,66.2131,0.015263
30.073,66.2196,0.015263
30.103,66.2258,0.015291
30.135,66.2321,0.015291
30.166,66.2383,0.015291
30.197,66.2444,0.015291
30.227,66.2505,0.015291
30.259,66.2568,0.015291
30.290,66.2631,0.015291
30.321,66.2692,0.015291
30.353,66.2755,0.015291
30.383,66.2817,0.015291
30.414,66.2878,0.015291
30.445,66.2942,0.015291
30.476,66.3002,0.015291
30.507,66.3065,0.015291
30.538,66.3126,0.015291
30.569,66.3191,0.015291
30.600,66.3250,0.015254
30.631,66.3313,0.015254
30.662,66.3375,0.015254
30.694,66.3440,0.015254
30.725,66.3501,0.015254
30.756,66.3564,0.015254
30.787,66.3623,0.015254
30.819,66.3688,0.015254
30.849,66.3749,0.015263
30.880,66.3812,0.015263
30.911,66.3871,0.015263
30.942,66.3936,0.015263
30.973,66.3999,0.015263
31.004,66.4059,0.015263
31.035,66.4119,0.015263
31.066,66.4183,0.015263
31.096,66.4243,0.015282
31.128,66.4307,0.015282
31.158,66.4368,0.015282
31.190,66.4431,0.015282
31.221,66.4493,0.015282
31.252,66.4555,0.015282
31.283,66.4617,0.015282
31.314,66.4680,0.015282
31.346,66.4742,0.015272
31.376,66.4805,0.015272
31.408,66.4866,0.015272
31.439,66.4928,0.015272
31.470,66.4990,0.015272
31.501,66.5052,0.015272
31.533,66.5118,0.015272
31.562,66.5175,0.015272
31.593,66.5238,0.015225
31.624,66.5299,0.015225
31.656,66.5363,0.015225
31.688,66.5425,0.015225
31.718,66.5489,0.015225
31.750,66.5549,0.015225
31.781,66.5614,0.015225
31.812,66.5675,0.015225
31.843,66.5739,0.015263
31.875,66.5800,0.015263
31.906,66.5864,0.015263
31.938,66.5926,0.015263
31.970,66.5991,0.015263
32.001,66.6053,0.015263
32.034,66.6120,0.015263
32.064,66.6178,0.015263
32.094,66.6239,0.015329
32.125,66.6301,0.015329
32.157,66.6364,0.015329
32.187,66.6425,0.015329
32.218,66.6487,0.015329
32.249,66.6549,0.015329
32.279,66.6607,0.015329
32.309,66.6671,0.015329
32.341,66.6734,0.015310
32.372,66.6796,0.015310
32.403,66.6858,0.015310
32.434,66.6920,0.015310
32.464,66.6979,0.015310
32.495,66.7040,0.015310
32.526,66.7102,0.015310
32.557,66.7164,0.015310
32.589,66.7230,0.015310
32.620,66.7291,0.015301
32.652,66.7355,0.015301
32.683,66.7416,0.015301
32.714,66.7478,0.015301
32.744,66.7540,0.015301
32.776,66.7602,0.015301
32.807,66.7667,0.015301
32.839,66.7727,0.015301
32.869,66.7791,0.015282
32.900,66.7853,0.015282
32.931,66.7913,0.015282
32.963,66.7977,0.015282
32.994,66.8041,0.015282
33.025,66.8101,0.015282
33.056,66.8164,0.015282
33.086,66.8223,0.015282
33.117,66.8284,0.015301
33.148,66.8349,0.015301
33.179,66.8408,0.015301
33.210,66.8471,0.015301
33.241,66.8532,0.015301
33.272,66.8594,0.015301
33.303,66.8656,0.015301
33.334,66.8719,0.015301
33.365,66.8780,0.015263
33.396,66.8842,0.015263
33.427,66.8904,0.015263
33.458,66.8966,0.015263
33.488,66.9028,0.015263
33.520,66.9090,0.015263
33.551,66.9154,0.015263
33.582,66.9214,0.015263
33.612,66.9276,0.015272
33.643,66.9338,0.015272
33.674,66.9400,0.015272
33.706,66.9462,0.015272
33.739,66.9528,0.015272
33.766,66.9584,0.015272
33.798,66.9646,0.015272
33.829,66.9709,0.015272
33.861,66.9771,0.015263
33.891,66.9832,0.015263
33.922,66.9894,0.015263
33.953,66.9956,0.015263
33.984,67.0018,0.015263
34.015,67.0083,0.015263
34.046,67.0142,0.015263
34.077,67.0205,0.015263
34.109,67.0267,0.015263
34.140,67.0331,0.015263
34.171,67.0394,0.015263
34.202,67.0456,0.015263
34.233,67.0517,0.015263
34.264,67.0579,0.015263
34.295,67.0642,0.015263
34.326,67.0701,0.015263
34.356,67.0762,0.015329
34.387,67.0824,0.015329
34.419,67.0887,0.015329
34.450,67.0951,0.015329
34.481,67.1013,0.015329
34.512,67.1076,0.015329
34.543,67.1137,0.015329
34.575,67.1201,0.015329
34.606,67.1262,0.015291
34.637,67.1325,0.015291
34.668,67.1386,0.015291
34.699,67.1448,0.015291
34.730,67.1512,0.015291
34.761,67.1572,0.015291
34.793,67.1637,0.015291
34.823,67.1694,0.015291
34.854,67.1744,0.015235
34.884,67.1788,0.015235
34.916,67.1825,0.015235
34.947,67.1855,0.015235
34.977,67.1877,0.015235
35.009,67.1893,0.015235
35.039,67.1901,0.015235
35.070,67.1902,0.015310
35.101,67.1902,0.015310
35.133,67.1902,0.015310
35.164,67.1902,0.015310
35.196,67.1902,0.015310
35.226,67.1902,0.015310
35.257,67.1902,0.015310
35.287,67.1902,0.015310
35.318,67.1902,0.015310
35.349,67.1902,0.015348
35.381,67.1902,0.015348
35.412,67.1902,0.015348
35.443,67.1902,0.015348
35.474,67.1902,0.015348
35.505,67.1902,0.015348
35.536,67.1902,0.015348
35.567,67.1902,0.015348
35.598,67.1902,0.015310
35.630,67.1902,0.015310
35.661,67.1902,0.015310
35.692,67.1902,0.015310
35.723,67.1902,0.015310
35.754,67.1902,0.015310
35.786,67.1902,0.015310
35.817,67.1902,0.015272
35.848,67.1902,0.015272
35.879,67.1902,0.015272
35.909,67.1902,0.015272
35.940,67.1902,0.015272
35.971,67.1902,0.015272
36.002,67.1902,0.015272
36.033,67.1902,0.015272
36.064,67.1902,0.015272
36.096,67.1902,0.015272
36.127,67.1902,0.015263
36.159,67.1902,0.015263
36.190,67.1902,0.015263
36.221,67.1902,0.015263
36.253,67.1902,0.015263
36.284,67.1902,0.015263
36.315,67.1902,0.015263
36.346,67.1902,0.015282
36.378,67.1902,0.015282
36.409,67.1902,0.015282
36.439,67.1902,0.015282
36.471,67.1902,0.015282
36.502,67.1902,0.015282
36.533,67.1902,0.015282
36.565,67.1902,0.015282
36.595,67.1902,0.015282
36.626,67.1902,0.015263
36.657,67.1902,0.015263
36.688,67.1902,0.015263
36.720,67.1902,0.015263
36.752,67.1902,0.015263
36.782,67.1902,0.015263
36.813,67.1902,0.015263
36.844,67.1902,0.015263
36.875,67.1902,0.015272
36.906,67.1902,0.015272
36.940,67.1902,0.015272
36.970,67.1902,0.015272
37.000,67.1902,0.015272
37.031,67.1902,0.015272
37.062,67.1902,0.015272
37.092,67.1902,0.015272
37.123,67.1902,0.015310
37.155,67.1902,0.015310
37.186,67.1902,0.015310
37.216,67.1902,0.015310
37.247,67.1902,0.015310
37.278,67.1902,0.015310
37.309,67.1902,0.015310
37.340,67.1902,0.015310
37.372,67.1902,0.015225
37.404,67.1902,0.015225
37.435,67.1902,0.015225
37.467,67.1902,0.015225
37.498,67.1902,0.015225
37.529,67.1902,0.015225
37.561,67.1902,0.015225
37.591,67.1902,0.015216
37.623,67.1902,0.015216
37.653,67.1902,0.015216
37.684,67.1902,0.015216
37.715,67.1902,0.015216
37.747,67.1902,0.015216
37.778,67.1902,0.015216
37.808,67.1902,0.015216
37.839,67.1902,0.015216
37.870,67.1902,0.015310
37.902,67.1902,0.015310
37.934,67.1902,0.015310
37.964,67.1902,0.015310
37.995,67.1902,0.015310
38.026,67.1902,0.015310
38.058,67.1902,0.015310
38.088,67.1902,0.015310
38.119,67.1902,0.015282
38.151,67.1902,0.015282
38.181,67.1902,0.015282
38.212,67.1902,0.015282
38.242,67.1902,0.015282
38.273,67.1902,0.015282
38.304,67.1902,0.015282
38.338,67.1902,0.015225
38.367,67.1902,0.015225
38.397,67.1902,0.015225
38.428,67.1902,0.015225
38.460,67.1902,0.015225
38.491,67.1902,0.015225
38.522,67.1902,0.015225
38.553,67.1902,0.015225
38.585,67.1902,0.015254
38.616,67.1902,0.015254
38.646,67.1902,0.015254
38.678,67.1902,0.015254
38.710,67.1902,0.015254
38.741,67.1902,0.015254
38.772,67.1902,0.015254
38.803,67.1902,0.015254
38.835,67.1902,0.015282
38.866,67.1902,0.015282
38.896,67.1902,0.015282
38.927,67.1902,0.015282
38.958,67.1902,0.015282
38.989,67.1902,0.015282
39.021,67.1902,0.015282
39.052,67.1902,0.015282
39.084,67.1902,0.015282
39.115,67.1902,0.015282
39.146,67.1902,0.015282
39.178,67.1902,0.015282
39.208,67.1902,0.015282
39.239,67.1902,0.015282
39.270,67.1902,0.015282
39.302,67.1902,0.015282
39.332,67.1902,0.015301
39.364,67.1898,0.015301
39.395,67.1888,0.015301
39.425,67.1870,0.015301
39.456,67.1845,0.015301
39.487,67.1813,0.015301
39.518,67.1773,0.015301
39.549,67.1725,0.015301
39.580,67.1672,0.015367
39.611,67.1612,0.015367
39.641,67.1550,0.015367
39.673,67.1488,0.015367
39.703,67.1424,0.015367
39.735,67.1362,0.015367
39.766,67.1298,0.015367
39.797,67.1238,0.015367
39.828,67.1175,0.015367
39.859,67.1114,0.015357
39.890,67.1054,0.015357
39.921,67.0992,0.015357
39.952,67.0930,0.015357
39.984,67.0865,0.015357
40.016,67.0802,0.015357
40.047,67.0739,0.015357
40.078,67.0677,0.015282
40.109,67.0615,0.015282
40.141,67.0551,0.015282
40.172,67.0488,0.015282
40.202,67.0429,0.015282
40.233,67.0365,0.015282
40.264,67.0306,0.015282
40.295,67.0244,0.015282
40.326,67.0179,0.015282
40.357,67.0117,0.015291
40.390,67.0053,0.015291
40.420,66.9993,0.015291
40.450,66.9931,0.015291
40.480,66.9873,0.015291
40.511,66.9808,0.015291
40.543,66.9746,0.015291
40.574,66.9683,0.015272
40.606,66.9621,0.015272
40.638,66.9555,0.015272
40.668,66.9497,0.015272
40.700,66.9434,0.015272
40.730,66.9373,0.015272
40.760,66.9312,0.015272
40.792,66.9249,0.015272
40.823,66.9187,0.015272
40.854,66.9124,0.015272
40.885,66.9063,0.015235
40.917,66.8999,0.015235
40.947,66.8939,0.015235
40.978,66.8876,0.015235
41.009,66.8814,0.015235
41.041,66.8749,0.015235
41.072,66.8688,0.015235
41.103,66.8626,0.015235
41.134,66.8564,0.015263
41.165,66.8502,0.015263
41.195,66.8443,0.015263
41.227,66.8376,0.015263
41.260,66.8313,0.015263
41.289,66.8254,0.015263
41.321,66.8192,0.015263
41.351,66.8130,0.015282
41.383,66.8066,0.015282
41.414,66.8005,0.015282
41.445,66.7942,0.015282
41.477,66.7877,0.015282
41.507,66.7819,0.015282
41.538,66.7757,0.015282
41.571,66.7691,0.015282
41.602,66.7631,0.015272
41.633,66.7566,0.015272
41.665,66.7504,0.015272
41.695,66.7443,0.015272
41.726,66.7381,0.015272
41.757,66.7318,0.015272
41.788,66.7257,0.015272
41.821,66.7192,0.015272
41.850,66.7132,0.015310
41.882,66.7069,0.015310
41.913,66.7005,0.015310
41.944,66.6945,0.015310
41.975,66.6883,0.015310
42.008,66.6818,0.015310
42.037,66.6759,0.015310
42.068,66.6697,0.015310
42.099,66.6635,0.015301
42.130,66.6573,0.015301
42.160,66.6512,0.015301
42.191,66.6449,0.015301
42.222,66.6388,0.015301
42.253,66.6326,0.015301
42.284,66.6264,0.015301
42.315,66.6202,0.015301
42.347,66.6140,0.015301
42.378,66.6075,0.015254
42.410,66.6013,0.015254
42.441,66.5951,0.015254
42.472,66.5889,0.015254
42.503,66.5827,0.015254
42.534,66.5764,0.015254
42.566,66.5701,0.015254
42.597,66.5640,0.015254
42.628,66.5575,0.015254
42.660,66.5512,0.015254
42.692,66.5449,0.015254
42.721,66.5391,0.015254
42.752,66.5329,0.015254
42.784,66.5265,0.015254
42.814,66.5206,0.015254
42.845,66.5143,0.015254
42.875,66.5083,0.015291
42.907,66.5020,0.015291
42.938,66.4957,0.015291
42.971,66.4892,0.015291
43.001,66.4831,0.015291
43.032,66.4768,0.015291
43.063,66.4706,0.015291
43.094,66.4643,0.015320
43.125,66.4583,0.015320
43.156,66.4521,0.015320
43.187,66.4459,0.015320
43.218,66.4397,0.015320
43.249,66.4333,0.015320
43.280,66.4273,0.015320
43.311,66.4210,0.015320
43.342,66.4149,0.015320
43.374,66.4085,0.015291
43.405,66.4021,0.015291
43.436,66.3959,0.015291
43.468,66.3897,0.015291
43.499,66.3834,0.015291
43.531,66.3772,0.015291
43.561,66.3709,0.015291
43.593,66.3647,0.015291
43.624,66.3585,0.015282
43.655,66.3522,0.015282
43.687,66.3457,0.015282
43.717,66.3399,0.015282
43.748,66.3337,0.015282
43.780,66.3275,0.015282
43.812,66.3209,0.015282
43.842,66.3148,0.015348
43.874,66.3085,0.015348
43.903,66.3027,0.015348
43.934,66.2966,0.015348
43.965,66.2904,0.015348
43.996,66.2842,0.015348
44.027,66.2779,0.015348
44.058,66.2717,0.015348
44.089,66.2655,0.015348
44.120,66.2594,0.015272
44.152,66.2529,0.015272
44.182,66.2469,0.015272
44.213,66.2407,0.015272
44.244,66.2345,0.015272
44.275,66.2283,0.015272
44.308,66.2217,0.015272
44.337,66.2159,0.015263
44.368,66.2098,0.015263
44.399,66.2035,0.015263
44.430,66.1974,0.015263
44.461,66.1911,0.015263
44.492,66.1850,0.015263
44.523,66.1787,0.015263
44.555,66.1725,0.015263
44.585,66.1661,0.015263
44.615,66.1603,0.015329
44.648,66.1539,0.015329
44.678,66.1477,0.015329
44.710,66.1411,0.015329
44.741,66.1352,0.015329
44.772,66.1289,0.015329
44.803,66.1228,0.015329
44.834,66.1165,0.015301
44.865,66.1102,0.015301
44.896,66.1041,0.015301
44.927,66.0979,0.015301
44.960,66.0913,0.015301
44.990,66.0854,0.015301
45.021,66.0791,0.015301
45.052,66.0730,0.015301
45.083,66.0668,0.015301
45.114,66.0606,0.015272
45.145,66.0543,0.015272
45.177,66.0479,0.015272
45.208,66.0417,0.015272
45.239,66.0357,0.015272
45.271,66.0292,0.015272
45.303,66.0226,0.015272
45.333,66.0166,0.015272
45.364,66.0104,0.015310
45.395,66.0042,0.015310
45.427,65.9978,0.015310
45.458,65.9916,0.015310
45.489,65.9856,0.015310
45.519,65.9794,0.015310
45.551,65.9732,0.015310
45.580,65.9673,0.015301
45.611,65.9610,0.015301
45.642,65.9549,0.015301
45.675,65.9483,0.015301
45.704,65.9425,0.015301
45.735,65.9362,0.015301
45.767,65.9300,0.015301
45.797,65.9238,0.015301
45.828,65.9176,0.015301
45.860,65.9113,0.015244
45.890,65.9053,0.015244
45.922,65.8987,0.015244
45.953,65.8928,0.015244
45.985,65.8862,0.015244
46.017,65.8799,0.015244
46.049,65.8736,0.015244
46.080,65.8674,0.015216
46.112,65.8608,0.015216
46.143,65.8547,0.015216
46.174,65.8485,0.015216
46.206,65.8423,0.015216
46.237,65.8360,0.015216
46.268,65.8295,0.015216
46.300,65.8232,0.015216
46.331,65.8173,0.015263
46.361,65.8111,0.015263
46.392,65.8047,0.015263
46.423,65.7985,0.015263
46.454,65.7926,0.015263
46.486,65.7861,0.015263
46.516,65.7802,0.015263
46.547,65.7738,0.015263
46.578,65.7679,0.015263
46.609,65.7614,0.015263
46.640,65.7554,0.015272
46.672,65.7488,0.015272
46.704,65.7426,0.015272
46.734,65.7365,0.015272
46.765,65.7304,0.015272
46.795,65.7244,0.015272
46.827,65.7179,0.015272
46.858,65.7118,0.015272
46.889,65.7056,0.015272
46.919,65.6996,0.015272
46.950,65.6935,0.015272
46.983,65.6867,0.015272
47.013,65.6808,0.015272
47.043,65.6748,0.015272
47.074,65.6684,0.015272
47.105,65.6622,0.015272
47.136,65.6560,0.015272
47.167,65.6499,0.015272
47.199,65.6436,0.015272
47.230,65.6374,0.015272
47.261,65.6311,0.015272
47.293,65.6246,0.015272
47.324,65.6184,0.015272
47.355,65.6124,0.015291
47.386,65.6062,0.015291
47.417,65.6000,0.015291
47.448,65.5936,0.015291
47.479,65.5876,0.015291
47.511,65.5812,0.015291
47.541,65.5752,0.015291
47.573,65.5687,0.015291
47.603,65.5628,0.015272
47.634,65.5564,0.015272
47.664,65.5505,0.015272
47.696,65.5440,0.015272
47.728,65.5377,0.015272
47.760,65.5314,0.015272
47.790,65.5253,0.015272
47.822,65.5189,0.015272
47.853,65.5128,0.015282
47.885,65.5065,0.015282
47.914,65.5005,0.015282
47.946,65.4942,0.015282
47.977,65.4877,0.015282
48.008,65.4818,0.015282
48.039,65.4754,0.015282
48.071,65.4690,0.015329
48.102,65.4630,0.015329
48.133,65.4568,0.015329
48.164,65.4505,0.015329
48.195,65.4443,0.015329
48.226,65.4381,0.015329
48.257,65.4320,0.015329
48.288,65.4256,0.015329
48.319,65.4195,0.015329
48.351,65.4133,0.015329
48.382,65.4069,0.015310
48.413,65.4007,0.015310
48.444,65.3946,0.015310
48.474,65.3885,0.015310
48.507,65.3821,0.015310
48.536,65.3762,0.015310
48.567,65.3700,0.015310
48.597,65.3637,0.015272
48.629,65.3575,0.015272
48.659,65.3515,0.015272
48.690,65.3452,0.015272
48.720,65.3394,0.015272
48.751,65.3332,0.015272
48.782,65.3269,0.015272
48.814,65.3207,0.015272
48.844,65.3145,0.015272
48.876,65.3083,0.015272
48.907,65.3018,0.015272
48.937,65.2960,0.015272
48.968,65.2898,0.015272
48.999,65.2836,0.015272
49.030,65.2774,0.015272
49.061,65.2711,0.015272
49.091,65.2651,0.015272
49.122,65.2588,0.015338
49.153,65.2527,0.015338
49.183,65.2465,0.015338
49.214,65.2405,0.015338
49.245,65.2343,0.015338
49.276,65.2281,0.015338
49.307,65.2218,0.015338
49.338,65.2157,0.015272
49.370,65.2094,0.015272
49.401,65.2031,0.015272
49.432,65.1970,0.015272
49.464,65.1904,0.015272
49.495,65.1844,0.015272
49.526,65.1782,0.015272
49.557,65.1718,0.015272
49.588,65.1658,0.015254
49.619,65.1596,0.015254
49.650,65.1531,0.015254
49.681,65.1472,0.015254
49.713,65.1407,0.015254
49.743,65.1349,0.015254
49.775,65.1284,0.015254
49.805,65.1224,0.015254
49.837,65.1159,0.015301
49.868,65.1097,0.015301
49.900,65.1034,0.015301
49.930,65.0973,0.015301
49.963,65.0907,0.015301
49.994,65.0845,0.015301
50.024,65.0786,0.015301
50.055,65.0725,0.015301
50.086,65.0662,0.015301
50.117,65.0600,0.015301
50.149,65.0535,0.015301
50.179,65.0476,0.015301
50.211,65.0411,0.015301
50.242,65.0350,0.015301
50.272,65.0287,0.015301
50.303,65.0228,0.015301
50.333,65.0166,0.015301
50.365,65.0104,0.015301
50.397,65.0039,0.015301
50.429,64.9976,0.015301
50.461,64.9910,0.015301
50.491,64.9852,0.015301
50.523,64.9787,0.015301
50.554,64.9725,0.015301
50.586,64.9662,0.015301
50.616,64.9603,0.015282
50.647,64.9539,0.015282
50.679,64.9475,0.015282
50.711,64.9412,0.015282
50.741,64.9352,0.015282
50.773,64.9289,0.015282
50.804,64.9225,0.015282
50.834,64.9165,0.015301
50.864,64.9105,0.015301
50.896,64.9042,0.015301
50.926,64.8981,0.015301
50.959,64.8917,0.015301
50.989,64.8856,0.015301
51.020,64.8793,0.015301
51.051,64.8732,0.015301
51.082,64.8670,0.015301
51.113,64.8608,0.015282
51.143,64.8547,0.015282
51.175,64.8485,0.015282
51.206,64.8422,0.015282
51.237,64.8359,0.015282
51.268,64.8298,0.015282
51.300,64.8235,0.015282
51.332,64.8170,0.015272
51.362,64.8111,0.015272
51.393,64.8049,0.015272
51.424,64.7985,0.015272
51.455,64.7924,0.015272
51.487,64.7858,0.015272
51.517,64.7799,0.015272
51.547,64.7740,0.015272
51.579,64.7676,0.015272
51.610,64.7613,0.015291
51.641,64.7551,0.015291
51.673,64.7488,0.015291
51.704,64.7425,0.015291
51.735,64.7364,0.015291
51.766,64.7302,0.015291
51.797,64.7240,0.015291
51.827,64.7179,0.015291
51.858,64.7116,0.015263
51.889,64.7055,0.015263
51.920,64.6993,0.015263
51.951,64.6931,0.015263
51.982,64.6869,0.015263
52.012,64.6810,0.015263
52.043,64.6746,0.015263
52.075,64.6684,0.015263
52.106,64.6620,0.015225
52.138,64.6558,0.015225
52.170,64.6492,0.015225
52.200,64.6432,0.015225
52.232,64.6369,0.015225
52.263,64.6307,0.015225
52.294,64.6245,0.015225
52.325,64.6183,0.015225
52.357,64.6121,0.015254
52.388,64.6057,0.015254
52.421,64.5993,0.015254
52.450,64.5934,0.015254
52.481,64.5872,0.015254
52.512,64.5810,0.015254
52.545,64.5745,0.015254
52.574,64.5683,0.015254
52.605,64.5621,0.015291
52.637,64.5559,0.015291
52.668,64.5495,0.015291
52.700,64.5433,0.015291
52.733,64.5368,0.015291
52.762,64.5309,0.015291
52.793,64.5247,0.015291
52.823,64.5187,0.015291
52.855,64.5123,0.015329
52.886,64.5062,0.015329
52.917,64.5000,0.015329
52.948,64.4939,0.015329
52.978,64.4878,0.015329
53.010,64.4815,0.015329
53.041,64.4752,0.015329
53.071,64.4692,0.015291
53.102,64.4630,0.015291
53.133,64.4568,0.015291
53.163,64.4508,0.015291
53.194,64.4446,0.015291
53.225,64.4384,0.015291
53.257,64.4319,0.015291
53.289,64.4257,0.015291
53.321,64.4193,0.015291
53.351,64.4132,0.015244
53.382,64.4070,0.015244
53.414,64.4005,0.015244
53.446,64.3941,0.015244
53.477,64.3880,0.015244
53.509,64.3816,0.015244
53.540,64.3755,0.015244
53.571,64.3692,0.015244
53.602,64.3630,0.015291
53.633,64.3568,0.015291
53.664,64.3506,0.015291
53.695,64.3442,0.015291
53.727,64.3379,0.015291
53.757,64.3319,0.015291
53.787,64.3260,0.015291
53.819,64.3195,0.015291
53.849,64.3136,0.015282
53.880,64.3073,0.015282
53.913,64.3007,0.015282
53.943,64.2947,0.015282
53.973,64.2888,0.015282
54.005,64.2822,0.015282
54.035,64.2764,0.015282
54.066,64.2702,0.015282
54.097,64.2641,0.015254
54.129,64.2577,0.015254
54.159,64.2515,0.015254
54.190,64.2453,0.015254
54.221,64.2392,0.015254
54.252,64.2330,0.015254
54.286,64.2263,0.015254
54.315,64.2205,0.015254
54.346,64.2143,0.015254
54.378,64.2077,0.015254
54.409,64.2017,0.015254
54.440,64.1954,0.015254
54.471,64.1891,0.015254
54.502,64.1830,0.015254
54.533,64.1768,0.015254
54.564,64.1706,0.015254
54.595,64.1644,0.015254
54.627,64.1587,0.015254
54.657,64.1540,0.015254
54.688,64.1500,0.015254
54.720,64.1464,0.015254
54.749,64.1439,0.015254
54.781,64.1419,0.015254
54.812,64.1407,0.015254
54.843,64.1402,0.015206
54.875,64.1402,0.015206
54.905,64.1402,0.015206
54.936,64.1402,0.015206
54.966,64.1402,0.015206
54.997,64.1402,0.015206
55.028,64.1406,0.015206
55.060,64.1417,0.015206
55.091,64.1436,0.015206
55.122,64.1460,0.015235
55.153,64.1494,0.015235
55.184,64.1534,0.015235
55.215,64.1581,0.015235
55.246,64.1635,0.015235
55.277,64.1697,0.015235
55.308,64.1759,0.015235
55.339,64.1821,0.015235
55.370,64.1885,0.015178
55.402,64.1947,0.015178
55.432,64.2009,0.015178
55.464,64.2071,0.015178
55.495,64.2134,0.015178
55.527,64.2197,0.015178
55.558,64.2259,0.015178
55.589,64.2321,0.015178
55.620,64.2384,0.015178
55.652,64.2448,0.015178
55.683,64.2511,0.015178
55.715,64.2574,0.015178
55.746,64.2635,0.015178
55.777,64.2698,0.015178
55.808,64.2759,0.015178
55.839,64.2822,0.015178
55.871,64.2885,0.015291
55.903,64.2949,0.015291
55.933,64.3009,0.015291
55.965,64.3073,0.015291
55.996,64.3135,0.015291
56.027,64.3197,0.015291
56.057,64.3257,0.015291
56.088,64.3319,0.015291
56.120,64.3383,0.015235
56.151,64.3446,0.015235
56.182,64.3508,0.015235
56.213,64.3569,0.015235
56.244,64.3632,0.015235
56.275,64.3694,0.015235
56.307,64.3757,0.015235
56.338,64.3818,0.015235
56.369,64.3883,0.015235
56.400,64.3943,0.015216
56.431,64.4007,0.015216
56.461,64.4066,0.015216
56.492,64.4128,0.015216
56.524,64.4191,0.015216
56.556,64.4257,0.015216
56.587,64.4318,0.015216
56.618,64.4380,0.015263
56.649,64.4442,0.015263
56.681,64.4504,0.015263
56.712,64.4567,0.015263
56.743,64.4629,0.015263
56.775,64.4692,0.015263
56.806,64.4756,0.015263
56.836,64.4816,0.015263
56.868,64.4878,0.015263
56.899,64.4942,0.015263
56.930,64.5004,0.015263
56.961,64.5065,0.015263
56.992,64.5125,0.015263
57.023,64.5190,0.015263
57.054,64.5251,0.015263
57.086,64.5314,0.015263
57.117,64.5376,0.015291
57.148,64.5439,0.015291
57.179,64.5501,0.015291
57.210,64.5564,0.015291
57.242,64.5626,0.015291
57.272,64.5688,0.015291
57.303,64.5752,0.015291
57.335,64.5814,0.015291
57.366,64.5874,0.015291
57.396,64.5936,0.015291
57.427,64.5997,0.015291
57.458,64.6060,0.015291
57.489,64.6121,0.015291
57.520,64.6184,0.015291
57.551,64.6244,0.015291
57.582,64.6308,0.015291
57.614,64.6370,0.015244
57.646,64.6435,0.015244
57.677,64.6497,0.015244
57.709,64.6561,0.015244
57.740,64.6623,0.015244
57.772,64.6687,0.015244
57.802,64.6747,0.015244
57.835,64.6813,0.015244
57.865,64.6873,0.015263
57.896,64.6937,0.015263
57.927,64.6997,0.015263
57.959,64.7060,0.015263
57.989,64.7121,0.015263
58.020,64.7183,0.015263
58.050,64.7245,0.015263
58.081,64.7306,0.015263
58.112,64.7368,0.015282
58.143,64.7430,0.015282
58.175,64.7494,0.015282
58.206,64.7556,0.015282
58.237,64.7618,0.015282
58.268,64.7679,0.015282
58.299,64.7740,0.015282
58.329,64.7803,0.015282
58.361,64.7865,0.015282
58.392,64.7927,0.015282
58.423,64.7989,0.015282
58.454,64.8051,0.015282
58.485,64.8113,0.015282
58.517,64.8176,0.015282
58.547,64.8240,0.015282
58.579,64.8302,0.015282
58.609,64.8361,0.015282
58.640,64.8423,0.015235
58.671,64.8484,0.015235
58.702,64.8547,0.015235
58.733,64.8608,0.015235
58.764,64.8671,0.015235
58.796,64.8734,0.015235
58.827,64.8798,0.015235
58.858,64.8860,0.015244
58.889,64.8922,0.015244
58.921,64.8984,0.015244
58.952,64.9047,0.015244
58.983,64.9108,0.015244
59.014,64.9172,0.015244
59.045,64.9233,0.015244
59.076,64.9295,0.015244
59.107,64.9356,0.015320
59.137,64.9418,0.015320
59.169,64.9481,0.015320
59.199,64.9542,0.015320
59.230,64.9603,0.015320
59.261,64.9665,0.015320
59.292,64.9727,0.015320
59.324,64.9790,0.015320
59.354,64.9851,0.015272
59.386,64.9914,0.015272
59.416,64.9977,0.015272
59.447,65.0038,0.015272
59.479,65.0100,0.015272
59.510,65.0163,0.015272
59.542,65.0225,0.015272
59.573,65.0290,0.015272
59.603,65.0349,0.015206
59.634,65.0411,0.015206
59.666,65.0474,0.015206
59.698,65.0540,0.015206
59.728,65.0598,0.015206
59.759,65.0662,0.015206
59.790,65.0724,0.015206
59.821,65.0786,0.015206
59.852,65.0848,0.015216
59.884,65.0911,0.015216
59.916,65.0974,0.015216
59.947,65.1037,0.015216
59.978,65.1098,0.015216
60.008,65.1159,0.015216
60.040,65.1225,0.015216
60.071,65.1286,0.015216
60.102,65.1346,0.015197
60.133,65.1410,0.015197
60.165,65.1472,0.015197
60.197,65.1537,0.015197
60.228,65.1599,0.015197
60.259,65.1660,0.015197
60.291,65.1723,0.015197
60.320,65.1783,0.015197
60.351,65.1845,0.015216
60.382,65.1907,0.015216
60.413,65.1968,0.015216
60.444,65.2030,0.015216
60.474,65.2092,0.015216
60.505,65.2152,0.015216
60.535,65.2214,0.015216
60.566,65.2274,0.015216
60.598,65.2338,0.015272
60.629,65.2400,0.015272
60.661,65.2464,0.015272
60.692,65.2527,0.015272
60.723,65.2590,0.015272
60.754,65.2650,0.015272
60.784,65.2714,0.015272
60.815,65.2773,0.015272
60.846,65.2836,0.015272
60.877,65.2898,0.015272
60.908,65.2959,0.015272
60.939,65.3019,0.015272
60.970,65.3083,0.015272
61.001,65.3146,0.015272
61.034,65.3212,0.015272
61.064,65.3271,0.015272
61.096,65.3334,0.015272
61.128,65.3398,0.015272
61.158,65.3461,0.015272
61.189,65.3522,0.015272
61.221,65.3584,0.015272
61.253,65.3648,0.015272
61.283,65.3709,0.015272
61.314,65.3771,0.015282
61.344,65.3830,0.015282
61.377,65.3896,0.015282
61.407,65.3958,0.015282
61.439,65.4021,0.015282
61.470,65.4082,0.015282
61.501,65.4147,0.015282
61.533,65.4209,0.015282
61.564,65.4272,0.015282
61.595,65.4332,0.015272
61.625,65.4395,0.015272
61.656,65.4456,0.015272
61.689,65.4520,0.015272
61.719,65.4580,0.015272
61.749,65.4643,0.015272
61.781,65.4704,0.015272
61.812,65.4768,0.015272
61.843,65.4829,0.015263
61.874,65.4891,0.015263
61.906,65.4954,0.015263
61.937,65.5017,0.015263
61.968,65.5081,0.015263
61.999,65.5140,0.015263
62.029,65.5202,0.015263
62.060,65.5263,0.015263
62.091,65.5326,0.015272
62.123,65.5388,0.015272
62.153,65.5450,0.015272
62.183,65.5510,0.015272
62.215,65.5574,0.015272
62.247,65.5636,0.015272
62.278,65.5701,0.015272
62.310,65.5762,0.015272
62.342,65.5827,0.015291
62.373,65.5888,0.015291
62.404,65.5950,0.015291
62.434,65.6010,0.015291
62.465,65.6075,0.015291
62.496,65.6135,0.015291
62.526,65.6194,0.015291
62.558,65.6260,0.015291
62.589,65.6321,0.015310
62.620,65.6383,0.015310
62.652,65.6446,0.015310
62.683,65.6511,0.015310
62.714,65.6570,0.015310
62.746,65.6635,0.015310
62.776,65.6694,0.015310
62.807,65.6757,0.015310
62.838,65.6818,0.015310
62.869,65.6881,0.015310
62.901,65.6945,0.015310
62.932,65.7007,0.015310
62.963,65.7069,0.015310
62.994,65.7131,0.015310
63.026,65.7194,0.015310
63.057,65.7256,0.015310
63.088,65.7319,0.015301
63.119,65.7381,0.015301
63.149,65.7441,0.015301
63.180,65.7503,0.015301
63.211,65.7565,0.015301
63.243,65.7631,0.015301
63.274,65.7691,0.015301
63.306,65.7753,0.015301
63.337,65.7817,0.015282
63.367,65.7877,0.015282
63.398,65.7938,0.015282
63.429,65.8001,0.015282
63.461,65.8065,0.015282
63.492,65.8127,0.015282
63.523,65.8189,0.015282
63.554,65.8251,0.015282
63.585,65.8313,0.015282
63.616,65.8373,0.015244
63.646,65.8437,0.015244
63.678,65.8499,0.015244
63.710,65.8563,0.015244
63.740,65.8623,0.015244
63.772,65.8687,0.015244
63.803,65.8748,0.015244
63.834,65.8812,0.015244
63.865,65.8872,0.015206
63.896,65.8933,0.015206
63.926,65.8995,0.015206
63.957,65.9057,0.015206
63.989,65.9121,0.015206
64.020,65.9182,0.015206
64.052,65.9245,0.015206
64.082,65.9309,0.015206
64.113,65.9368,0.015225
64.144,65.9431,0.015225
64.176,65.9495,0.015225
64.207,65.9557,0.015225
64.238,65.9619,0.015225
64.269,65.9681,0.015225
64.299,65.9740,0.015225
64.330,65.9803,0.015225
64.362,65.9865,0.015225
64.392,65.9929,0.015225
64.423,65.9987,0.015225
64.454,66.0050,0.015225
64.485,66.0112,0.015225
64.516,66.0176,0.015225
64.548,66.0240,0.015225
64.579,66.0302,0.015225
64.611,66.0364,0.015254
64.642,66.0427,0.015254
64.671,66.0484,0.015254
64.702,66.0548,0.015254
64.733,66.0608,0.015254
64.764,66.0672,0.015254
64.797,66.0736,0.015254
64.827,66.0797,0.015291
64.859,66.0860,0.015291
64.890,66.0923,0.015291
64.921,66.0985,0.015291
64.952,66.1047,0.015291
64.983,66.1109,0.015291
65.015,66.1174,0.015291
65.046,66.1235,0.015291
65.077,66.1297,0.015291
65.108,66.1359,0.015235
65.139,66.1419,0.015235
65.170,66.1484,0.015235
65.202,66.1547,0.015235
65.232,66.1607,0.015235
65.263,66.1669,0.015235
65.294,66.1731,0.015235
65.324,66.1792,0.015235
65.355,66.1852,0.015235
65.388,66.1918,0.015225
65.417,66.1976,0.015225
65.448,66.2038,0.015225
65.478,66.2099,0.015225
65.509,66.2161,0.015225
65.540,66.2222,0.015225
65.570,66.2283,0.015225
65.603,66.2347,0.015225
65.633,66.2409,0.015263
65.664,66.2472,0.015263
65.696,66.2534,0.015263
65.728,66.2599,0.015263
65.761,66.2663,0.015263
65.790,66.2723,0.015263
65.821,66.2786,0.015263
65.853,66.2848,0.015301
65.885,66.2913,0.015301
65.915,66.2972,0.015301
65.946,66.3034,0.015301
65.977,66.3095,0.015301
66.007,66.3157,0.015301
66.038,66.3220,0.015301
66.069,66.3281,0.015301
66.100,66.3342,0.015301
66.133,66.3409,0.015272
66.162,66.3467,0.015272
66.193,66.3528,0.015272
66.224,66.3592,0.015272
66.255,66.3653,0.015272
66.287,66.3715,0.015272
66.318,66.3778,0.015272
66.350,66.3842,0.015272
66.381,66.3905,0.015272
66.412,66.3967,0.015272
66.443,66.4028,0.015272
66.473,66.4090,0.015272
66.505,66.4152,0.015272
66.536,66.4214,0.015272
66.568,66.4278,0.015272
66.598,66.4338,0.015272
66.629,66.4401,0.015282
66.660,66.4462,0.015282
66.692,66.4525,0.015282
66.723,66.4588,0.015282
66.755,66.4652,0.015282
66.786,66.4715,0.015282
66.818,66.4778,0.015282
66.849,66.4841,0.015291
66.880,66.4902,0.015291
66.911,66.4965,0.015291
66.943,66.5029,0.015291
66.974,66.5093,0.015291
67.006,66.5154,0.015291
67.037,66.5218,0.015291
67.069,66.5279,0.015291
67.099,66.5340,0.015291
67.130,66.5402,0.015282
67.161,66.5464,0.015282
67.194,66.5531,0.015282
67.223,66.5589,0.015282
67.254,66.5651,0.015282
67.284,66.5711,0.015282
67.316,66.5775,0.015282
67.346,66.5835,0.015282
67.377,66.5897,0.015254
67.408,66.5959,0.015254
67.440,66.6022,0.015254
67.470,66.6082,0.015254
67.500,66.6142,0.015254
67.531,66.6203,0.015254
67.563,66.6268,0.015254
67.594,66.6331,0.015301
67.624,66.6392,0.015301
67.656,66.6454,0.015301
67.686,66.6514,0.015301
67.717,66.6576,0.015301
67.748,66.6638,0.015301
67.778,66.6698,0.015301
67.808,66.6760,0.015301
67.840,66.6822,0.015272
67.871,66.6885,0.015272
67.901,66.6947,0.015272
67.933,66.7009,0.015272
67.963,66.7069,0.015272
67.994,66.7132,0.015272
68.026,66.7193,0.015272
68.057,66.7256,0.015272
68.089,66.7319,0.015272
68.120,66.7385,0.015272
68.152,66.7446,0.015272
68.184,66.7512,0.015272
68.215,66.7572,0.015272
68.246,66.7634,0.015272
68.276,66.7694,0.015272
68.308,66.7758,0.015272
68.339,66.7822,0.015272
68.370,66.7881,0.015272
68.402,66.7946,0.015272
68.433,66.8008,0.015272
68.463,66.8071,0.015272
68.494,66.8130,0.015272
68.525,66.8195,0.015272
68.556,66.8256,0.015272
68.587,66.8318,0.015254
68.618,66.8380,0.015254
68.649,66.8442,0.015254
68.681,66.8506,0.015254
68.713,66.8569,0.015254
68.745,66.8633,0.015254
68.777,66.8696,0.015254
68.809,66.8760,0.015254
68.841,66.8824,0.015254
68.872,66.8888,0.015291
68.904,66.8950,0.015291
68.935,66.9015,0.015291
68.967,66.9077,0.015291
68.998,66.9140,0.015291
69.029,66.9199,0.015291
69.060,66.9261,0.015291
69.091,66.9323,0.015291
69.122,66.9387,0.015254
69.154,66.9449,0.015254
69.185,66.9512,0.015254
69.216,66.9574,0.015254
69.247,66.9636,0.015254
69.278,66.9699,0.015254
69.309,66.9760,0.015254
69.340,66.9821,0.015254
69.370,66.9883,0.015254
69.402,66.9946,0.015254
69.433,67.0009,0.015254
69.465,67.0071,0.015254
69.495,67.0132,0.015254
69.526,67.0195,0.015254
69.557,67.0256,0.015254
69.588,67.0318,0.015272
69.619,67.0380,0.015272
69.649,67.0441,0.015272
69.681,67.0503,0.015272
69.712,67.0566,0.015272
69.744,67.0629,0.015272
69.775,67.0693,0.015272
69.807,67.0755,0.015272
69.838,67.0819,0.015272
69.869,67.0880,0.015291
69.901,67.0944,0.015291
69.931,67.1004,0.015291
69.962,67.1067,0.015291
69.993,67.1129,0.015291
70.025,67.1189,0.015291
70.056,67.1242,0.015291
70.086,67.1286,0.015291
70.117,67.1324,0.015291
70.148,67.1353,0.015291
70.179,67.1376,0.015291
70.210,67.1392,0.015291
70.243,67.1401,0.015291
70.274,67.1402,0.015291
70.305,67.1402,0.015291
70.337,67.1402,0.015291
70.368,67.1402,0.015338
70.399,67.1402,0.015338
70.431,67.1402,0.015338
70.462,67.1402,0.015338
70.492,67.1402,0.015338
70.522,67.1402,0.015338
70.555,67.1402,0.015338
70.586,67.1402,0.015404
70.616,67.1402,0.015404
70.648,67.1402,0.015404
70.679,67.1402,0.015404
70.711,67.1402,0.015404
70.741,67.1402,0.015404
70.773,67.1402,0.015404
70.804,67.1402,0.015404
70.835,67.1402,0.015404
70.865,67.1402,0.015348
70.896,67.1402,0.015348
70.927,67.1402,0.015348
70.959,67.1402,0.015348
70.989,67.1402,0.015348
71.021,67.1402,0.015348
71.053,67.1402,0.015348
71.085,67.1402,0.015348
71.116,67.1402,0.015301
71.147,67.1402,0.015301
71.177,67.1402,0.015301
71.208,67.1402,0.015301
71.239,67.1402,0.015301
71.270,67.1402,0.015301
71.301,67.1402,0.015301
71.333,67.1402,0.015301
71.363,67.1402,0.015301
71.394,67.1402,0.015301
71.424,67.1402,0.015301
71.456,67.1402,0.015301
71.486,67.1402,0.015301
71.517,67.1402,0.015301
71.549,67.1402,0.015301
71.580,67.1402,0.015301
71.612,67.1402,0.015254
71.644,67.1402,0.015254
71.676,67.1402,0.015254
71.707,67.1402,0.015254
71.738,67.1402,0.015254
71.769,67.1402,0.015254
71.801,67.1402,0.015254
71.831,67.1402,0.015254
71.862,67.1402,0.015272
71.893,67.1402,0.015272
71.924,67.1402,0.015272
71.955,67.1402,0.015272
71.986,67.1402,0.015272
72.016,67.1402,0.015272
72.047,67.1402,0.015272
72.078,67.1402,0.015272
72.109,67.1402,0.015320
72.140,67.1402,0.015320
72.172,67.1402,0.015320
72.203,67.1402,0.015320
72.234,67.1402,0.015320
72.265,67.1402,0.015320
72.296,67.1402,0.015320
72.327,67.1402,0.015320
72.359,67.1402,0.015310
72.390,67.1402,0.015310
72.421,67.1402,0.015310
72.451,67.1402,0.015310
72.482,67.1402,0.015310
72.513,67.1402,0.015310
72.543,67.1402,0.015310
72.575,67.1402,0.015329
72.605,67.1402,0.015329
72.637,67.1402,0.015329
72.668,67.1402,0.015329
72.700,67.1402,0.015329
72.730,67.1402,0.015329
72.762,67.1402,0.015329
72.794,67.1402,0.015329
72.825,67.1402,0.015329
72.856,67.1402,0.015329
72.887,67.1402,0.015301
72.918,67.1402,0.015301
72.949,67.1402,0.015301
72.980,67.1402,0.015301
73.011,67.1402,0.015301
73.042,67.1402,0.015301
73.073,67.1402,0.015301
73.102,67.1402,0.015301
73.133,67.1402,0.015282
73.164,67.1402,0.015282
73.195,67.1402,0.015282
73.227,67.1402,0.015282
73.258,67.1402,0.015282
73.289,67.1402,0.015282
73.320,67.1402,0.015282
73.351,67.1402,0.015235
73.382,67.1402,0.015235
73.414,67.1402,0.015235
73.445,67.1402,0.015235
73.475,67.1402,0.015235
73.506,67.1402,0.015235
73.537,67.1402,0.015235
73.568,67.1402,0.015235
73.599,67.1402,0.015235
73.630,67.1402,0.015244
73.661,67.1402,0.015244
73.692,67.1402,0.015244
73.723,67.1402,0.015244
73.755,67.1402,0.015244
73.786,67.1402,0.015244
73.817,67.1402,0.015244
73.848,67.1402,0.015244
73.878,67.1402,0.015244
73.910,67.1402,0.015244
73.941,67.1402,0.015244
73.972,67.1402,0.015244
74.003,67.1402,0.015244
74.034,67.1402,0.015244
74.065,67.1402,0.015244
74.095,67.1402,0.015244
74.126,67.1402,0.015216
74.158,67.1402,0.015216
74.188,67.1402,0.015216
74.220,67.1402,0.015216
74.251,67.1402,0.015216
74.283,67.1402,0.015216
74.314,67.1402,0.015216
74.345,67.1402,0.015216
74.376,67.1402,0.015216
74.407,67.1402,0.015216
74.438,67.1402,0.015216
74.468,67.1402,0.015216
74.499,67.1402,0.015216
74.530,67.1402,0.015216
74.561,67.1402,0.015216
74.592,67.1400,0.015216
74.623,67.1391,0.015206
74.655,67.1375,0.015206
74.685,67.1353,0.015206
74.717,67.1320,0.015206
74.747,67.1283,0.015206
74.778,67.1237,0.015206
74.809,67.1186,0.015206
74.840,67.1124,0.015329
74.872,67.1062,0.015329
74.903,67.0998,0.015329
74.933,67.0940,0.015329
74.964,67.0876,0.015329
74.995,67.0817,0.015329
75.026,67.0753,0.015329
75.057,67.0691,0.015329
75.088,67.0631,0.015329
75.118,67.0569,0.015320
75.148,67.0510,0.015320
75.179,67.0447,0.015320
75.209,67.0389,0.015320
75.240,67.0326,0.015320
75.271,67.0264,0.015320
75.303,67.0200,0.015320
75.333,67.0140,0.015235
75.364,67.0078,0.015235
75.395,67.0016,0.015235
75.427,66.9952,0.015235
75.458,66.9890,0.015235
75.489,66.9828,0.015235
75.520,66.9766,0.015235
75.551,66.9704,0.015235
75.582,66.9641,0.015282
75.612,66.9583,0.015282
75.643,66.9518,0.015282
75.675,66.9456,0.015282
75.706,66.9394,0.015282
75.737,66.9332,0.015282
75.768,66.9270,0.015282
75.799,66.9208,0.015282
75.830,66.9146,0.015282
75.861,66.9084,0.015282
75.892,66.9023,0.015282
75.924,66.8959,0.015282
75.955,66.8896,0.015282
75.985,66.8837,0.015282
76.018,66.8770,0.015282
76.048,66.8711,0.015282
76.081,66.8645,0.015282
76.110,66.8586,0.015254
76.141,66.8525,0.015254
76.172,66.8463,0.015254
76.202,66.8402,0.015254
76.234,66.8339,0.015254
76.265,66.8277,0.015254
76.296,66.8215,0.015254
76.328,66.8150,0.015254
76.358,66.8092,0.015254
76.388,66.8030,0.015263
76.420,66.7968,0.015263
76.451,66.7903,0.015263
76.482,66.7841,0.015263
76.512,66.7783,0.015263
76.542,66.7722,0.015263
76.573,66.7662,0.015263
76.604,66.7598,0.015244
76.635,66.7535,0.015244
76.666,66.7474,0.015244
76.696,66.7412,0.015244
76.727,66.7352,0.015244
76.759,66.7290,0.015244
76.791,66.7225,0.015244
76.821,66.7164,0.015244
76.852,66.7103,0.015244
76.883,66.7038,0.015244
76.915,66.6978,0.015244
76.945,66.6916,0.015244
76.976,66.6855,0.015244
77.007,66.6793,0.015244
77.038,66.6729,0.015244
77.070,66.6666,0.015244
77.101,66.6605,0.015263
77.132,66.6543,0.015263
77.163,66.6482,0.015263
77.194,66.6420,0.015263
77.226,66.6356,0.015263
77.256,66.6294,0.015263
77.288,66.6230,0.015263
77.319,66.6167,0.015263
77.350,66.6105,0.015263
77.381,66.6044,0.015282
77.412,66.5982,0.015282
77.442,66.5923,0.015282
77.474,66.5860,0.015282
77.506,66.5795,0.015282
77.537,66.5733,0.015282
77.568,66.5669,0.015282
77.599,66.5609,0.015235
77.629,66.5547,0.015235
77.661,66.5485,0.015235
77.692,66.5422,0.015235
77.724,66.5357,0.015235
77.756,66.5294,0.015235
77.787,66.5233,0.015235
77.818,66.5170,0.015235
77.849,66.5109,0.015235
77.881,66.5046,0.015225
77.911,66.4985,0.015225
77.942,66.4923,0.015225
77.973,66.4861,0.015225
78.003,66.4799,0.015225
78.035,66.4736,0.015225
78.067,66.4673,0.015225
78.098,66.4611,0.015282
78.130,66.4547,0.015282
78.161,66.4485,0.015282
78.191,66.4423,0.015282
78.222,66.4364,0.015282
78.253,66.4301,0.015282
78.285,66.4237,0.015282
78.316,66.4174,0.015282
78.348,66.4110,0.015263
78.379,66.4049,0.015263
78.409,66.3989,0.015263
78.441,66.3925,0.015263
78.470,66.3865,0.015263
78.501,66.3804,0.015263
78.532,66.3742,0.015263
78.563,66.3680,0.015263
78.594,66.3620,0.015263
78.624,66.3559,0.015263
78.656,66.3496,0.015263
78.687,66.3432,0.015263
78.717,66.3373,0.015263
78.749,66.3308,0.015263
78.780,66.3246,0.015263
78.811,66.3186,0.015263
78.842,66.3121,0.015338
78.874,66.3059,0.015338
78.905,66.2997,0.015338
78.936,66.2934,0.015338
78.967,66.2874,0.015338
78.997,66.2812,0.015338
79.028,66.2750,0.015338
79.059,66.2688,0.015338
79.091,66.2625,0.015376
79.122,66.2562,0.015376
79.153,66.2500,0.015376
79.185,66.2438,0.015376
79.216,66.2376,0.015376
79.247,66.2312,0.015376
79.279,66.2249,0.015376
79.309,66.2187,0.015376
79.340,66.2128,0.015320
79.371,66.2063,0.015320
79.402,66.2002,0.015320
79.433,66.1939,0.015320
79.464,66.1878,0.015320
79.496,66.1815,0.015320
79.527,66.1752,0.015320
79.559,66.1689,0.015320
79.589,66.1628,0.015320
79.620,66.1568,0.015216
79.651,66.1505,0.015216
79.682,66.1443,0.015216
79.712,66.1382,0.015216
79.743,66.1320,0.015216
79.774,66.1258,0.015216
79.805,66.1196,0.015216
79.838,66.1130,0.015178
79.867,66.1072,0.015178
79.898,66.1010,0.015178
79.930,66.0947,0.015178
79.961,66.0884,0.015178
79.992,66.0823,0.015178
80.022,66.0763,0.015178
80.053,66.0699,0.015178
80.084,66.0638,0.015178
80.116,66.0575,0.015178
80.147,66.0513,0.015235
80.178,66.0450,0.015235
80.209,66.0389,0.015235
80.241,66.0324,0.015235
80.272,66.0262,0.015235
80.304,66.0198,0.015235
80.334,66.0140,0.015235
80.365,66.0076,0.015291
80.396,66.0016,0.015291
80.426,65.9955,0.015291
80.458,65.9890,0.015291
80.488,65.9831,0.015291
80.519,65.9769,0.015291
80.549,65.9708,0.015291
80.580,65.9646,0.015291
80.611,65.9585,0.015291
80.642,65.9522,0.015329
80.673,65.9461,0.015329
80.703,65.9400,0.015329
80.734,65.9338,0.015329
80.765,65.9276,0.015329
80.796,65.9216,0.015329
80.827,65.9151,0.015329
80.859,65.9088,0.015320
80.889,65.9028,0.015320
80.920,65.8968,0.015320
80.952,65.8902,0.015320
80.983,65.8841,0.015320
81.014,65.8777,0.015320
81.046,65.8715,0.015320
81.077,65.8653,0.015320
81.109,65.8589,0.015301
81.139,65.8527,0.015301
81.170,65.8466,0.015301
81.202,65.8402,0.015301
81.232,65.8341,0.015301
81.263,65.8280,0.015301
81.294,65.8220,0.015301
81.325,65.8156,0.015301
81.357,65.8093,0.015291
81.388,65.8031,0.015291
81.420,65.7967,0.015291
81.451,65.7903,0.015291
81.482,65.7841,0.015291
81.513,65.7781,0.015291
81.544,65.7719,0.015291
81.575,65.7655,0.015291
81.606,65.7595,0.015263
81.636,65.7533,0.015263
81.667,65.7472,0.015263
81.699,65.7409,0.015263
81.729,65.7347,0.015263
81.760,65.7286,0.015263
81.790,65.7226,0.015263
81.823,65.7161,0.015263
81.853,65.7101,0.015320
81.884,65.7038,0.015320
81.916,65.6974,0.015320
81.947,65.6911,0.015320
81.979,65.6849,0.015320
82.009,65.6786,0.015320
82.039,65.6729,0.015320
82.071,65.6666,0.015320
82.102,65.6602,0.015320
82.134,65.6539,0.015320
82.164,65.6477,0.015320
82.195,65.6416,0.015320
82.226,65.6354,0.015320
82.258,65.6291,0.015320
82.289,65.6229,0.015320
82.320,65.6166,0.015320
82.352,65.6101,0.015320
82.382,65.6042,0.015244
82.414,65.5980,0.015244
82.445,65.5917,0.015244
82.476,65.5856,0.015244
82.506,65.5794,0.015244
82.538,65.5731,0.015244
82.570,65.5666,0.015244
82.601,65.5605,0.015282
82.631,65.5543,0.015282
82.661,65.5485,0.015282
82.693,65.5422,0.015282
82.724,65.5360,0.015282
82.755,65.5298,0.015282
82.785,65.5234,0.015282
82.817,65.5172,0.015282
82.848,65.5109,0.015357
82.879,65.5048,0.015357
82.909,65.4988,0.015357
82.940,65.4926,0.015357
82.972,65.4862,0.015357
83.003,65.4800,0.015357
83.035,65.4736,0.015357
83.066,65.4675,0.015357
83.097,65.4612,0.015338
83.128,65.4551,0.015338
83.159,65.4490,0.015338
83.190,65.4427,0.015338
83.221,65.4366,0.015338
83.252,65.4303,0.015338
83.283,65.4241,0.015338
83.314,65.4179,0.015338
83.345,65.4118,0.015310
83.376,65.4055,0.015310
83.406,65.3992,0.015310
83.437,65.3932,0.015310
83.468,65.3870,0.015310
83.499,65.3809,0.015310
83.531,65.3746,0.015310
83.563,65.3682,0.015310
83.594,65.3617,0.015291
83.626,65.3553,0.015291
83.656,65.3494,0.015291
83.687,65.3434,0.015291
83.718,65.3369,0.015291
83.749,65.3308,0.015291
83.780,65.3245,0.015291
83.812,65.3184,0.015291
83.842,65.3122,0.015291
83.873,65.3059,0.015291
83.904,65.3000,0.015291
83.935,65.2934,0.015291
83.966,65.2875,0.015291
83.997,65.2812,0.015291
84.028,65.2750,0.015291
84.060,65.2686,0.015291
84.091,65.2625,0.015291
84.122,65.2562,0.015291
84.153,65.2501,0.015291
84.184,65.2436,0.015291
84.216,65.2374,0.015291
84.248,65.2310,0.015291
84.279,65.2249,0.015291
84.310,65.2186,0.015291
84.342,65.2124,0.015291
84.373,65.2059,0.015216
84.402,65.2002,0.015216
84.434,65.1938,0.015216
84.466,65.1875,0.015216
84.495,65.1818,0.015216
84.525,65.1757,0.015216
84.556,65.1695,0.015216
84.588,65.1632,0.015216
84.619,65.1570,0.015235
84.649,65.1509,0.015235
84.681,65.1447,0.015235
84.711,65.1386,0.015235
84.742,65.1324,0.015235
84.773,65.1261,0.015235
84.805,65.1197,0.015235
84.836,65.1135,0.015235
84.867,65.1072,0.015272
84.898,65.1011,0.015272
84.929,65.0948,0.015272
84.961,65.0886,0.015272
84.992,65.0823,0.015272
85.023,65.0761,0.015272
85.053,65.0701,0.015272
85.084,65.0638,0.015272
85.115,65.0577,0.015272
85.146,65.0514,0.015225
85.177,65.0453,0.015225
85.208,65.0390,0.015225
85.239,65.0328,0.015225
85.271,65.0265,0.015225
85.302,65.0203,0.015225
85.333,65.0141,0.015225
85.365,65.0076,0.015282
85.396,65.0016,0.015282
85.428,64.9952,0.015282
85.459,64.9889,0.015282
85.490,64.9826,0.015282
85.521,64.9765,0.015282
85.552,64.9703,0.015282
85.583,64.9641,0.015282
85.614,64.9580,0.015329
85.645,64.9516,0.015329
85.676,64.9455,0.015329
85.708,64.9390,0.015329
85.739,64.9330,0.015329
85.770,64.9266,0.015329
85.801,64.9204,0.015329
85.833,64.9141,0.015329
85.864,64.9078,0.015272
85.894,64.9017,0.015272
85.926,64.8956,0.015272
85.956,64.8893,0.015272
85.988,64.8831,0.015272
86.019,64.8769,0.015272
86.050,64.8708,0.015272
86.081,64.8646,0.015272
86.111,64.8586,0.015254
86.143,64.8521,0.015254
86.174,64.8459,0.015254
86.204,64.8399,0.015254
86.235,64.8335,0.015254
86.267,64.8273,0.015254
86.298,64.8212,0.015254
86.328,64.8151,0.015254
86.360,64.8086,0.015272
86.390,64.8026,0.015272
86.422,64.7964,0.015272
86.453,64.7900,0.015272
86.484,64.7839,0.015272
86.515,64.7776,0.015272
86.547,64.7714,0.015272
86.579,64.7650,0.015272
86.610,64.7586,0.015272
86.640,64.7525,0.015272
86.671,64.7466,0.015272
86.702,64.7404,0.015272
86.732,64.7343,0.015272
86.763,64.7280,0.015272
86.794,64.7219,0.015272
86.824,64.7158,0.015272
86.855,64.7096,0.015282
86.886,64.7035,0.015282
86.917,64.6972,0.015282
86.949,64.6910,0.015282
86.981,64.6844,0.015282
87.013,64.6781,0.015282
87.046,64.6716,0.015282
87.076,64.6654,0.015282
87.107,64.6592,0.015282
87.139,64.6529,0.015282
87.170,64.6465,0.015282
87.202,64.6403,0.015282
87.234,64.6338,0.015282
87.265,64.6276,0.015282
87.298,64.6209,0.015282
87.327,64.6152,0.015282
87.358,64.6091,0.015244
87.389,64.6028,0.015244
87.421,64.5965,0.015244
87.452,64.5902,0.015244
87.483,64.5842,0.015244
87.514,64.5779,0.015244
87.545,64.5717,0.015244
87.576,64.5655,0.015244
87.608,64.5592,0.015282
87.638,64.5531,0.015282
87.669,64.5470,0.015282
87.701,64.5406,0.015282
87.732,64.5344,0.015282
87.762,64.5283,0.015282
87.793,64.5221,0.015282
87.824,64.5159,0.015282
87.854,64.5098,0.015291
87.885,64.5036,0.015291
87.916,64.4975,0.015291
87.947,64.4914,0.015291
87.978,64.4852,0.015291
88.009,64.4788,0.015291
88.040,64.4727,0.015291
88.071,64.4664,0.015291
88.101,64.4606,0.015272
88.132,64.4541,0.015272
88.164,64.4479,0.015272
88.195,64.4416,0.015272
88.227,64.4353,0.015272
88.259,64.4289,0.015272
88.290,64.4226,0.015272
88.322,64.4162,0.015272
88.353,64.4102,0.015338
88.385,64.4036,0.015338
88.415,64.3977,0.015338
88.447,64.3915,0.015338
88.478,64.3852,0.015338
88.509,64.3790,0.015338
88.541,64.3725,0.015338
88.571,64.3666,0.015282
88.602,64.3604,0.015282
88.634,64.3540,0.015282
88.665,64.3478,0.015282
88.695,64.3416,0.015282
88.727,64.3354,0.015282
88.758,64.3291,0.015282
88.789,64.3229,0.015282
88.820,64.3167,0.015282
88.852,64.3102,0.015272
88.883,64.3042,0.015272
88.914,64.2978,0.015272
88.946,64.2915,0.015272
88.976,64.2853,0.015272
89.008,64.2791,0.015272
89.040,64.2728,0.015272
89.070,64.2667,0.015272
89.101,64.2606,0.015310
89.131,64.2546,0.015310
89.161,64.2485,0.015310
89.192,64.2422,0.015310
89.224,64.2360,0.015310
89.256,64.2296,0.015310
89.287,64.2233,0.015310
89.317,64.2174,0.015301
89.348,64.2112,0.015301
89.378,64.2052,0.015301
89.409,64.1989,0.015301
89.440,64.1925,0.015301
89.472,64.1863,0.015301
89.502,64.1803,0.015301
89.533,64.1739,0.015301
89.565,64.1677,0.015301
89.596,64.1615,0.015301
89.627,64.1555,0.015310
89.658,64.1491,0.015310
89.689,64.1431,0.015310
89.720,64.1367,0.015310
89.751,64.1304,0.015310
89.783,64.1242,0.015310
89.813,64.1181,0.015310
89.844,64.1121,0.015310
89.875,64.1068,0.015282
89.906,64.1023,0.015282
89.937,64.0985,0.015282
89.968,64.0953,0.015282
89.998,64.0930,0.015282
90.030,64.0913,0.015282
90.061,64.0905,0.015282
90.092,64.0902,0.015282
90.124,64.0902,0.015178
90.156,64.0902,0.015178
90.186,64.0902,0.015178
90.217,64.0906,0.015178
90.249,64.0917,0.015178
90.281,64.0936,0.015178
90.312,64.0962,0.015178
90.343,64.0995,0.015178
90.374,64.1035,0.015216
90.404,64.1081,0.015216
90.434,64.1134,0.015216
90.465,64.1195,0.015216
90.495,64.1257,0.015216
90.527,64.1319,0.015216
90.557,64.1381,0.015216
90.590,64.1444,0.015263
90.620,64.1505,0.015263
90.651,64.1566,0.015263
90.682,64.1629,0.015263
90.713,64.1691,0.015263
90.745,64.1754,0.015263
90.776,64.1816,0.015263
90.807,64.1878,0.015263
90.838,64.1940,0.015263
90.869,64.2002,0.015235
90.900,64.2066,0.015235
90.932,64.2128,0.015235
90.963,64.2191,0.015235
90.995,64.2254,0.015235
91.026,64.2316,0.015235
91.057,64.2379,0.015235
91.088,64.2440,0.015235
91.119,64.2505,0.015291
91.150,64.2564,0.015291
91.181,64.2626,0.015291
91.212,64.2689,0.015291
91.243,64.2751,0.015291
91.275,64.2815,0.015291
91.305,64.2875,0.015291
91.337,64.2937,0.015291
91.369,64.3003,0.015320
91.399,64.3062,0.015320
91.429,64.3122,0.015320
91.460,64.3186,0.015320
91.491,64.3246,0.015320
91.522,64.3308,0.015320
91.553,64.3370,0.015320
91.585,64.3434,0.015338
91.616,64.3498,0.015338
91.646,64.3556,0.015338
91.678,64.3620,0.015338
91.709,64.3683,0.015338
91.740,64.3746,0.015338
91.770,64.3806,0.015338
91.801,64.3866,0.015338
91.832,64.3928,0.015338
91.864,64.3994,0.015254
91.895,64.4055,0.015254
91.926,64.4117,0.015254
91.958,64.4180,0.015254
91.990,64.4245,0.015254
92.022,64.4308,0.015254
92.053,64.4370,0.015254
92.084,64.4433,0.015254
92.115,64.4494,0.015235
92.146,64.4557,0.015235
92.177,64.4619,0.015235
92.209,64.4683,0.015235
92.240,64.4746,0.015235
92.270,64.4805,0.015235
92.302,64.4870,0.015235
92.332,64.4928,0.015235
92.363,64.4990,0.015329
92.394,64.5053,0.015329
92.424,64.5113,0.015329
92.455,64.5176,0.015329
92.487,64.5238,0.015329
92.518,64.5300,0.015329
92.549,64.5362,0.015329
92.580,64.5424,0.015329
92.611,64.5487,0.015254
92.643,64.5551,0.015254
92.673,64.5610,0.015254
92.705,64.5676,0.015254
92.736,64.5738,0.015254
92.766,64.5797,0.015254
92.797,64.5859,0.015254
92.828,64.5922,0.015254
92.859,64.5984,0.015197
92.890,64.6044,0.015197
92.920,64.6104,0.015197
92.950,64.6166,0.015197
92.982,64.6228,0.015197
93.013,64.6292,0.015197
93.045,64.6354,0.015197
93.076,64.6418,0.015197
93.108,64.6480,0.015216
93.139,64.6543,0.015216
93.170,64.6604,0.015216
93.201,64.6667,0.015216
93.232,64.6728,0.015216
93.264,64.6793,0.015216
93.295,64.6853,0.015216
93.326,64.6916,0.015216
93.357,64.6977,0.015216
93.388,64.7041,0.015301
93.419,64.7102,0.015301
93.449,64.7163,0.015301
93.481,64.7227,0.015301
93.512,64.7288,0.015301
93.542,64.7350,0.015301
93.573,64.7411,0.015301
93.604,64.7473,0.015301
93.635,64.7535,0.015301
93.665,64.7597,0.015301
93.698,64.7660,0.015301
93.729,64.7721,0.015301
93.760,64.7784,0.015301
93.791,64.7846,0.015301
93.823,64.7912,0.015301
93.855,64.7974,0.015291
93.886,64.8036,0.015291
93.917,64.8099,0.015291
93.948,64.8161,0.015291
93.979,64.8225,0.015291
94.010,64.8285,0.015291
94.042,64.8349,0.015291
94.073,64.8409,0.015291
94.103,64.8473,0.015272
94.134,64.8532,0.015272
94.165,64.8597,0.015272
94.197,64.8659,0.015272
94.228,64.8722,0.015272
94.260,64.8784,0.015272
94.291,64.8848,0.015272
94.323,64.8909,0.015272
94.354,64.8972,0.015244
94.385,64.9034,0.015244
94.416,64.9095,0.015244
94.447,64.9159,0.015244
94.478,64.9221,0.015244
94.509,64.9281,0.015244
94.540,64.9346,0.015244
94.570,64.9407,0.015244
94.602,64.9469,0.015291
94.634,64.9533,0.015291
94.666,64.9596,0.015291
94.698,64.9662,0.015291
94.730,64.9724,0.015291
94.760,64.9786,0.015291
94.792,64.9848,0.015291
94.823,64.9911,0.015291
94.855,64.9973,0.015291
94.884,65.0033,0.015291
94.915,65.0095,0.015291
94.946,65.0156,0.015291
94.977,65.0219,0.015291
95.007,65.0280,0.015291
95.038,65.0345,0.015291
95.069,65.0404,0.015291
95.101,65.0467,0.015263
95.131,65.0526,0.015263
95.162,65.0591,0.015263
95.193,65.0651,0.015263
95.226,65.0716,0.015263
95.256,65.0777,0.015263
95.287,65.0839,0.015263
95.318,65.0901,0.015263
95.350,65.0964,0.015235
95.381,65.1026,0.015235
95.412,65.1088,0.015235
95.442,65.1149,0.015235
95.473,65.1211,0.015235
95.504,65.1274,0.015235
95.535,65.1336,0.015235
95.566,65.1398,0.015235
95.597,65.1458,0.015244
95.629,65.1522,0.015244
95.660,65.1584,0.015244
95.691,65.1648,0.015244
95.722,65.1707,0.015244
95.753,65.1772,0.015244
95.784,65.1832,0.015244
95.815,65.1896,0.015244
95.847,65.1958,0.015235
95.879,65.2023,0.015235
95.911,65.2085,0.015235
95.942,65.2150,0.015235
95.973,65.2211,0.015235
96.005,65.2274,0.015235
96.036,65.2336,0.015235
96.066,65.2396,0.015235
96.097,65.2460,0.015197
96.128,65.2522,0.015197
96.158,65.2582,0.015197
96.189,65.2644,0.015197
96.221,65.2707,0.015197
96.252,65.2769,0.015197
96.283,65.2831,0.015197
96.315,65.2893,0.015197
96.345,65.2955,0.015244
96.377,65.3017,0.015244
96.408,65.3081,0.015244
96.439,65.3142,0.015244
96.470,65.3204,0.015244
96.501,65.3267,0.015244
96.533,65.3329,0.015244
96.564,65.3393,0.015244
96.595,65.3453,0.015244
96.626,65.3515,0.015254
96.656,65.3577,0.015254
96.687,65.3637,0.015254
96.717,65.3700,0.015254
96.749,65.3761,0.015254
96.779,65.3823,0.015254
96.810,65.3885,0.015254
96.841,65.3947,0.015254
96.872,65.4009,0.015301
96.903,65.4071,0.015301
96.934,65.4133,0.015301
96.967,65.4198,0.015301
96.997,65.4258,0.015301
97.028,65.4320,0.015301
97.058,65.4381,0.015301
97.089,65.4442,0.015301
97.120,65.4505,0.015320
97.152,65.4567,0.015320
97.183,65.4630,0.015320
97.214,65.4692,0.015320
97.246,65.4759,0.015320
97.278,65.4821,0.015320
97.308,65.4881,0.015320
97.340,65.4945,0.015320
97.371,65.5007,0.015254
97.403,65.5071,0.015254
97.434,65.5131,0.015254
97.465,65.5196,0.015254
97.496,65.5256,0.015254
97.527,65.5320,0.015254
97.557,65.5380,0.015254
97.589,65.5444,0.015254
97.620,65.5504,0.015225
97.650,65.5566,0.015225
97.681,65.5625,0.015225
97.711,65.5687,0.015225
97.743,65.5752,0.015225
97.775,65.5814,0.015225
97.806,65.5878,0.015225
97.839,65.5943,0.015225
97.867,65.5998,0.015225
97.898,65.6062,0.015225
97.929,65.6122,0.015225
97.962,65.6187,0.015225
97.992,65.6248,0.015225
98.023,65.6311,0.015225
98.055,65.6374,0.015225
98.086,65.6436,0.015282
98.117,65.6499,0.015282
98.148,65.6560,0.015282
98.179,65.6622,0.015282
98.209,65.6683,0.015282
98.240,65.6744,0.015282
98.270,65.6805,0.015282
98.301,65.6867,0.015282
98.332,65.6930,0.015301
98.364,65.6993,0.015301
98.395,65.7055,0.015301
98.426,65.7118,0.015301
98.458,65.7182,0.015301
98.489,65.7242,0.015301
98.520,65.7303,0.015301
98.551,65.7365,0.015301
98.581,65.7426,0.015272
98.613,65.7490,0.015272
98.644,65.7551,0.015272
98.676,65.7616,0.015272
98.706,65.7676,0.015272
98.738,65.7740,0.015272
98.769,65.7802,0.015272
98.801,65.7865,0.015272
98.831,65.7927,0.015291
98.863,65.7991,0.015291
98.894,65.8053,0.015291
98.926,65.8117,0.015291
98.957,65.8177,0.015291
98.988,65.8240,0.015291
99.019,65.8302,0.015291
99.050,65.8365,0.015291
99.081,65.8426,0.015291
99.112,65.8490,0.015254
99.142,65.8548,0.015254
99.174,65.8613,0.015254
99.205,65.8676,0.015254
99.236,65.8738,0.015254
99.268,65.8799,0.015254
99.299,65.8862,0.015254
99.329,65.8922,0.015254
99.361,65.8986,0.015254
99.392,65.9047,0.015197
99.423,65.9111,0.015197
99.454,65.9171,0.015197
99.484,65.9233,0.015197
99.516,65.9295,0.015197
99.546,65.9356,0.015197
99.577,65.9420,0.015197
99.608,65.9480,0.015197
99.639,65.9543,0.015188
99.670,65.9604,0.015188
99.701,65.9666,0.015188
99.732,65.9728,0.015188
99.763,65.9791,0.015188
99.794,65.9852,0.015188
99.824,65.9911,0.015188
99.855,65.9976,0.015188
99.887,66.0039,0.015206
99.919,66.0101,0.015206
99.950,66.0163,0.015206
99.981,66.0228,0.015206
100.012,66.0288,0.015206
100.044,66.0352,0.015206
100.075,66.0415,0.015206
100.107,66.0479,0.015206
100.138,66.0541,0.015244
100.170,66.0603,0.015244
100.202,66.0668,0.015244
100.231,66.0726,0.015244
100.264,66.0792,0.015244
100.293,66.0850,0.015244
100.325,66.0916,0.015244
100.355,66.0974,0.015244
100.388,66.1040,0.015310
100.417,66.1099,0.015310
100.449,66.1162,0.015310
100.480,66.1224,0.015310
100.511,66.1287,0.015310
100.543,66.1350,0.015310
100.576,66.1417,0.015310
100.605,66.1474,0.015310
100.636,66.1536,0.015301
100.667,66.1599,0.015301
100.699,66.1661,0.015301
100.730,66.1725,0.015301
100.761,66.1785,0.015301
100.792,66.1849,0.015301
100.822,66.1907,0.015301
100.853,66.1970,0.015244
100.885,66.2033,0.015244
100.915,66.2095,0.015244
100.946,66.2157,0.015244
100.977,66.2219,0.015244
101.008,66.2283,0.015244
101.040,66.2346,0.015244
101.071,66.2408,0.015244
101.102,66.2469,0.015244
101.133,66.2531,0.015244
101.164,66.2591,0.015244
101.195,66.2655,0.015244
101.227,66.2718,0.015244
101.258,66.2782,0.015244
101.289,66.2842,0.015244
101.321,66.2907,0.015244
101.353,66.2969,0.015263
101.384,66.3032,0.015263
101.415,66.3093,0.015263
101.445,66.3156,0.015263
101.477,66.3219,0.015263
101.507,66.3279,0.015263
101.539,66.3341,0.015263
101.569,66.3404,0.015263
101.600,66.3463,0.015301
101.631,66.3525,0.015301
101.661,66.3586,0.015301
101.692,66.3649,0.015301
101.724,66.3711,0.015301
101.755,66.3773,0.015301
101.786,66.3837,0.015301
101.818,66.3900,0.015301
101.848,66.3959,0.015254
101.879,66.4021,0.015254
101.910,66.4083,0.015254
101.941,66.4146,0.015254
101.973,66.4209,0.015254
102.004,66.4273,0.015254
102.035,66.4333,0.015254
102.066,66.4396,0.015254
102.097,66.4457,0.015216
102.127,66.4519,0.015216
102.159,66.4582,0.015216
102.190,66.4643,0.015216
102.221,66.4709,0.015216
102.251,66.4767,0.015216
102.283,66.4831,0.015216
102.313,66.4888,0.015216
102.345,66.4953,0.015263
102.375,66.5015,0.015263
102.407,66.5077,0.015263
102.437,66.5138,0.015263
102.468,66.5198,0.015263
102.498,66.5262,0.015263
102.529,66.5321,0.015263
102.560,66.5383,0.015263
102.592,66.5449,0.015310
102.622,66.5509,0.015310
102.653,66.5571,0.015310
102.683,66.5629,0.015310
102.716,66.5696,0.015310
102.746,66.5757,0.015310
102.777,66.5820,0.015310
102.808,66.5881,0.015310
102.839,66.5943,0.015310
102.870,66.6002,0.015263
102.901,66.6067,0.015263
102.932,66.6129,0.015263
102.964,66.6194,0.015263
102.995,66.6254,0.015263
103.027,66.6320,0.015263
103.059,66.6382,0.015263
103.091,66.6447,0.015263
103.123,66.6509,0.015235
103.155,66.6575,0.015235
103.186,66.6636,0.015235
103.217,66.6699,0.015235
103.249,66.6761,0.015235
103.281,66.6826,0.015235
103.311,66.6886,0.015235
103.343,66.6950,0.015282
103.373,66.7009,0.015282
103.404,66.7074,0.015282
103.435,66.7134,0.015282
103.466,66.7196,0.015282
103.497,66.7257,0.015282
103.528,66.7319,0.015282
103.560,66.7384,0.015282
103.591,66.7446,0.015282
103.622,66.7508,0.015282
103.652,66.7569,0.015282
103.684,66.7631,0.015282
103.715,66.7693,0.015282
103.745,66.7752,0.015282
103.776,66.7817,0.015282
103.806,66.7876,0.015282
103.838,66.7939,0.015282
103.868,66.7999,0.015254
103.899,66.8062,0.015254
103.930,66.8124,0.015254
103.962,66.8187,0.015254
103.993,66.8248,0.015254
104.024,66.8313,0.015254
104.055,66.8373,0.015254
104.087,66.8438,0.015254
104.119,66.8500,0.015254
104.149,66.8562,0.015254
104.180,66.8624,0.015254
104.213,66.8688,0.015254
104.242,66.8748,0.015254
104.273,66.8810,0.015254
104.305,66.8875,0.015254
104.336,66.8938,0.015254
104.368,66.8999,0.015282
104.399,66.9061,0.015282
104.430,66.9124,0.015282
104.461,66.9185,0.015282
104.492,66.9248,0.015282
104.523,66.9311,0.015282
104.556,66.9377,0.015282
104.586,66.9436,0.015282
104.617,66.9498,0.015320
104.648,66.9559,0.015320
104.679,66.9621,0.015320
104.710,66.9684,0.015320
104.741,66.9746,0.015320
104.772,66.9810,0.015320
104.804,66.9870,0.015320
104.834,66.9934,0.015310
104.866,66.9994,0.015310
104.896,67.0058,0.015310
104.929,67.0122,0.015310
104.958,67.0180,0.015310
104.989,67.0244,0.015310
105.020,67.0305,0.015310
105.052,67.0369,0.015310
105.083,67.0430,0.015310
105.114,67.0494,0.015282
105.146,67.0556,0.015282
105.177,67.0620,0.015282
105.209,67.0679,0.015282
105.239,67.0734,0.015282
105.271,67.0778,0.015282
105.301,67.0818,0.015282
105.332,67.0849,0.015282
105.363,67.0874,0.015338
105.393,67.0890,0.015338
105.424,67.0900,0.015338
105.456,67.0902,0.015338
105.487,67.0902,0.015338
105.518,67.0902,0.015338
105.552,67.0902,0.015338
105.580,67.0902,0.015338
105.610,67.0902,0.015414
105.641,67.0902,0.015414
105.672,67.0902,0.015414
105.703,67.0902,0.015414
105.734,67.0902,0.015414
105.765,67.0902,0.015414
105.796,67.0902,0.015414
105.827,67.0902,0.015414
105.858,67.0902,0.015320
105.887,67.0902,0.015320
105.918,67.0902,0.015320
105.950,67.0902,0.015320
105.981,67.0902,0.015320
106.011,67.0902,0.015320
106.042,67.0902,0.015320
106.073,67.0902,0.015320
106.104,67.0902,0.015282
106.135,67.0902,0.015282
106.166,67.0902,0.015282
106.196,67.0902,0.015282
106.227,67.0902,0.015282
106.258,67.0902,0.015282
106.289,67.0902,0.015282
106.321,67.0902,0.015291
106.351,67.0902,0.015291
106.382,67.0902,0.015291
106.413,67.0902,0.015291
106.444,67.0902,0.015291
106.475,67.0902,0.015291
106.507,67.0902,0.015291
106.538,67.0902,0.015291
106.568,67.0902,0.015291
106.599,67.0902,0.015263
106.630,67.0902,0.015263
106.661,67.0902,0.015263
106.692,67.0902,0.015263
106.722,67.0902,0.015263
106.754,67.0902,0.015263
106.784,67.0902,0.015263
106.815,67.0902,0.015263
106.846,67.0902,0.015301
106.877,67.0902,0.015301
106.908,67.0902,0.015301
106.939,67.0902,0.015301
106.970,67.0902,0.015301
107.001,67.0902,0.015301
107.032,67.0902,0.015301
107.064,67.0902,0.015301
107.094,67.0902,0.015301
107.126,67.0902,0.015310
107.157,67.0902,0.015310
107.187,67.0902,0.015310
107.218,67.0902,0.015310
107.251,67.0902,0.015310
107.281,67.0902,0.015310
107.311,67.0902,0.015310
107.341,67.0902,0.015310
107.373,67.0902,0.015282
107.404,67.0902,0.015282
107.435,67.0902,0.015282
107.467,67.0902,0.015282
107.498,67.0902,0.015282
107.530,67.0902,0.015282
107.560,67.0902,0.015282
107.591,67.0902,0.015282
107.622,67.0902,0.015301
107.653,67.0902,0.015301
107.685,67.0902,0.015301
107.715,67.0902,0.015301
107.746,67.0902,0.015301
107.777,67.0902,0.015301
107.807,67.0902,0.015301
107.839,67.0902,0.015301
107.870,67.0902,0.015272
107.901,67.0902,0.015272
107.931,67.0902,0.015272
107.962,67.0902,0.015272
107.994,67.0902,0.015272
108.026,67.0902,0.015272
108.058,67.0902,0.015272
108.089,67.0902,0.015272
108.120,67.0902,0.015272
108.152,67.0902,0.015272
108.184,67.0902,0.015272
108.214,67.0902,0.015272
108.245,67.0902,0.015272
108.276,67.0902,0.015272
108.308,67.0902,0.015272
108.338,67.0902,0.015272
108.369,67.0902,0.015272
108.401,67.0902,0.015272
108.432,67.0902,0.015272
108.463,67.0902,0.015272
108.495,67.0902,0.015272
108.524,67.0902,0.015272
108.555,67.0902,0.015272
108.587,67.0902,0.015272
108.618,67.0902,0.015263
108.648,67.0902,0.015263
108.679,67.0902,0.015263
108.710,67.0902,0.015263
108.741,67.0902,0.015263
108.772,67.0902,0.015263
108.803,67.0902,0.015263
108.835,67.0902,0.015263
108.866,67.0902,0.015301
108.897,67.0902,0.015301
108.927,67.0902,0.015301
108.958,67.0902,0.015301
108.989,67.0902,0.015301
109.020,67.0902,0.015301
109.050,67.0902,0.015301
109.082,67.0902,0.015301
109.112,67.0902,0.015310
109.144,67.0902,0.015310
109.175,67.0902,0.015310
109.206,67.0902,0.015310
109.237,67.0902,0.015310
109.269,67.0902,0.015310
109.301,67.0902,0.015310
109.331,67.0902,0.015310
109.362,67.0902,0.015310
109.393,67.0902,0.015310
109.423,67.0902,0.015310
109.455,67.0902,0.015310
109.484,67.0902,0.015310
109.515,67.0902,0.015310
109.546,67.0902,0.015310
109.577,67.0902,0.015310
109.609,67.0902,0.015254
109.639,67.0902,0.015254
109.670,67.0902,0.015254
109.702,67.0902,0.015254
109.734,67.0902,0.015254
109.766,67.0902,0.015254
109.796,67.0902,0.015254
109.827,67.0902,0.015244
109.858,67.0902,0.015244
109.890,67.0902,0.015244
109.921,67.0902,0.015244
109.951,67.0902,0.015244
109.983,67.0902,0.015244
110.012,67.0902,0.015244
110.045,67.0902,0.015244
110.075,67.0896,0.015244
110.106,67.0882,0.015254
110.137,67.0861,0.015254
110.168,67.0834,0.015254
110.199,67.0798,0.015254
110.230,67.0756,0.015254
110.261,67.0706,0.015254
110.292,67.0648,0.015254
110.324,67.0585,0.015320
110.355,67.0523,0.015320
110.386,67.0460,0.015320
110.417,67.0399,0.015320
110.448,67.0337,0.015320
110.479,67.0276,0.015320
110.509,67.0215,0.015320
110.540,67.0151,0.015320
110.571,67.0089,0.015320
110.603,67.0025,0.015329
110.634,66.9965,0.015329
110.665,66.9901,0.015329
110.696,66.9839,0.015329
110.728,66.9776,0.015329
110.758,66.9717,0.015329
110.789,66.9653,0.015329
110.820,66.9594,0.015329
110.852,66.9528,0.015244
110.883,66.9466,0.015244
110.915,66.9399,0.015244
110.946,66.9341,0.015244
110.976,66.9280,0.015244
111.007,66.9219,0.015244
111.038,66.9157,0.015244
111.070,66.9093,0.015291
111.100,66.9032,0.015291
111.131,66.8970,0.015291
111.162,66.8909,0.015291
111.192,66.8847,0.015291
111.223,66.8786,0.015291
111.254,66.8724,0.015291
111.285,66.8664,0.015291
111.317,66.8599,0.015291
111.348,66.8535,0.015282
111.379,66.8474,0.015282
111.411,66.8409,0.015282
111.441,66.8350,0.015282
111.472,66.8288,0.015282
111.503,66.8226,0.015282
111.535,66.8164,0.015282
111.566,66.8101,0.015282
111.597,66.8040,0.015225
111.629,66.7974,0.015225
111.659,66.7915,0.015225
111.690,66.7854,0.015225
111.721,66.7789,0.015225
111.751,66.7730,0.015225
111.783,66.7665,0.015225
111.813,66.7605,0.015225
111.844,66.7544,0.015244
111.875,66.7482,0.015244
111.906,66.7421,0.015244
111.937,66.7358,0.015244
111.968,66.7298,0.015244
111.999,66.7235,0.015244
112.030,66.7174,0.015244
112.061,66.7111,0.015244
112.093,66.7046,0.015310
112.124,66.6986,0.015310
112.155,66.6922,0.015310
112.187,66.6860,0.015310
112.217,66.6800,0.015310
112.247,66.6739,0.015310
112.278,66.6677,0.015310
112.309,66.6615,0.015310
112.340,66.6553,0.015310
112.371,66.6491,0.015272
112.403,66.6426,0.015272
112.435,66.6363,0.015272
112.466,66.6301,0.015272
112.495,66.6240,0.015272
112.527,66.6179,0.015272
112.557,66.6119,0.015272
112.590,66.6053,0.015272
112.620,66.5993,0.015263
112.652,66.5929,0.015263
112.682,66.5868,0.015263
112.713,66.5807,0.015263
112.743,66.5747,0.015263
112.775,66.5683,0.015263
112.805,66.5623,0.015263
112.836,66.5559,0.015263
112.867,66.5499,0.015282
112.899,66.5435,0.015282
112.930,66.5373,0.015282
112.961,66.5311,0.015282
112.992,66.5251,0.015282
113.022,66.5190,0.015282
113.053,66.5125,0.015282
113.084,66.5065,0.015254
113.115,66.5004,0.015254
113.145,66.4942,0.015254
113.176,66.4881,0.015254
113.207,66.4819,0.015254
113.239,66.4754,0.015254
113.269,66.4692,0.015254
113.300,66.4633,0.015254
113.331,66.4571,0.015282
113.363,66.4506,0.015282
113.393,66.4447,0.015282
113.424,66.4384,0.015282
113.455,66.4323,0.015282
113.486,66.4261,0.015282
113.517,66.4198,0.015282
113.548,66.4138,0.015282
113.579,66.4075,0.015282
113.611,66.4010,0.015282
113.642,66.3950,0.015282
113.673,66.3886,0.015282
113.704,66.3826,0.015282
113.735,66.3761,0.015282
113.765,66.3703,0.015282
113.796,66.3639,0.015282
113.827,66.3579,0.015282
113.858,66.3515,0.015320
113.888,66.3456,0.015320
113.919,66.3394,0.015320
113.951,66.3331,0.015320
113.982,66.3269,0.015320
114.013,66.3208,0.015320
114.044,66.3143,0.015320
114.075,66.3083,0.015310
114.106,66.3019,0.015310
114.137,66.2959,0.015310
114.168,66.2898,0.015310
114.200,66.2832,0.015310
114.229,66.2775,0.015310
114.259,66.2714,0.015310
114.290,66.2654,0.015310
114.321,66.2590,0.015310
114.351,66.2531,0.015254
114.383,66.2466,0.015254
114.414,66.2405,0.015254
114.444,66.2342,0.015254
114.474,66.2284,0.015254
114.505,66.2223,0.015254
114.536,66.2161,0.015254
114.568,66.2097,0.015254
114.599,66.2035,0.015216
114.631,66.1971,0.015216
114.662,66.1909,0.015216
114.693,66.1847,0.015216
114.724,66.1787,0.015216
114.754,66.1725,0.015216
114.786,66.1661,0.015216
114.817,66.1599,0.015216
114.848,66.1536,0.015216
114.881,66.1472,0.015216
114.910,66.1413,0.015216
114.941,66.1351,0.015216
114.972,66.1290,0.015216
115.002,66.1228,0.015216
115.033,66.1168,0.015216
115.063,66.1106,0.015216
115.094,66.1045,0.015244
115.126,66.0980,0.015244
115.156,66.0921,0.015244
115.188,66.0856,0.015244
115.219,66.0796,0.015244
115.250,66.0731,0.015244
115.281,66.0669,0.015244
115.313,66.0607,0.015244
115.344,66.0544,0.015225
115.375,66.0484,0.015225
115.406,66.0420,0.015225
115.437,66.0360,0.015225
115.468,66.0298,0.015225
115.499,66.0235,0.015225
115.531,66.0172,0.015225
115.562,66.0109,0.015225
115.594,66.0047,0.015225
115.625,65.9983,0.015225
115.656,65.9921,0.015225
115.687,65.9858,0.015225
115.718,65.9797,0.015225
115.749,65.9734,0.015225
115.781,65.9672,0.015225
115.812,65.9610,0.015225
115.841,65.9550,0.015225
115.873,65.9487,0.015225
115.904,65.9425,0.015225
115.935,65.9363,0.015225
115.966,65.9299,0.015225
115.997,65.9239,0.015225
116.027,65.9178,0.015225
116.058,65.9116,0.015225
116.090,65.9053,0.015206
116.120,65.8992,0.015206
116.152,65.8930,0.015206
116.183,65.8868,0.015206
116.214,65.8804,0.015206
116.245,65.8743,0.015206
116.277,65.8680,0.015206
116.307,65.8618,0.015206
116.338,65.8556,0.015206
116.370,65.8494,0.015254
116.400,65.8432,0.015254
116.431,65.8371,0.015254
116.463,65.8306,0.015254
116.493,65.8244,0.015254
116.525,65.8182,0.015254
116.555,65.8123,0.015254
116.586,65.8061,0.015254
116.618,65.7998,0.015254
116.649,65.7934,0.015254
116.680,65.7872,0.015254
116.712,65.7810,0.015254
116.742,65.7748,0.015254
116.774,65.7684,0.015254
116.805,65.7622,0.015254
116.837,65.7560,0.015254
116.868,65.7497,0.015216
116.900,65.7433,0.015216
116.932,65.7370,0.015216
116.964,65.7306,0.015216
116.996,65.7242,0.015216
117.026,65.7182,0.015216
117.057,65.7118,0.015216
117.088,65.7058,0.015235
117.118,65.6997,0.015235
117.149,65.6935,0.015235
117.180,65.6873,0.015235
117.211,65.6811,0.015235
117.241,65.6751,0.015235
117.272,65.6688,0.015235
117.303,65.6627,0.015235
117.334,65.6563,0.015235
117.366,65.6501,0.015235
117.398,65.6435,0.015235
117.430,65.6374,0.015235
117.461,65.6310,0.015235
117.491,65.6251,0.015235
117.522,65.6188,0.015235
117.553,65.6127,0.015235
117.584,65.6064,0.015235
117.615,65.6003,0.015216
117.647,65.5939,0.015216
117.677,65.5879,0.015216
117.707,65.5817,0.015216
117.738,65.5758,0.015216
117.769,65.5693,0.015216
117.800,65.5633,0.015216
117.831,65.5571,0.015216
117.863,65.5507,0.015254
117.894,65.5445,0.015254
117.926,65.5382,0.015254
117.957,65.5319,0.015254
117.988,65.5257,0.015254
118.020,65.5193,0.015254
118.050,65.5133,0.015254
118.081,65.5069,0.015310
118.112,65.5009,0.015310
118.143,65.4945,0.015310
118.174,65.4886,0.015310
118.205,65.4824,0.015310
118.236,65.4762,0.015310
118.266,65.4701,0.015310
118.297,65.4639,0.015310
118.328,65.4576,0.015310
118.359,65.4515,0.015291
118.391,65.4452,0.015291
118.421,65.4391,0.015291
118.453,65.4328,0.015291
118.483,65.4267,0.015291
118.515,65.4204,0.015291
118.546,65.4141,0.015291
118.578,65.4079,0.015291
118.608,65.4017,0.015291
118.639,65.3955,0.015291
118.671,65.3892,0.015291
118.702,65.3829,0.015291
118.734,65.3766,0.015291
118.765,65.3703,0.015291
118.795,65.3643,0.015291
118.825,65.3582,0.015291
118.857,65.3520,0.015338
118.888,65.3458,0.015338
118.919,65.3396,0.015338
118.950,65.3333,0.015338
118.981,65.3271,0.015338
119.012,65.3209,0.015338
119.044,65.3147,0.015338
119.075,65.3084,0.015338
119.107,65.3019,0.015329
119.138,65.2956,0.015329
119.170,65.2894,0.015329
119.201,65.2831,0.015329
119.232,65.2770,0.015329
119.263,65.2708,0.015329
119.293,65.2647,0.015329
119.324,65.2585,0.015282
119.355,65.2523,0.015282
119.387,65.2460,0.015282
119.417,65.2399,0.015282
119.449,65.2336,0.015282
119.479,65.2274,0.015282
119.511,65.2209,0.015282
119.542,65.2149,0.015282
119.573,65.2085,0.015282
119.604,65.2025,0.015235
119.634,65.1963,0.015235
119.666,65.1902,0.015235
119.699,65.1836,0.015235
119.729,65.1775,0.015235
119.761,65.1710,0.015235
119.793,65.1649,0.015235
119.823,65.1587,0.015235
119.853,65.1529,0.015169
119.883,65.1467,0.015169
119.914,65.1406,0.015169
119.946,65.1340,0.015169
119.977,65.1279,0.015169
120.009,65.1216,0.015169
120.039,65.1155,0.015169
120.070,65.1093,0.015206
120.101,65.1031,0.015206
120.133,65.0968,0.015206
120.164,65.0905,0.015206
120.195,65.0843,0.015206
120.225,65.0783,0.015206
120.257,65.0720,0.015206
120.288,65.0658,0.015206
120.318,65.0597,0.015206
120.349,65.0534,0.015291
120.380,65.0472,0.015291
120.411,65.0411,0.015291
120.442,65.0349,0.015291
120.473,65.0287,0.015291
120.503,65.0225,0.015291
120.534,65.0166,0.015291
120.564,65.0105,0.015291
120.596,65.0043,0.015291
120.627,64.9980,0.015310
120.658,64.9916,0.015310
120.690,64.9854,0.015310
120.720,64.9791,0.015310
120.751,64.9732,0.015310
120.782,64.9668,0.015310
120.813,64.9609,0.015310
120.844,64.9544,0.015310
120.875,64.9483,0.015310
120.906,64.9420,0.015263
120.938,64.9358,0.015263
120.969,64.9295,0.015263
121.000,64.9234,0.015263
121.031,64.9170,0.015263
121.062,64.9110,0.015263
121.093,64.9046,0.015263
121.124,64.8986,0.015225
121.156,64.8920,0.015225
121.187,64.8860,0.015225
121.218,64.8796,0.015225
121.250,64.8734,0.015225
121.282,64.8667,0.015225
121.312,64.8610,0.015225
121.344,64.8546,0.015225
121.375,64.8484,0.015235
121.407,64.8419,0.015235
121.438,64.8357,0.015235
121.469,64.8295,0.015235
121.499,64.8233,0.015235
121.531,64.8173,0.015235
121.562,64.8109,0.015235
121.593,64.8047,0.015235
121.623,64.7986,0.015225
121.654,64.7926,0.015225
121.685,64.7864,0.015225
121.716,64.7802,0.015225
121.747,64.7740,0.015225
121.779,64.7675,0.015225
121.809,64.7616,0.015225
121.839,64.7556,0.015225
121.870,64.7494,0.015206
121.901,64.7430,0.015206
121.933,64.7369,0.015206
121.964,64.7304,0.015206
121.995,64.7240,0.015206
122.027,64.7179,0.015206
122.058,64.7117,0.015206
122.088,64.7056,0.015206
122.120,64.6994,0.015254
122.151,64.6932,0.015254
122.181,64.6872,0.015254
122.212,64.6810,0.015254
122.243,64.6746,0.015254
122.274,64.6687,0.015254
122.305,64.6623,0.015254
122.336,64.6563,0.015254
122.367,64.6501,0.015254
122.399,64.6436,0.015254
122.429,64.6374,0.015254
122.460,64.6312,0.015254
122.491,64.6251,0.015254
122.523,64.6188,0.015254
122.553,64.6129,0.015254
122.584,64.6065,0.015254
122.616,64.6002,0.015235
122.646,64.5940,0.015235
122.677,64.5879,0.015235
122.709,64.5815,0.015235
122.740,64.5753,0.015235
122.771,64.5691,0.015235
122.801,64.5631,0.015235
122.832,64.5569,0.015235
122.863,64.5509,0.015272
122.894,64.5445,0.015272
122.925,64.5384,0.015272
122.955,64.5322,0.015272
122.986,64.5259,0.015272
123.017,64.5200,0.015272
123.048,64.5138,0.015272
123.079,64.5074,0.015272
123.110,64.5014,0.015272
123.141,64.4952,0.015263
123.172,64.4890,0.015263
123.203,64.4826,0.015263
123.234,64.4766,0.015263
123.265,64.4704,0.015263
123.296,64.4642,0.015263
123.327,64.4580,0.015263
123.358,64.4518,0.015272
123.388,64.4456,0.015272
123.420,64.4395,0.015272
123.451,64.4332,0.015272
123.482,64.4270,0.015272
123.513,64.4207,0.015272
123.544,64.4145,0.015272
123.575,64.4083,0.015272
123.606,64.4020,0.015291
123.637,64.3959,0.015291
123.669,64.3896,0.015291
123.700,64.3833,0.015291
123.731,64.3770,0.015291
123.761,64.3711,0.015291
123.792,64.3651,0.015291
123.823,64.3587,0.015291
123.854,64.3525,0.015225
123.885,64.3465,0.015225
123.916,64.3401,0.015225
123.948,64.3338,0.015225
123.979,64.3276,0.015225
124.009,64.3214,0.015225
124.040,64.3153,0.015225
124.071,64.3091,0.015225
124.103,64.3028,0.015235
124.134,64.2966,0.015235
124.165,64.2902,0.015235
124.197,64.2840,0.015235
124.227,64.2780,0.015235
124.258,64.2717,0.015235
124.289,64.2657,0.015235
124.319,64.2594,0.015235
124.351,64.2531,0.015291
124.382,64.2470,0.015291
124.412,64.2408,0.015291
124.443,64.2347,0.015291
124.473,64.2288,0.015291
124.504,64.2224,0.015291
124.535,64.2164,0.015291
124.566,64.2100,0.015282
124.597,64.2038,0.015282
124.629,64.1975,0.015282
124.661,64.1911,0.015282
124.692,64.1850,0.015282
124.723,64.1789,0.015282
124.753,64.1727,0.015282
124.785,64.1664,0.015282
124.815,64.1605,0.015282
124.846,64.1540,0.015282
124.877,64.1480,0.015282
124.908,64.1416,0.015282
124.939,64.1355,0.015282
124.970,64.1294,0.015282
125.001,64.1231,0.015282
125.033,64.1166,0.015282
125.064,64.1104,0.015282
125.096,64.1042,0.015244
125.127,64.0980,0.015244
125.158,64.0918,0.015244
125.189,64.0856,0.015244
125.220,64.0793,0.015244
125.250,64.0734,0.015244
125.282,64.0670,0.015244
125.313,64.0612,0.015244
125.343,64.0560,0.015244
125.374,64.0517,0.015254
125.405,64.0479,0.015254
125.435,64.0451,0.015254
125.467,64.0427,0.015254
125.499,64.0411,0.015254
125.529,64.0404,0.015254
125.562,64.0402,0.015254
125.591,64.0402,0.015254
125.623,64.0402,0.015216
125.654,64.0402,0.015216
125.685,64.0404,0.015216
125.716,64.0411,0.015216
125.748,64.0426,0.015216
125.779,64.0448,0.015216
125.810,64.0478,0.015216
125.841,64.0515,0.015216
125.873,64.0560,0.015188
125.904,64.0612,0.015188
125.935,64.0672,0.015188
125.965,64.0732,0.015188
125.996,64.0793,0.015188
126.027,64.0856,0.015188
126.058,64.0917,0.015188
126.089,64.0982,0.015235
126.120,64.1042,0.015235
126.151,64.1103,0.015235
126.183,64.1166,0.015235
126.214,64.1230,0.015235
126.245,64.1292,0.015235
126.276,64.1354,0.015235
126.307,64.1416,0.015235
126.339,64.1479,0.015254
126.370,64.1542,0.015254
126.401,64.1603,0.015254
126.432,64.1665,0.015254
126.462,64.1727,0.015254
126.493,64.1787,0.015254
126.524,64.1851,0.015254
126.556,64.1913,0.015254
126.587,64.1976,0.015263
126.618,64.2038,0.015263
126.651,64.2103,0.015263
126.681,64.2164,0.015263
126.714,64.2229,0.015263
126.744,64.2290,0.015263
126.776,64.2355,0.015263
126.807,64.2415,0.015263
126.838,64.2476,0.015263
126.868,64.2538,0.015235
126.899,64.2599,0.015235
126.929,64.2660,0.015235
126.961,64.2724,0.015235
126.992,64.2787,0.015235
127.023,64.2848,0.015235
127.054,64.2911,0.015235
127.085,64.2972,0.015235
127.116,64.3035,0.015244
127.148,64.3097,0.015244
127.179,64.3160,0.015244
127.210,64.3222,0.015244
127.241,64.3284,0.015244
127.272,64.3347,0.015244
127.303,64.3409,0.015244
127.335,64.3471,0.015244
127.366,64.3534,0.015244
127.396,64.3594,0.015244
127.427,64.3654,0.015244
127.458,64.3718,0.015244
127.489,64.3780,0.015244
127.521,64.3844,0.015244
127.552,64.3905,0.015244
127.584,64.3968,0.015244
127.615,64.4031,0.015225
127.646,64.4095,0.015225
127.677,64.4155,0.015225
127.708,64.4217,0.015225
127.739,64.4278,0.015225
127.771,64.4343,0.015225
127.801,64.4403,0.015225
127.832,64.4465,0.015225
127.863,64.4526,0.015216
127.895,64.4592,0.015216
127.926,64.4652,0.015216
127.957,64.4715,0.015216
127.988,64.4777,0.015216
128.019,64.4840,0.015216
128.050,64.4900,0.015216
128.081,64.4963,0.015216
128.112,64.5025,0.015235
128.143,64.5088,0.015235
128.174,64.5150,0.015235
128.206,64.5215,0.015235
128.237,64.5275,0.015235
128.269,64.5339,0.015235
128.299,64.5399,0.015235
128.330,64.5463,0.015235
128.361,64.5523,0.015254
128.392,64.5585,0.015254
128.423,64.5646,0.015254
128.454,64.5709,0.015254
128.484,64.5769,0.015254
128.516,64.5835,0.015254
128.548,64.5895,0.015254
128.578,64.5957,0.015254
128.610,64.6021,0.015254
128.641,64.6084,0.015254
128.673,64.6147,0.015254
128.703,64.6207,0.015254
128.733,64.6269,0.015254
128.764,64.6331,0.015254
128.796,64.6393,0.015254
128.828,64.6457,0.015254
128.858,64.6518,0.015244
128.889,64.6579,0.015244
128.921,64.6642,0.015244
128.952,64.6705,0.015244
128.983,64.6767,0.015244
129.014,64.6831,0.015244
129.045,64.6890,0.015244
129.076,64.6953,0.015244
129.108,64.7017,0.015254
129.139,64.7080,0.015254
129.170,64.7142,0.015254
129.201,64.7203,0.015254
129.231,64.7263,0.015254
129.262,64.7325,0.015254
129.294,64.7389,0.015254
129.324,64.7451,0.015254
129.356,64.7513,0.015272
129.387,64.7575,0.015272
129.419,64.7638,0.015272
129.450,64.7701,0.015272
129.481,64.7762,0.015272
129.512,64.7825,0.015272
129.544,64.7889,0.015272
129.574,64.7951,0.015244
129.605,64.8011,0.015244
129.637,64.8073,0.015244
129.668,64.8139,0.015244
129.699,64.8199,0.015244
129.730,64.8261,0.015244
129.761,64.8323,0.015244
129.792,64.8385,0.015244
129.822,64.8445,0.015244
129.853,64.8506,0.015188
129.884,64.8569,0.015188
129.915,64.8630,0.015188
129.946,64.8693,0.015188
129.977,64.8755,0.015188
130.009,64.8817,0.015188
130.039,64.8879,0.015188
130.071,64.8941,0.015188
130.102,64.9005,0.015188
130.133,64.9068,0.015188
130.163,64.9129,0.015188
130.194,64.9190,0.015188
130.225,64.9252,0.015188
130.257,64.9316,0.015188
130.288,64.9378,0.015188
130.319,64.9439,0.015188
130.350,64.9501,0.015235
130.382,64.9565,0.015235
130.413,64.9627,0.015235
130.445,64.9691,0.015235
130.475,64.9751,0.015235
130.506,64.9813,0.015235
130.538,64.9878,0.015235
130.568,64.9937,0.015235
130.600,65.0002,0.015206
130.630,65.0061,0.015206
130.661,65.0122,0.015206
130.692,65.0185,0.015206
130.724,65.0249,0.015206
130.755,65.0312,0.015206
130.785,65.0371,0.015206
130.816,65.0433,0.015206
130.847,65.0494,0.015206
130.877,65.0555,0.015206
130.908,65.0616,0.015206
130.940,65.0680,0.015206
130.970,65.0741,0.015206
131.002,65.0806,0.015206
131.033,65.0866,0.015206
131.064,65.0930,0.015206
131.096,65.0992,0.015225
131.127,65.1055,0.015225
131.158,65.1116,0.015225
131.189,65.1179,0.015225
131.220,65.1242,0.015225
131.251,65.1304,0.015225
131.282,65.1365,0.015225
131.314,65.1428,0.015225
131.344,65.1493,0.015263
131.376,65.1553,0.015263
131.407,65.1615,0.015263
131.437,65.1676,0.015263
131.468,65.1738,0.015263
131.499,65.1800,0.015263
131.530,65.1861,0.015263
131.561,65.1924,0.015263
131.592,65.1984,0.015263
131.623,65.2048,0.015263
131.654,65.2108,0.015263
131.685,65.2170,0.015263
131.715,65.2231,0.015263
131.747,65.2294,0.015263
131.778,65.2358,0.015263
131.809,65.2419,0.015263
131.841,65.2482,0.015206
131.872,65.2544,0.015206
131.903,65.2606,0.015206
131.934,65.2670,0.015206
131.965,65.2729,0.015206
131.996,65.2794,0.015206
132.030,65.2859,0.015206
132.059,65.2920,0.015206
132.091,65.2983,0.015235
132.122,65.3044,0.015235
132.152,65.3104,0.015235
132.182,65.3167,0.015235
132.214,65.3229,0.015235
132.246,65.3295,0.015235
132.277,65.3354,0.015235
132.307,65.3415,0.015235
132.338,65.3477,0.015235
132.369,65.3538,0.015225
132.400,65.3602,0.015225
132.431,65.3662,0.015225
132.463,65.3728,0.015225
132.492,65.3785,0.015225
132.523,65.3847,0.015225
132.554,65.3909,0.015225
132.586,65.3972,0.015225
132.616,65.4033,0.015235
132.647,65.4095,0.015235
132.679,65.4160,0.015235
132.709,65.4219,0.015235
132.741,65.4282,0.015235
132.772,65.4344,0.015235
132.803,65.4407,0.015235
132.834,65.4469,0.015263
132.866,65.4534,0.015263
132.896,65.4592,0.015263
132.928,65.4658,0.015263
132.958,65.4718,0.015263
132.992,65.4784,0.015263
133.020,65.4841,0.015263
133.051,65.4905,0.015263
133.081,65.4963,0.015263
133.112,65.5026,0.015235
133.143,65.5087,0.015235
133.174,65.5149,0.015235
133.204,65.5210,0.015235
133.235,65.5272,0.015235
133.266,65.5334,0.015235
133.299,65.5399,0.015235
133.328,65.5456,0.015235
133.359,65.5518,0.015301
133.391,65.5582,0.015301
133.422,65.5644,0.015301
133.453,65.5707,0.015301
133.486,65.5773,0.015301
133.516,65.5832,0.015301
133.550,65.5900,0.015301
133.577,65.5955,0.015301
133.608,65.6018,0.015338
133.639,65.6079,0.015338
133.670,65.6142,0.015338
133.701,65.6204,0.015338
133.733,65.6268,0.015338
133.764,65.6328,0.015338
133.795,65.6392,0.015338
133.826,65.6452,0.015338
133.857,65.6516,0.015291
133.889,65.6579,0.015291
133.920,65.6642,0.015291
133.951,65.6704,0.015291
133.982,65.6765,0.015291
134.013,65.6826,0.015291
134.043,65.6888,0.015291
134.074,65.6951,0.015291
134.106,65.7013,0.015244
134.138,65.7076,0.015244
134.169,65.7139,0.015244
134.199,65.7200,0.015244
134.229,65.7258,0.015244
134.260,65.7320,0.015244
134.291,65.7384,0.015244
134.323,65.7446,0.015244
134.353,65.7507,0.015254
134.384,65.7569,0.015254
134.416,65.7632,0.015254
134.446,65.7694,0.015254
134.478,65.7758,0.015254
134.508,65.7817,0.015254
134.539,65.7877,0.015254
134.570,65.7941,0.015254
134.601,65.8001,0.015254
134.631,65.8062,0.015254
134.662,65.8124,0.015254
134.693,65.8187,0.015254
134.726,65.8252,0.015254
134.755,65.8310,0.015254
134.786,65.8375,0.015254
134.818,65.8437,0.015254
134.850,65.8500,0.015272
134.880,65.8561,0.015272
134.912,65.8625,0.015272
134.942,65.8684,0.015272
134.972,65.8747,0.015272
135.004,65.8809,0.015272
135.036,65.8875,0.015272
135.067,65.8935,0.015272
135.097,65.8994,0.015301
135.128,65.9057,0.015301
135.159,65.9118,0.015301
135.190,65.9181,0.015301
135.224,65.9248,0.015301
135.253,65.9306,0.015301
135.285,65.9372,0.015301
135.316,65.9431,0.015282
135.346,65.9492,0.015282
135.377,65.9554,0.015282
135.408,65.9616,0.015282
135.439,65.9679,0.015282
135.471,65.9743,0.015282
135.500,65.9801,0.015282
135.532,65.9864,0.015282
135.563,65.9927,0.015282
135.594,65.9988,0.015235
135.625,66.0050,0.015235
135.657,66.0115,0.015235
135.688,66.0178,0.015235
135.719,66.0238,0.015235
135.750,66.0301,0.015235
135.782,66.0363,0.015235
135.813,66.0427,0.015235
135.844,66.0488,0.015254
135.875,66.0550,0.015254
135.906,66.0613,0.015254
135.937,66.0674,0.015254
135.968,66.0737,0.015254
135.999,66.0799,0.015254
136.031,66.0863,0.015254
136.062,66.0925,0.015254
136.093,66.0987,0.015282
136.124,66.1050,0.015282
136.154,66.1109,0.015282
136.185,66.1170,0.015282
136.216,66.1236,0.015282
136.248,66.1295,0.015282
136.278,66.1357,0.015282
136.310,66.1419,0.015282
136.341,66.1483,0.015282
136.372,66.1546,0.015272
136.403,66.1606,0.015272
136.433,66.1666,0.015272
136.463,66.1728,0.015272
136.494,66.1788,0.015272
136.524,66.1849,0.015272
136.556,66.1912,0.015272
136.587,66.1975,0.015272
136.618,66.2037,0.015263
136.649,66.2099,0.015263
136.681,66.2162,0.015263
136.712,66.2224,0.015263
136.742,66.2284,0.015263
136.773,66.2348,0.015263
136.805,66.2410,0.015263
136.836,66.2472,0.015263
136.867,66.2534,0.015291
136.898,66.2596,0.015291
136.929,66.2660,0.015291
136.959,66.2719,0.015291
136.991,66.2782,0.015291
137.022,66.2845,0.015291
137.053,66.2908,0.015291
137.084,66.2970,0.015291
137.116,66.3034,0.015310
137.148,66.3096,0.015310
137.178,66.3158,0.015310
137.209,66.3219,0.015310
137.239,66.3280,0.015310
137.270,66.3341,0.015310
137.300,66.3400,0.015310
137.332,66.3463,0.015310
137.363,66.3525,0.015272
137.394,66.3590,0.015272
137.425,66.3651,0.015272
137.456,66.3714,0.015272
137.488,66.3776,0.015272
137.518,66.3837,0.015272
137.550,66.3900,0.015272
137.581,66.3962,0.015272
137.612,66.4024,0.015282
137.643,66.4086,0.015282
137.674,66.4147,0.015282
137.706,66.4211,0.015282
137.738,66.4277,0.015282
137.768,66.4337,0.015282
137.799,66.4400,0.015282
137.830,66.4461,0.015254
137.861,66.4524,0.015254
137.892,66.4585,0.015254
137.923,66.4647,0.015254
137.954,66.4709,0.015254
137.986,66.4772,0.015254
138.017,66.4835,0.015254
138.048,66.4897,0.015254
138.079,66.4959,0.015291
138.110,66.5020,0.015291
138.141,66.5082,0.015291
138.173,66.5146,0.015291
138.203,66.5207,0.015291
138.236,66.5272,0.015291
138.266,66.5332,0.015291
138.298,66.5396,0.015291
138.329,66.5458,0.015291
138.360,66.5520,0.015310
138.392,66.5584,0.015310
138.423,66.5646,0.015310
138.455,66.5709,0.015310
138.486,66.5771,0.015310
138.516,66.5832,0.015310
138.547,66.5894,0.015310
138.578,66.5955,0.015235
138.608,66.6018,0.015235
138.639,66.6079,0.015235
138.670,66.6141,0.015235
138.701,66.6203,0.015235
138.732,66.6264,0.015235
138.763,66.6327,0.015235
138.794,66.6389,0.015235
138.825,66.6451,0.015235
138.858,66.6518,0.015225
138.889,66.6578,0.015225
138.920,66.6640,0.015225
138.952,66.6703,0.015225
138.983,66.6766,0.015225
139.014,66.6828,0.015225
139.046,66.6891,0.015225
139.076,66.6953,0.015225
139.108,66.7017,0.015282
139.139,66.7079,0.015282
139.169,66.7138,0.015282
139.200,66.7200,0.015282
139.231,66.7262,0.015282
139.262,66.7323,0.015282
139.293,66.7387,0.015282
139.325,66.7449,0.015282
139.357,66.7514,0.015254
139.386,66.7574,0.015254
139.418,66.7637,0.015254
139.449,66.7699,0.015254
139.480,66.7761,0.015254
139.511,66.7822,0.015254
139.542,66.7885,0.015254
139.572,66.7944,0.015178
139.604,66.8008,0.015178
139.634,66.8067,0.015178
139.664,66.8128,0.015178
139.696,66.8191,0.015178
139.726,66.8252,0.015178
139.757,66.8314,0.015178
139.787,66.8373,0.015178
139.818,66.8438,0.015178
139.849,66.8499,0.015216
139.880,66.8561,0.015216
139.910,66.8620,0.015216
139.942,66.8685,0.015216
139.973,66.8747,0.015216
140.005,66.8811,0.015216
140.039,66.8878,0.015216
140.068,66.8938,0.015216
140.099,66.8999,0.015272
140.130,66.9059,0.015272
140.161,66.9124,0.015272
140.192,66.9183,0.015272
140.224,66.9249,0.015272
140.255,66.9310,0.015272
140.286,66.9372,0.015272
140.317,66.9434,0.015244
140.347,66.9495,0.015244
140.378,66.9557,0.015244
140.410,66.9620,0.015244
140.440,66.9681,0.015244
140.471,66.9741,0.015244
140.502,66.9805,0.015244
140.532,66.9864,0.015244
140.564,66.9929,0.015244
140.596,66.9991,0.015263
140.627,67.0055,0.015263
140.657,67.0115,0.015263
140.689,67.0177,0.015263
140.720,67.0229,0.015263
140.751,67.0276,0.015263
140.782,67.0317,0.015263
140.813,67.0348,0.015263
140.844,67.0373,0.015376
140.875,67.0390,0.015376
140.907,67.0400,0.015376
140.938,67.0402,0.015376
140.969,67.0402,0.015376
141.000,67.0402,0.015376
141.033,67.0402,0.015376
141.063,67.0402,0.015376
141.093,67.0402,0.015404
141.125,67.0402,0.015404
141.156,67.0402,0.015404
141.188,67.0402,0.015404
141.219,67.0402,0.015404
141.250,67.0402,0.015404
141.282,67.0402,0.015404
141.312,67.0402,0.015404
141.343,67.0402,0.015301
141.374,67.0402,0.015301
141.405,67.0402,0.015301
141.436,67.0402,0.015301
141.467,67.0402,0.015301
141.499,67.0402,0.015301
141.530,67.0402,0.015301
141.561,67.0402,0.015301
141.592,67.0402,0.015263
141.622,67.0402,0.015263
141.653,67.0402,0.015263
141.684,67.0402,0.015263
141.716,67.0402,0.015263
141.747,67.0402,0.015263
141.778,67.0402,0.015263
141.809,67.0402,0.015263
141.840,67.0402,0.015263
141.871,67.0402,0.015263
141.903,67.0402,0.015272
141.934,67.0402,0.015272
141.964,67.0402,0.015272
141.996,67.0402,0.015272
142.026,67.0402,0.015272
142.057,67.0402,0.015272
142.089,67.0402,0.015272
142.119,67.0402,0.015197
142.150,67.0402,0.015197
142.182,67.0402,0.015197
142.213,67.0402,0.015197
142.244,67.0402,0.015197
142.275,67.0402,0.015197
142.307,67.0402,0.015197
142.338,67.0402,0.015197
142.369,67.0402,0.015197
142.400,67.0402,0.015197
142.431,67.0402,0.015197
142.461,67.0402,0.015197
142.493,67.0402,0.015197
142.524,67.0402,0.015197
142.554,67.0402,0.015197
142.586,67.0402,0.015197
142.617,67.0402,0.015188
142.648,67.0402,0.015188
142.678,67.0402,0.015188
142.710,67.0402,0.015188
142.742,67.0402,0.015188
142.773,67.0402,0.015188
142.805,67.0402,0.015188
142.837,67.0402,0.015188
142.868,67.0402,0.015150
142.900,67.0402,0.015150
142.931,67.0402,0.015150
142.962,67.0402,0.015150
142.993,67.0402,0.015150
143.025,67.0402,0.015150
143.056,67.0402,0.015150
143.086,67.0402,0.015150
143.118,67.0402,0.015206
143.149,67.0402,0.015206
143.180,67.0402,0.015206
143.211,67.0402,0.015206
143.243,67.0402,0.015206
143.274,67.0402,0.015206
143.305,67.0402,0.015206
143.336,67.0402,0.015206
143.367,67.0402,0.015263
143.398,67.0402,0.015263
143.429,67.0402,0.015263
143.460,67.0402,0.015263
143.492,67.0402,0.015263
143.522,67.0402,0.015263
143.553,67.0402,0.015263
143.585,67.0402,0.015263
143.618,67.0402,0.015272
143.647,67.0402,0.015272
143.678,67.0402,0.015272
143.709,67.0402,0.015272
143.739,67.0402,0.015272
143.770,67.0402,0.015272
143.801,67.0402,0.015272
143.832,67.0402,0.015272
143.863,67.0402,0.015225
143.894,67.0402,0.015225
143.925,67.0402,0.015225
143.956,67.0402,0.015225
143.986,67.0402,0.015225
144.017,67.0402,0.015225
144.048,67.0402,0.015225
144.079,67.0402,0.015225
144.110,67.0402,0.015225
144.141,67.0402,0.015206
144.173,67.0402,0.015206
144.204,67.0402,0.015206
144.235,67.0402,0.015206
144.267,67.0402,0.015206
144.297,67.0402,0.015206
144.329,67.0402,0.015206
144.360,67.0402,0.015216
144.392,67.0402,0.015216
144.423,67.0402,0.015216
144.454,67.0402,0.015216
144.485,67.0402,0.015216
144.516,67.0402,0.015216
144.547,67.0402,0.015216
144.579,67.0402,0.015216
144.610,67.0402,0.015225
144.640,67.0402,0.015225
144.670,67.0402,0.015225
144.702,67.0402,0.015225
144.733,67.0402,0.015225
144.763,67.0402,0.015225
144.795,67.0402,0.015225
144.827,67.0402,0.015225
144.858,67.0402,0.015263
144.889,67.0402,0.015263
144.919,67.0402,0.015263
144.951,67.0402,0.015263
144.983,67.0402,0.015263
145.015,67.0402,0.015263
145.046,67.0402,0.015263
145.077,67.0402,0.015263
145.109,67.0402,0.015282
145.139,67.0402,0.015282
145.171,67.0402,0.015282
145.201,67.0402,0.015282
145.233,67.0402,0.015282
145.263,67.0402,0.015282
145.295,67.0402,0.015282
145.326,67.0402,0.015282
145.358,67.0402,0.015263
145.389,67.0402,0.015263
145.419,67.0402,0.015263
145.451,67.0402,0.015263
145.482,67.0402,0.015263
145.512,67.0402,0.015263
145.544,67.0402,0.015263
145.576,67.0402,0.015263
145.605,67.0402,0.015244
145.636,67.0402,0.015244
145.668,67.0402,0.015244
145.697,67.0398,0.015244
145.729,67.0386,0.015244
145.759,67.0367,0.015244
145.789,67.0342,0.015244
145.820,67.0308,0.015301
145.852,67.0269,0.015301
145.883,67.0219,0.015301
145.914,67.0163,0.015301
145.946,67.0101,0.015301
145.976,67.0040,0.015301
146.008,66.9977,0.015301
146.038,66.9916,0.015301
146.070,66.9852,0.015301
146.101,66.9791,0.015310
146.132,66.9728,0.015310
146.165,66.9663,0.015310
146.195,66.9603,0.015310
146.225,66.9541,0.015310
146.257,66.9480,0.015310
146.287,66.9418,0.015310
146.318,66.9356,0.015310
146.349,66.9296,0.015254
146.379,66.9233,0.015254
146.410,66.9172,0.015254
146.442,66.9108,0.015254
146.472,66.9049,0.015254
146.503,66.8985,0.015254
146.534,66.8923,0.015254
146.565,66.8862,0.015254
146.596,66.8800,0.015254
146.627,66.8738,0.015254
146.659,66.8675,0.015254
146.691,66.8610,0.015254
146.723,66.8545,0.015254
146.753,66.8488,0.015254
146.783,66.8426,0.015254
146.815,66.8362,0.015254
146.846,66.8299,0.015263
146.876,66.8241,0.015263
146.908,66.8176,0.015263
146.939,66.8114,0.015263
146.969,66.8055,0.015263
147.000,66.7993,0.015263
147.031,66.7931,0.015263
147.062,66.7867,0.015263
147.094,66.7805,0.015263
147.125,66.7743,0.015282
147.155,66.7683,0.015282
147.186,66.7621,0.015282
147.218,66.7556,0.015282
147.249,66.7493,0.015282
147.280,66.7432,0.015282
147.311,66.7371,0.015282
147.342,66.7308,0.015282
147.374,66.7245,0.015272
147.405,66.7183,0.015272
147.436,66.7121,0.015272
147.466,66.7059,0.015272
147.498,66.6997,0.015272
147.529,66.6934,0.015272
147.560,66.6873,0.015272
147.591,66.6810,0.015272
147.622,66.6749,0.015254
147.653,66.6686,0.015254
147.684,66.6625,0.015254
147.715,66.6561,0.015254
147.747,66.6499,0.015254
147.778,66.6437,0.015254
147.809,66.6375,0.015254
147.841,66.6310,0.015254
147.872,66.6249,0.015301
147.902,66.6188,0.015301
147.934,66.6124,0.015301
147.964,66.6064,0.015301
147.996,66.6001,0.015301
148.027,66.5939,0.015301
148.057,66.5877,0.015301
148.089,66.5814,0.015282
148.120,66.5753,0.015282
148.152,66.5687,0.015282
148.183,66.5626,0.015282
148.214,66.5563,0.015282
148.245,66.5502,0.015282
148.276,66.5439,0.015282
148.307,66.5378,0.015282
148.338,66.5315,0.015282
148.370,66.5253,0.015206
148.402,66.5189,0.015206
148.432,66.5128,0.015206
148.463,66.5065,0.015206
148.495,66.5003,0.015206
148.526,66.4940,0.015206
148.557,66.4878,0.015206
148.588,66.4818,0.015206
148.619,66.4756,0.015235
148.650,66.4692,0.015235
148.680,66.4633,0.015235
148.712,66.4567,0.015235
148.742,66.4508,0.015235
148.773,66.4446,0.015235
148.805,66.4384,0.015235
148.836,66.4320,0.015235
148.866,66.4261,0.015320
148.897,66.4198,0.015320
148.928,66.4137,0.015320
148.958,66.4075,0.015320
148.989,66.4015,0.015320
149.020,66.3952,0.015320
149.051,66.3891,0.015320
149.082,66.3828,0.015320
149.113,66.3767,0.015291
149.143,66.3705,0.015291
149.174,66.3644,0.015291
149.205,66.3581,0.015291
149.236,66.3522,0.015291
149.267,66.3457,0.015291
149.298,66.3396,0.015291
149.329,66.3332,0.015291
149.361,66.3271,0.015235
149.392,66.3209,0.015235
149.423,66.3148,0.015235
149.454,66.3084,0.015235
149.485,66.3022,0.015235
149.516,66.2961,0.015235
149.547,66.2899,0.015235
149.578,66.2837,0.015235
149.608,66.2774,0.015225
149.639,66.2714,0.015225
149.670,66.2651,0.015225
149.701,66.2591,0.015225
149.732,66.2529,0.015225
149.763,66.2467,0.015225
149.794,66.2404,0.015225
149.825,66.2342,0.015225
149.857,66.2279,0.015178
149.889,66.2214,0.015178
149.920,66.2154,0.015178
149.951,66.2092,0.015178
149.982,66.2030,0.015178
150.013,66.1966,0.015178
150.044,66.1902,0.015178
150.075,66.1842,0.015197
150.105,66.1782,0.015197
150.137,66.1718,0.015197
150.168,66.1656,0.015197
150.199,66.1593,0.015197
150.230,66.1532,0.015197
150.261,66.1472,0.015197
150.292,66.1408,0.015197
150.323,66.1348,0.015197
150.354,66.1284,0.015235
150.385,66.1221,0.015235
150.417,66.1160,0.015235
150.448,66.1098,0.015235
150.479,66.1035,0.015235
150.511,66.0971,0.015235
150.541,66.0910,0.015235
150.572,66.0849,0.015235
150.604,66.0784,0.015291
150.634,66.0725,0.015291
150.666,66.0660,0.015291
150.698,66.0596,0.015291
150.730,66.0533,0.015291
150.759,66.0476,0.015291
150.790,66.0411,0.015291
150.822,66.0349,0.015291
150.853,66.0286,0.015301
150.884,66.0225,0.015301
150.915,66.0162,0.015301
150.947,66.0099,0.015301
150.979,66.0034,0.015301
151.009,65.9975,0.015301
151.040,65.9911,0.015301
151.071,65.9849,0.015301
151.103,65.9787,0.015301
151.133,65.9727,0.015301
151.164,65.9665,0.015301
151.196,65.9601,0.015301
151.227,65.9538,0.015301
151.259,65.9475,0.015301
151.289,65.9415,0.015301
151.319,65.9353,0.015301
151.351,65.9291,0.015301
151.382,65.9228,0.015301
151.413,65.9166,0.015301
151.444,65.9105,0.015301
151.475,65.9043,0.015301
151.506,65.8980,0.015301
151.537,65.8919,0.015301
151.568,65.8856,0.015301
151.600,65.8794,0.015301
151.631,65.8731,0.015301
151.662,65.8669,0.015301
151.692,65.8608,0.015301
151.724,65.8545,0.015301
151.755,65.8484,0.015301
151.786,65.8422,0.015301
151.817,65.8359,0.015301
151.848,65.8298,0.015291
151.879,65.8236,0.015291
151.909,65.8175,0.015291
151.940,65.8114,0.015291
151.971,65.8052,0.015291
152.001,65.7990,0.015291
152.032,65.7929,0.015291
152.063,65.7867,0.015291
152.094,65.7803,0.015235
152.125,65.7743,0.015235
152.157,65.7679,0.015235
152.185,65.7623,0.015235
152.217,65.7559,0.015235
152.248,65.7497,0.015235
152.279,65.7435,0.015235
152.310,65.7370,0.015235
152.341,65.7311,0.015244
152.372,65.7247,0.015244
152.403,65.7187,0.015244
152.435,65.7122,0.015244
152.466,65.7060,0.015244
152.497,65.6997,0.015244
152.529,65.6935,0.015244
152.560,65.6873,0.015244
152.590,65.6812,0.015244
152.622,65.6748,0.015244
152.653,65.6685,0.015244
152.684,65.6625,0.015244
152.715,65.6563,0.015244
152.746,65.6501,0.015244
152.778,65.6435,0.015244
152.809,65.6374,0.015244
152.841,65.6311,0.015244
152.872,65.6249,0.015263
152.903,65.6187,0.015263
152.934,65.6125,0.015263
152.964,65.6063,0.015263
152.995,65.6001,0.015263
153.027,65.5940,0.015263
153.058,65.5876,0.015263
153.089,65.5815,0.015263
153.120,65.5752,0.015272
153.152,65.5688,0.015272
153.184,65.5624,0.015272
153.215,65.5562,0.015272
153.245,65.5501,0.015272
153.276,65.5440,0.015272
153.307,65.5380,0.015272
153.338,65.5316,0.015178
153.369,65.5254,0.015178
153.401,65.5190,0.015178
153.433,65.5127,0.015178
153.464,65.5065,0.015178
153.496,65.4999,0.015178
153.527,65.4939,0.015178
153.559,65.4876,0.015178
153.590,65.4813,0.015216
153.621,65.4752,0.015216
153.651,65.4689,0.015216
153.682,65.4629,0.015216
153.713,65.4566,0.015216
153.744,65.4505,0.015216
153.775,65.4442,0.015216
153.807,65.4377,0.015216
153.838,65.4317,0.015216
153.868,65.4257,0.015310
153.900,65.4193,0.015310
153.932,65.4129,0.015310
153.962,65.4069,0.015310
153.993,65.4008,0.015310
154.024,65.3945,0.015310
154.055,65.3883,0.015310
154.086,65.3821,0.015282
154.117,65.3757,0.015282
154.147,65.3698,0.015282
154.179,65.3633,0.015282
154.210,65.3574,0.015282
154.241,65.3512,0.015282
154.272,65.3448,0.015282
154.304,65.3385,0.015282
154.335,65.3322,0.015282
154.366,65.3261,0.015216
154.397,65.3198,0.015216
154.428,65.3136,0.015216
154.460,65.3074,0.015216
154.491,65.3012,0.015216
154.521,65.2950,0.015216
154.552,65.2888,0.015216
154.584,65.2826,0.015216
154.616,65.2760,0.015197
154.646,65.2701,0.015197
154.678,65.2637,0.015197
154.707,65.2578,0.015197
154.739,65.2515,0.015197
154.771,65.2451,0.015197
154.802,65.2389,0.015197
154.833,65.2327,0.015206
154.864,65.2265,0.015206
154.895,65.2203,0.015206
154.926,65.2139,0.015206
154.957,65.2079,0.015206
154.987,65.2018,0.015206
155.018,65.1956,0.015206
155.049,65.1897,0.015206
155.079,65.1835,0.015206
155.109,65.1774,0.015206
155.140,65.1712,0.015206
155.172,65.1650,0.015206
155.202,65.1589,0.015206
155.233,65.1527,0.015206
155.264,65.1464,0.015206
155.295,65.1402,0.015206
155.326,65.1341,0.015244
155.358,65.1277,0.015244
155.389,65.1214,0.015244
155.420,65.1153,0.015244
155.451,65.1092,0.015244
155.481,65.1029,0.015244
155.513,65.0968,0.015244
155.544,65.0905,0.015244
155.574,65.0844,0.015244
155.606,65.0781,0.015244
155.637,65.0719,0.015272
155.669,65.0654,0.015272
155.699,65.0595,0.015272
155.730,65.0531,0.015272
155.762,65.0468,0.015272
155.794,65.0405,0.015272
155.824,65.0344,0.015272
155.856,65.0282,0.015254
155.887,65.0219,0.015254
155.917,65.0159,0.015254
155.948,65.0096,0.015254
155.979,65.0035,0.015254
156.010,64.9972,0.015254
156.041,64.9911,0.015254
156.072,64.9848,0.015254
156.102,64.9789,0.015254
156.134,64.9725,0.015235
156.164,64.9666,0.015235
156.195,64.9601,0.015235
156.226,64.9541,0.015235
156.258,64.9476,0.015235
156.289,64.9415,0.015235
156.319,64.9353,0.015235
156.351,64.9292,0.015254
156.382,64.9228,0.015254
156.413,64.9166,0.015254
156.444,64.9104,0.015254
156.475,64.9043,0.015254
156.506,64.8980,0.015254
156.538,64.8915,0.015254
156.570,64.8853,0.015254
156.602,64.8790,0.015263
156.632,64.8729,0.015263
156.663,64.8666,0.015263
156.695,64.8604,0.015263
156.724,64.8545,0.015263
156.756,64.8480,0.015263
156.787,64.8418,0.015263
156.819,64.8355,0.015263
156.851,64.8293,0.015254
156.882,64.8228,0.015254
156.913,64.8166,0.015254
156.944,64.8103,0.015254
156.975,64.8042,0.015254
157.007,64.7979,0.015254
157.038,64.7917,0.015254
157.069,64.7854,0.015254
157.100,64.7793,0.015244
157.131,64.7732,0.015244
157.162,64.7669,0.015244
157.193,64.7607,0.015244
157.224,64.7540,0.015244
157.256,64.7482,0.015244
157.287,64.7420,0.015244
157.318,64.7358,0.015244
157.348,64.7297,0.015225
157.380,64.7234,0.015225
157.411,64.7172,0.015225
157.442,64.7110,0.015225
157.473,64.7048,0.015225
157.505,64.6984,0.015225
157.537,64.6920,0.015225
157.569,64.6854,0.015225
157.599,64.6795,0.015272
157.630,64.6733,0.015272
157.660,64.6673,0.015272
157.690,64.6612,0.015272
157.722,64.6549,0.015272
157.753,64.6486,0.015272
157.784,64.6424,0.015272
157.817,64.6361,0.015272
157.846,64.6299,0.015282
157.878,64.6237,0.015282
157.909,64.6175,0.015282
157.940,64.6114,0.015282
157.971,64.6049,0.015282
158.003,64.5987,0.015282
158.034,64.5924,0.015282
158.066,64.5862,0.015282
158.097,64.5797,0.015206
158.128,64.5737,0.015206
158.159,64.5675,0.015206
158.190,64.5613,0.015206
158.221,64.5552,0.015206
158.252,64.5489,0.015206
158.283,64.5428,0.015206
158.313,64.5366,0.015206
158.344,64.5305,0.015206
158.375,64.5243,0.015216
158.405,64.5184,0.015216
158.436,64.5122,0.015216
158.467,64.5061,0.015216
158.499,64.4996,0.015216
158.530,64.4934,0.015216
158.562,64.4870,0.015216
158.593,64.4808,0.015225
158.624,64.4745,0.015225
158.656,64.4683,0.015225
158.688,64.4617,0.015225
158.719,64.4556,0.015225
158.750,64.4493,0.015225
158.781,64.4430,0.015225
158.812,64.4369,0.015225
158.843,64.4307,0.015235
158.874,64.4243,0.015235
158.905,64.4184,0.015235
158.936,64.4122,0.015235
158.966,64.4060,0.015235
158.998,64.3997,0.015235
159.029,64.3935,0.015235
159.060,64.3871,0.015235
159.092,64.3811,0.015301
159.123,64.3747,0.015301
159.154,64.3685,0.015301
159.186,64.3620,0.015301
159.217,64.3560,0.015301
159.247,64.3497,0.015301
159.279,64.3436,0.015301
159.309,64.3375,0.015301
159.341,64.3312,0.015254
159.372,64.3249,0.015254
159.404,64.3184,0.015254
159.435,64.3124,0.015254
159.466,64.3063,0.015254
159.499,64.2996,0.015254
159.529,64.2936,0.015254
159.560,64.2873,0.015254
159.589,64.2815,0.015254
159.621,64.2751,0.015225
159.652,64.2688,0.015225
159.684,64.2625,0.015225
159.715,64.2564,0.015225
159.746,64.2502,0.015225
159.776,64.2440,0.015225
159.808,64.2377,0.015225
159.839,64.2316,0.015225
159.871,64.2253,0.015263
159.902,64.2190,0.015263
159.934,64.2126,0.015263
159.965,64.2063,0.015263
159.997,64.2000,0.015263
160.027,64.1938,0.015263
160.058,64.1878,0.015263
160.090,64.1815,0.015263
160.120,64.1753,0.015244
160.152,64.1690,0.015244
160.183,64.1625,0.015244
160.215,64.1563,0.015244
160.246,64.1503,0.015244
160.277,64.1439,0.015244
160.308,64.1379,0.015244
160.340,64.1315,0.015244
160.369,64.1255,0.015206
160.400,64.1192,0.015206
160.431,64.1132,0.015206
160.462,64.1070,0.015206
160.493,64.1008,0.015206
160.522,64.0947,0.015206
160.553,64.0887,0.015206
160.585,64.0823,0.015244
160.616,64.0762,0.015244
160.647,64.0698,0.015244
160.679,64.0634,0.015244
160.710,64.0572,0.015244
160.741,64.0510,0.015244
160.772,64.0450,0.015244
160.803,64.0388,0.015244
160.834,64.0326,0.015244
160.865,64.0262,0.015282
160.896,64.0200,0.015282
160.929,64.0136,0.015282
160.960,64.0082,0.015282
160.990,64.0037,0.015282
161.021,63.9996,0.015282
161.052,63.9962,0.015282
161.082,63.9937,0.015282
161.114,63.9919,0.015188
161.145,63.9906,0.015188
161.177,63.9903,0.015188
161.209,63.9903,0.015188
161.240,63.9903,0.015188
161.271,63.9903,0.015188
161.302,63.9903,0.015188
161.333,63.9903,0.015150
161.365,63.9904,0.015150
161.396,63.9910,0.015150
161.426,63.9925,0.015150
161.458,63.9947,0.015150
161.489,63.9976,0.015150
161.521,64.0013,0.015150
161.552,64.0056,0.015150
161.583,64.0110,0.015150
161.614,64.0166,0.015122
161.645,64.0229,0.015122
161.676,64.0291,0.015122
161.708,64.0354,0.015122
161.738,64.0415,0.015122
161.769,64.0476,0.015122
161.799,64.0536,0.015122
161.830,64.0598,0.015122
161.862,64.0664,0.015112
161.892,64.0724,0.015112
161.924,64.0787,0.015112
161.956,64.0850,0.015112
161.986,64.0911,0.015112
162.018,64.0974,0.015112
162.049,64.1036,0.015112
162.081,64.1099,0.015225
162.111,64.1163,0.015225
162.142,64.1223,0.015225
162.175,64.1288,0.015225
162.205,64.1349,0.015225
162.236,64.1410,0.015225
162.267,64.1473,0.015225
162.298,64.1535,0.015225
162.329,64.1597,0.015225
162.359,64.1658,0.015282
162.391,64.1721,0.015282
162.423,64.1784,0.015282
162.453,64.1845,0.015282
162.484,64.1906,0.015282
162.514,64.1968,0.015282
162.545,64.2028,0.015282
162.576,64.2090,0.015291
162.608,64.2154,0.015291
162.639,64.2217,0.015291
162.670,64.2280,0.015291
162.702,64.2342,0.015291
162.734,64.2407,0.015291
162.764,64.2467,0.015291
162.795,64.2531,0.015291
162.826,64.2590,0.015291
162.858,64.2655,0.015254
162.888,64.2714,0.015254
162.919,64.2778,0.015254
162.950,64.2838,0.015254
162.981,64.2903,0.015254
163.013,64.2964,0.015254
163.043,64.3027,0.015254
163.075,64.3089,0.015263
163.108,64.3155,0.015263
163.138,64.3215,0.015263
163.170,64.3280,0.015263
163.201,64.3339,0.015263
163.232,64.3403,0.015263
163.263,64.3465,0.015263
163.294,64.3527,0.015263
163.325,64.3589,0.015263
163.356,64.3651,0.015301
163.386,64.3711,0.015301
163.417,64.3773,0.015301
163.448,64.3835,0.015301
163.480,64.3899,0.015301
163.511,64.3962,0.015301
163.543,64.4025,0.015301
163.575,64.4090,0.015301
163.605,64.4149,0.015301
163.636,64.4212,0.015291
163.668,64.4276,0.015291
163.699,64.4338,0.015291
163.731,64.4400,0.015291
163.762,64.4464,0.015291
163.793,64.4525,0.015291
163.824,64.4586,0.015291
163.855,64.4649,0.015263
163.887,64.4712,0.015263
163.918,64.4776,0.015263
163.949,64.4836,0.015263
163.980,64.4898,0.015263
164.010,64.4959,0.015263
164.042,64.5024,0.015263
164.072,64.5083,0.015263
164.104,64.5146,0.015263
164.134,64.5207,0.015291
164.165,64.5269,0.015291
164.196,64.5331,0.015291
164.228,64.5396,0.015291
164.260,64.5459,0.015291
164.292,64.5523,0.015291
164.323,64.5584,0.015291
164.355,64.5650,0.015291
164.386,64.5709,0.015263
164.417,64.5774,0.015263
164.447,64.5835,0.015263
164.478,64.5895,0.015263
164.510,64.5957,0.015263
164.541,64.6021,0.015263
164.572,64.6083,0.015263
164.603,64.6146,0.015225
164.634,64.6206,0.015225
164.665,64.6270,0.015225
164.696,64.6331,0.015225
164.728,64.6395,0.015225
164.758,64.6455,0.015225
164.790,64.6519,0.015225
164.822,64.6581,0.015225
164.853,64.6645,0.015225
164.883,64.6705,0.015254
164.915,64.6770,0.015254
164.945,64.6828,0.015254
164.976,64.6890,0.015254
165.007,64.6952,0.015254
165.038,64.7015,0.015254
165.069,64.7079,0.015254
165.101,64.7139,0.015282
165.131,64.7200,0.015282
165.162,64.7263,0.015282
165.194,64.7325,0.015282
165.225,64.7387,0.015282
165.255,64.7448,0.015282
165.286,64.7511,0.015282
165.317,64.7573,0.015282
165.348,64.7636,0.015282
165.380,64.7698,0.015225
165.411,64.7760,0.015225
165.443,64.7827,0.015225
165.474,64.7886,0.015225
165.504,64.7947,0.015225
165.535,64.8010,0.015225
165.566,64.8071,0.015225
165.598,64.8133,0.015206
165.628,64.8195,0.015206
165.660,64.8259,0.015206
165.692,64.8323,0.015206
165.723,64.8385,0.015206
165.754,64.8445,0.015206
165.785,64.8509,0.015206
165.816,64.8569,0.015206
165.846,64.8630,0.015206
165.877,64.8692,0.015197
165.908,64.8755,0.015197
165.939,64.8816,0.015197
165.969,64.8877,0.015197
166.001,64.8941,0.015197
166.033,64.9005,0.015197
166.064,64.9067,0.015197
166.095,64.9129,0.015197
166.127,64.9193,0.015141
166.157,64.9254,0.015141
166.189,64.9316,0.015141
166.220,64.9381,0.015141
166.252,64.9444,0.015141
166.283,64.9505,0.015141
166.314,64.9568,0.015141
166.345,64.9629,0.015244
166.376,64.9691,0.015244
166.407,64.9753,0.015244
166.437,64.9812,0.015244
166.469,64.9877,0.015244
166.500,64.9937,0.015244
166.531,65.0001,0.015244
166.563,65.0064,0.015244
166.593,65.0126,0.015244
166.625,65.0189,0.015338
166.657,65.0252,0.015338
166.687,65.0312,0.015338
166.718,65.0374,0.015338
166.750,65.0440,0.015338
166.780,65.0499,0.015338
166.811,65.0561,0.015338
166.842,65.0623,0.015338
166.873,65.0684,0.015291
166.904,65.0747,0.015291
166.935,65.0807,0.015291
166.965,65.0869,0.015291
166.997,65.0932,0.015291
167.028,65.0993,0.015291
167.059,65.1057,0.015291
167.090,65.1118,0.015291
167.122,65.1184,0.015263
167.153,65.1245,0.015263
167.185,65.1308,0.015263
167.216,65.1371,0.015263
167.246,65.1432,0.015263
167.277,65.1493,0.015263
167.308,65.1557,0.015263
167.340,65.1618,0.015263
167.372,65.1684,0.015263
167.403,65.1743,0.015263
167.434,65.1806,0.015263
167.464,65.1867,0.015263
167.494,65.1927,0.015263
167.525,65.1989,0.015263
167.557,65.2052,0.015263
167.588,65.2115,0.015263
167.619,65.2177,0.015263
167.650,65.2240,0.015263
167.682,65.2303,0.015263
167.713,65.2367,0.015263
167.744,65.2427,0.015263
167.775,65.2490,0.015263
167.806,65.2552,0.015263
167.838,65.2615,0.015263
167.869,65.2677,0.015263
167.900,65.2739,0.015263
167.931,65.2801,0.015263
167.963,65.2863,0.015263
167.994,65.2928,0.015263
168.026,65.2990,0.015263
168.057,65.3053,0.015263
168.089,65.3116,0.015216
168.120,65.3178,0.015216
168.152,65.3241,0.015216
168.183,65.3305,0.015216
168.213,65.3365,0.015216
168.245,65.3427,0.015216
168.275,65.3489,0.015216
168.308,65.3554,0.015216
168.337,65.3615,0.015216
168.368,65.3674,0.015225
168.399,65.3737,0.015225
168.430,65.3798,0.015225
168.461,65.3863,0.015225
168.492,65.3922,0.015225
168.523,65.3984,0.015225
168.554,65.4046,0.015225
168.585,65.4108,0.015254
168.616,65.4172,0.015254
168.647,65.4232,0.015254
168.678,65.4293,0.015254
168.709,65.4356,0.015254
168.740,65.4418,0.015254
168.772,65.4480,0.015254
168.802,65.4542,0.015254
168.833,65.4603,0.015263
168.865,65.4668,0.015263
168.897,65.4732,0.015263
168.927,65.4793,0.015263
168.958,65.4855,0.015263
168.989,65.4917,0.015263
169.019,65.4976,0.015263
169.050,65.5038,0.015263
169.081,65.5099,0.015272
169.112,65.5164,0.015272
169.143,65.5226,0.015272
169.175,65.5288,0.015272
169.206,65.5350,0.015272
169.237,65.5412,0.015272
169.267,65.5473,0.015272
169.299,65.5537,0.015272
169.331,65.5599,0.015263
169.362,65.5662,0.015263
169.393,65.5724,0.015263
169.425,65.5788,0.015263
169.456,65.5850,0.015263
169.487,65.5912,0.015263
169.517,65.5972,0.015263
169.549,65.6037,0.015263
169.580,65.6098,0.015254
169.612,65.6162,0.015254
169.643,65.6224,0.015254
169.675,65.6289,0.015254
169.706,65.6349,0.015254
169.738,65.6414,0.015254
169.768,65.6475,0.015254
169.800,65.6539,0.015254
169.831,65.6600,0.015244
169.862,65.6662,0.015244
169.893,65.6725,0.015244
169.923,65.6785,0.015244
169.954,65.6849,0.015244
169.989,65.6916,0.015244
170.016,65.6972,0.015244
170.049,65.7035,0.015244
170.079,65.7097,0.015235
170.110,65.7161,0.015235
170.142,65.7223,0.015235
170.173,65.7286,0.015235
170.204,65.7347,0.015235
170.234,65.7409,0.015235
170.266,65.7469,0.015235
170.296,65.7533,0.015235
170.328,65.7595,0.015235
170.361,65.7660,0.015225
170.391,65.7720,0.015225
170.422,65.7784,0.015225
170.454,65.7845,0.015225
170.485,65.7907,0.015225
170.515,65.7967,0.015225
170.546,65.8030,0.015225
170.577,65.8094,0.015225
170.608,65.8154,0.015216
170.638,65.8216,0.015216
170.671,65.8280,0.015216
170.701,65.8340,0.015216
170.732,65.8401,0.015216
170.762,65.8463,0.015216
170.794,65.8525,0.015216
170.825,65.8587,0.015216
170.856,65.8649,0.015225
170.887,65.8712,0.015225
170.918,65.8774,0.015225
170.950,65.8839,0.015225
170.981,65.8902,0.015225
171.013,65.8965,0.015225
171.044,65.9026,0.015225
171.075,65.9088,0.015225
171.105,65.9149,0.015225
171.137,65.9212,0.015225
171.168,65.9274,0.015225
171.198,65.9336,0.015225
171.230,65.9397,0.015225
171.260,65.9460,0.015225
171.291,65.9519,0.015225
171.322,65.9581,0.015225
171.353,65.9643,0.015263
171.384,65.9707,0.015263
171.416,65.9770,0.015263
171.446,65.9829,0.015263
171.478,65.9893,0.015263
171.509,65.9957,0.015263
171.540,66.0018,0.015263
171.572,66.0082,0.015263
171.603,66.0146,0.015272
171.634,66.0208,0.015272
171.665,66.0267,0.015272
171.695,66.0328,0.015272
171.725,66.0389,0.015272
171.758,66.0455,0.015272
171.789,66.0515,0.015272
171.820,66.0579,0.015272
171.851,66.0639,0.015235
171.882,66.0703,0.015235
171.912,66.0762,0.015235
171.943,66.0825,0.015235
171.975,66.0889,0.015235
172.006,66.0951,0.015235
172.039,66.1015,0.015235
172.068,66.1075,0.015235
172.099,66.1135,0.015291
172.130,66.1197,0.015291
172.161,66.1259,0.015291
172.191,66.1321,0.015291
172.223,66.1385,0.015291
172.254,66.1447,0.015291
172.285,66.1506,0.015291
172.316,66.1570,0.015291
172.347,66.1630,0.015310
172.378,66.1694,0.015310
172.409,66.1754,0.015310
172.440,66.1818,0.015310
172.473,66.1883,0.015310
172.502,66.1943,0.015310
172.536,66.2009,0.015310
172.565,66.2068,0.015310
172.597,66.2134,0.015244
172.627,66.2192,0.015244
172.659,66.2255,0.015244
172.690,66.2319,0.015244
172.720,66.2378,0.015244
172.752,66.2443,0.015244
172.783,66.2503,0.015244
172.815,66.2568,0.015244
172.845,66.2629,0.015254
172.876,66.2692,0.015254
172.907,66.2753,0.015254
172.937,66.2812,0.015254
172.968,66.2876,0.015254
172.999,66.2936,0.015254
173.030,66.3000,0.015254
173.061,66.3060,0.015254
173.092,66.3122,0.015244
173.123,66.3186,0.015244
173.154,66.3249,0.015244
173.186,66.3308,0.015244
173.216,66.3370,0.015244
173.248,66.3434,0.015244
173.279,66.3498,0.015244
173.310,66.3560,0.015244
173.341,66.3620,0.015188
173.373,66.3684,0.015188
173.404,66.3745,0.015188
173.435,66.3807,0.015188
173.467,66.3871,0.015188
173.497,66.3932,0.015188
173.529,66.3995,0.015188
173.561,66.4059,0.015188
173.592,66.4123,0.015188
173.624,66.4185,0.015150
173.655,66.4248,0.015150
173.686,66.4310,0.015150
173.716,66.4372,0.015150
173.748,66.4433,0.015150
173.779,66.4494,0.015150
173.811,66.4559,0.015150
173.841,66.4619,0.015150
173.872,66.4684,0.015150
173.903,66.4745,0.015197
173.934,66.4807,0.015197
173.964,66.4866,0.015197
173.995,66.4928,0.015197
174.025,66.4989,0.015197
174.057,66.5053,0.015197
174.089,66.5117,0.015197
174.121,66.5180,0.015254
174.152,66.5242,0.015254
174.183,66.5306,0.015254
174.214,66.5366,0.015254
174.246,66.5429,0.015254
174.278,66.5492,0.015254
174.309,66.5556,0.015254
174.340,66.5618,0.015254
174.371,66.5680,0.015254
174.402,66.5740,0.015254
174.433,66.5807,0.015254
174.464,66.5867,0.015254
174.495,66.5929,0.015254
174.526,66.5990,0.015254
174.557,66.6054,0.015254
174.589,66.6117,0.015254
174.621,66.6182,0.015254
174.652,66.6243,0.015254
174.684,66.6307,0.015254
174.714,66.6366,0.015254
174.745,66.6429,0.015254
174.776,66.6490,0.015254
174.806,66.6550,0.015254
174.837,66.6614,0.015254
174.868,66.6674,0.015206
174.899,66.6735,0.015206
174.930,66.6798,0.015206
174.962,66.6862,0.015206
174.993,66.6925,0.015206
175.024,66.6986,0.015206
175.054,66.7046,0.015206
175.085,66.7107,0.015206
175.116,66.7169,0.015225
175.148,66.7234,0.015225
175.179,66.7296,0.015225
175.210,66.7358,0.015225
175.241,66.7418,0.015225
175.273,66.7483,0.015225
175.304,66.7546,0.015225
175.334,66.7607,0.015225
175.365,66.7668,0.015301
175.396,66.7730,0.015301
175.427,66.7791,0.015301
175.457,66.7854,0.015301
175.489,66.7915,0.015301
175.520,66.7979,0.015301
175.550,66.8039,0.015301
175.581,66.8102,0.015301
175.612,66.8161,0.015301
175.644,66.8226,0.015272
175.674,66.8285,0.015272
175.705,66.8350,0.015272
175.737,66.8411,0.015272
175.768,66.8475,0.015272
175.799,66.8536,0.015272
175.830,66.8598,0.015272
175.861,66.8659,0.015197
175.891,66.8719,0.015197
175.922,66.8784,0.015197
175.954,66.8846,0.015197
175.985,66.8907,0.015197
176.015,66.8969,0.015197
176.046,66.9031,0.015197
176.076,66.9090,0.015197
176.107,66.9151,0.015197
176.138,66.9214,0.015188
176.169,66.9276,0.015188
176.200,66.9337,0.015188
176.231,66.9400,0.015188
176.261,66.9460,0.015188
176.293,66.9523,0.015188
176.324,66.9586,0.015188
176.356,66.9648,0.015244
176.386,66.9707,0.015244
176.418,66.9756,0.015244
176.449,66.9800,0.015244
176.480,66.9833,0.015244
176.512,66.9863,0.015244
176.543,66.9884,0.015244
176.574,66.9896,0.015244
176.605,66.9903,0.015310
176.636,66.9903,0.015310
176.666,66.9903,0.015310
176.696,66.9903,0.015310
176.727,66.9903,0.015310
176.758,66.9903,0.015310
176.788,66.9903,0.015310
176.818,66.9903,0.015310
176.849,66.9903,0.015282
176.880,66.9903,0.015282
176.912,66.9903,0.015282
176.944,66.9903,0.015282
176.975,66.9903,0.015282
177.006,66.9903,0.015282
177.038,66.9903,0.015282
177.070,66.9903,0.015263
177.100,66.9903,0.015263
177.130,66.9903,0.015263
177.162,66.9903,0.015263
177.193,66.9903,0.015263
177.223,66.9903,0.015263
177.254,66.9903,0.015263
177.286,66.9903,0.015263
177.316,66.9903,0.015263
177.348,66.9903,0.015291
177.379,66.9903,0.015291
177.410,66.9903,0.015291
177.442,66.9903,0.015291
177.473,66.9903,0.015291
177.503,66.9903,0.015291
177.533,66.9903,0.015291
177.564,66.9903,0.015291
177.594,66.9903,0.015291
177.625,66.9903,0.015272
177.656,66.9903,0.015272
177.688,66.9903,0.015272
177.720,66.9903,0.015272
177.750,66.9903,0.015272
177.782,66.9903,0.015272
177.814,66.9903,0.015272
177.845,66.9903,0.015272
177.876,66.9903,0.015244
177.907,66.9903,0.015244
177.938,66.9903,0.015244
177.969,66.9903,0.015244
178.001,66.9903,0.015244
178.032,66.9903,0.015244
178.064,66.9903,0.015244
178.095,66.9903,0.015244
178.127,66.9903,0.015216
178.159,66.9903,0.015216
178.189,66.9903,0.015216
178.221,66.9903,0.015216
178.252,66.9903,0.015216
178.283,66.9903,0.015216
178.314,66.9903,0.015216
178.345,66.9903,0.015216
178.375,66.9903,0.015272
178.406,66.9903,0.015272
178.438,66.9903,0.015272
178.468,66.9903,0.015272
178.499,66.9903,0.015272
178.530,66.9903,0.015272
178.561,66.9903,0.015272
178.593,66.9903,0.015272
178.625,66.9903,0.015310
178.656,66.9903,0.015310
178.688,66.9903,0.015310
178.718,66.9903,0.015310
178.749,66.9903,0.015310
178.780,66.9903,0.015310
178.811,66.9903,0.015310
178.841,66.9903,0.015282
178.872,66.9903,0.015282
178.903,66.9903,0.015282
178.934,66.9903,0.015282
178.965,66.9903,0.015282
178.995,66.9903,0.015282
179.026,66.9903,0.015282
179.057,66.9903,0.015282
179.089,66.9903,0.015282
179.120,66.9903,0.015235
179.151,66.9903,0.015235
179.182,66.9903,0.015235
179.214,66.9903,0.015235
179.245,66.9903,0.015235
179.277,66.9903,0.015235
179.309,66.9903,0.015235
179.340,66.9903,0.015235
179.371,66.9903,0.015216
179.402,66.9903,0.015216
179.433,66.9903,0.015216
179.464,66.9903,0.015216
179.495,66.9903,0.015216
179.526,66.9903,0.015216
179.557,66.9903,0.015216
179.588,66.9903,0.015216
179.619,66.9903,0.015254
179.651,66.9903,0.015254
179.681,66.9903,0.015254
179.712,66.9903,0.015254
179.743,66.9903,0.015254
179.775,66.9903,0.015254
179.807,66.9903,0.015254
179.839,66.9903,0.015254
179.871,66.9903,0.015301
179.900,66.9903,0.015301
179.931,66.9903,0.015301
179.962,66.9903,0.015301
179.993,66.9903,0.015301
180.024,66.9903,0.015301
180.055,66.9903,0.015301
180.087,66.9903,0.015320
180.117,66.9903,0.015320
180.147,66.9903,0.015320
180.178,66.9903,0.015320
180.208,66.9903,0.015320
180.240,66.9903,0.015320
180.271,66.9903,0.015320
180.303,66.9903,0.015320
180.334,66.9903,0.015301
180.366,66.9903,0.015301
180.397,66.9903,0.015301
180.429,66.9903,0.015301
180.461,66.9903,0.015301
180.492,66.9903,0.015301
180.524,66.9903,0.015301
180.555,66.9903,0.015301
180.586,66.9903,0.015301
180.617,66.9903,0.015235
180.648,66.9903,0.015235
180.680,66.9903,0.015235
180.711,66.9903,0.015235
180.742,66.9903,0.015235
180.773,66.9903,0.015235
180.803,66.9903,0.015235
180.835,66.9903,0.015206
180.866,66.9903,0.015206
180.898,66.9903,0.015206
180.930,66.9903,0.015206
180.960,66.9903,0.015206
180.991,66.9903,0.015206
181.023,66.9903,0.015206
181.055,66.9903,0.015206
181.086,66.9903,0.015254
181.116,66.9903,0.015254
181.147,66.9903,0.015254
181.178,66.9901,0.015254
181.208,66.9894,0.015254
181.238,66.9879,0.015254
181.269,66.9857,0.015254
181.300,66.9827,0.015254
181.331,66.9792,0.015310
181.362,66.9746,0.015310
181.394,66.9694,0.015310
181.424,66.9637,0.015310
181.455,66.9575,0.015310
181.486,66.9514,0.015310
181.517,66.9451,0.015310
181.548,66.9390,0.015310
181.579,66.9330,0.015310
181.609,66.9268,0.015310
181.640,66.9203,0.015310
181.671,66.9144,0.015310
181.703,66.9079,0.015310
181.733,66.9020,0.015310
181.764,66.8958,0.015310
181.796,66.8893,0.015310
181.829,66.8829,0.015310
181.859,66.8767,0.015310
181.890,66.8706,0.015254
181.921,66.8643,0.015254
181.953,66.8579,0.015254
181.984,66.8517,0.015254
182.014,66.8458,0.015254
182.045,66.8396,0.015254
182.078,66.8329,0.015254
182.109,66.8269,0.015188
182.140,66.8205,0.015188
182.170,66.8145,0.015188
182.201,66.8082,0.015188
182.231,66.8022,0.015188
182.264,66.7958,0.015188
182.294,66.7897,0.015188
182.325,66.7835,0.015188
182.356,66.7774,0.015197
182.386,66.7712,0.015197
182.418,66.7650,0.015197
182.449,66.7587,0.015197
182.480,66.7526,0.015197
182.511,66.7463,0.015197
182.541,66.7404,0.015197
182.572,66.7342,0.015197
182.604,66.7277,0.015225
182.635,66.7215,0.015225
182.667,66.7153,0.015225
182.698,66.7090,0.015225
182.729,66.7029,0.015225
182.760,66.6966,0.015225
182.792,66.6901,0.015225
182.822,66.6842,0.015225
182.852,66.6782,0.015225
182.883,66.6720,0.015225
182.914,66.6658,0.015225
182.945,66.6596,0.015225
182.977,66.6533,0.015225
183.007,66.6471,0.015225
183.037,66.6411,0.015225
183.068,66.6349,0.015282
183.100,66.6287,0.015282
183.131,66.6224,0.015282
183.162,66.6161,0.015282
183.193,66.6100,0.015282
183.223,66.6038,0.015282
183.254,66.5979,0.015282
183.285,66.5915,0.015282
183.316,66.5855,0.015282
183.347,66.5790,0.015282
183.379,66.5728,0.015291
183.409,66.5667,0.015291
183.441,66.5605,0.015291
183.472,66.5540,0.015291
183.503,66.5480,0.015291
183.534,66.5419,0.015291
183.564,66.5358,0.015291
183.596,66.5294,0.015225
183.626,66.5233,0.015225
183.657,66.5172,0.015225
183.688,66.5112,0.015225
183.719,66.5048,0.015225
183.750,66.4986,0.015225
183.780,66.4924,0.015225
183.812,66.4861,0.015225
183.842,66.4802,0.015225
183.873,66.4741,0.015235
183.903,66.4680,0.015235
183.935,66.4616,0.015235
183.965,66.4555,0.015235
183.997,66.4492,0.015235
184.028,66.4430,0.015235
184.059,66.4368,0.015235
184.090,66.4305,0.015301
184.121,66.4242,0.015301
184.153,66.4181,0.015301
184.184,66.4117,0.015301
184.216,66.4055,0.015301
184.246,66.3994,0.015301
184.277,66.3931,0.015301
184.308,66.3870,0.015301
184.339,66.3808,0.015291
184.371,66.3745,0.015291
184.401,66.3684,0.015291
184.432,66.3622,0.015291
184.464,66.3559,0.015291
184.494,66.3497,0.015291
184.525,66.3436,0.015291
184.557,66.3373,0.015291
184.587,66.3312,0.015188
184.618,66.3251,0.015188
184.649,66.3187,0.015188
184.681,66.3124,0.015188
184.712,66.3063,0.015188
184.743,66.3001,0.015188
184.774,66.2939,0.015188
184.805,66.2874,0.015188
184.837,66.2813,0.015178
184.868,66.2749,0.015178
184.899,66.2688,0.015178
184.931,66.2624,0.015178
184.962,66.2563,0.015178
184.993,66.2498,0.015178
185.023,66.2440,0.015178
185.054,66.2377,0.015178
185.086,66.2315,0.015235
185.117,66.2250,0.015235
185.148,66.2191,0.015235
185.180,66.2125,0.015235
185.212,66.2063,0.015235
185.243,66.2000,0.015235
185.273,66.1940,0.015235
185.304,66.1880,0.015235
185.335,66.1815,0.015272
185.366,66.1754,0.015272
185.397,66.1692,0.015272
185.428,66.1629,0.015272
185.459,66.1566,0.015272
185.490,66.1506,0.015272
185.521,66.1443,0.015272
185.552,66.1382,0.015272
185.583,66.1320,0.015263
185.614,66.1258,0.015263
185.645,66.1196,0.015263
185.676,66.1134,0.015263
185.708,66.1070,0.015263
185.739,66.1006,0.015263
185.771,66.0944,0.015263
185.803,66.0880,0.015263
185.834,66.0818,0.015254
185.865,66.0755,0.015254
185.896,66.0694,0.015254
185.927,66.0632,0.015254
185.959,66.0567,0.015254
185.988,66.0510,0.015254
186.020,66.0447,0.015254
186.051,66.0384,0.015254
186.081,66.0324,0.015254
186.111,66.0265,0.015225
186.142,66.0200,0.015225
186.174,66.0140,0.015225
186.205,66.0075,0.015225
186.237,66.0013,0.015225
186.268,65.9949,0.015225
186.300,65.9887,0.015225
186.332,65.9822,0.015225
186.363,65.9760,0.015159
186.395,65.9696,0.015159
186.427,65.9634,0.015159
186.459,65.9568,0.015159
186.488,65.9511,0.015159
186.519,65.9447,0.015159
186.550,65.9385,0.015159
186.580,65.9326,0.015159
186.613,65.9261,0.015159
186.642,65.9202,0.015159
186.673,65.9139,0.015159
186.705,65.9077,0.015159
186.736,65.9013,0.015159
186.767,65.8951,0.015159
186.798,65.8889,0.015159
186.829,65.8827,0.015159
186.860,65.8764,0.015197
186.892,65.8703,0.015197
186.923,65.8640,0.015197
186.954,65.8578,0.015197
186.986,65.8514,0.015197
187.016,65.8454,0.015197
187.048,65.8391,0.015197
187.079,65.8329,0.015197
187.109,65.8266,0.015197
187.140,65.8205,0.015225
187.172,65.8144,0.015225
187.202,65.8080,0.015225
187.233,65.8020,0.015225
187.265,65.7955,0.015225
187.295,65.7896,0.015225
187.327,65.7833,0.015225
187.358,65.7771,0.015235
187.388,65.7709,0.015235
187.419,65.7648,0.015235
187.450,65.7586,0.015235
187.483,65.7520,0.015235
187.513,65.7459,0.015235
187.544,65.7399,0.015235
187.576,65.7335,0.015216
187.607,65.7272,0.015216
187.638,65.7209,0.015216
187.669,65.7148,0.015216
187.700,65.7086,0.015216
187.730,65.7027,0.015216
187.761,65.6963,0.015216
187.792,65.6901,0.015216
187.824,65.6837,0.015178
187.855,65.6776,0.015178
187.887,65.6713,0.015178
187.917,65.6652,0.015178
187.949,65.6590,0.015178
187.980,65.6526,0.015178
188.011,65.6465,0.015178
188.042,65.6403,0.015178
188.073,65.6341,0.015178
188.105,65.6276,0.015206
188.136,65.6215,0.015206
188.167,65.6153,0.015206
188.203,65.6082,0.015206
188.229,65.6028,0.015206
188.260,65.5966,0.015206
188.292,65.5903,0.015206
188.323,65.5840,0.015206
188.354,65.5779,0.015206
188.385,65.5716,0.015291
188.416,65.5655,0.015291
188.447,65.5592,0.015291
188.478,65.5531,0.015291
188.508,65.5469,0.015291
188.540,65.5407,0.015291
188.572,65.5342,0.015291
188.602,65.5283,0.015291
188.633,65.5220,0.015301
188.663,65.5161,0.015301
188.694,65.5099,0.015301
188.725,65.5035,0.015301
188.756,65.4974,0.015301
188.789,65.4907,0.015301
188.818,65.4851,0.015301
188.848,65.4788,0.015263
188.879,65.4728,0.015263
188.910,65.4665,0.015263
188.942,65.4602,0.015263
188.974,65.4537,0.015263
189.006,65.4473,0.015263
189.036,65.4412,0.015263
189.068,65.4350,0.015263
189.100,65.4284,0.015235
189.132,65.4222,0.015235
189.163,65.4160,0.015235
189.194,65.4098,0.015235
189.226,65.4035,0.015235
189.257,65.3972,0.015235
189.287,65.3912,0.015235
189.318,65.3850,0.015235
189.349,65.3790,0.015225
189.380,65.3725,0.015225
189.411,65.3662,0.015225
189.442,65.3602,0.015225
189.473,65.3539,0.015225
189.505,65.3477,0.015225
189.536,65.3413,0.015225
189.567,65.3353,0.015225
189.598,65.3290,0.015206
189.629,65.3228,0.015206
189.660,65.3166,0.015206
189.691,65.3104,0.015206
189.723,65.3039,0.015206
189.754,65.2978,0.015206
189.786,65.2915,0.015206
189.816,65.2854,0.015206
189.848,65.2791,0.015206
189.878,65.2729,0.015188
189.909,65.2667,0.015188
189.940,65.2605,0.015188
189.971,65.2544,0.015188
190.003,65.2480,0.015188
190.033,65.2420,0.015188
190.065,65.2356,0.015188
190.096,65.2295,0.015225
190.128,65.2229,0.015225
190.159,65.2169,0.015225
190.190,65.2107,0.015225
190.221,65.2045,0.015225
190.252,65.1983,0.015225
190.284,65.1918,0.015225
190.314,65.1859,0.015225
190.345,65.1796,0.015216
190.377,65.1733,0.015216
190.408,65.1671,0.015216
190.440,65.1607,0.015216
190.470,65.1547,0.015216
190.501,65.1484,0.015216
190.531,65.1424,0.015216
190.562,65.1362,0.015216
190.593,65.1299,0.015188
190.625,65.1236,0.015188
190.657,65.1174,0.015188
190.688,65.1108,0.015188
190.719,65.1049,0.015188
190.751,65.0984,0.015188
190.782,65.0922,0.015188
190.814,65.0858,0.015188
190.845,65.0797,0.015216
190.876,65.0735,0.015216
190.907,65.0673,0.015216
190.938,65.0610,0.015216
190.970,65.0545,0.015216
191.002,65.0483,0.015216
191.033,65.0421,0.015216
191.063,65.0360,0.015216
191.094,65.0300,0.015254
191.125,65.0238,0.015254
191.156,65.0174,0.015254
191.187,65.0113,0.015254
191.217,65.0053,0.015254
191.249,64.9987,0.015254
191.280,64.9927,0.015254
191.311,64.9864,0.015254
191.342,64.9803,0.015272
191.373,64.9740,0.015272
191.404,64.9678,0.015272
191.435,64.9617,0.015272
191.467,64.9552,0.015272
191.498,64.9490,0.015272
191.530,64.9426,0.015272
191.562,64.9362,0.015272
191.591,64.9304,0.015272
191.623,64.9240,0.015272
191.653,64.9178,0.015272
191.684,64.9119,0.015272
191.716,64.9053,0.015272
191.747,64.8992,0.015272
191.779,64.8927,0.015272
191.810,64.8866,0.015272
191.842,64.8801,0.015291
191.873,64.8739,0.015291
191.905,64.8679,0.015291
191.935,64.8617,0.015291
191.966,64.8555,0.015291
191.997,64.8491,0.015291
192.028,64.8430,0.015291
192.059,64.8368,0.015291
192.090,64.8304,0.015244
192.121,64.8244,0.015244
192.152,64.8184,0.015244
192.183,64.8120,0.015244
192.215,64.8057,0.015244
192.245,64.7996,0.015244
192.277,64.7933,0.015244
192.308,64.7871,0.015244
192.340,64.7808,0.015225
192.371,64.7746,0.015225
192.402,64.7683,0.015225
192.434,64.7619,0.015225
192.465,64.7556,0.015225
192.496,64.7494,0.015225
192.528,64.7431,0.015225
192.559,64.7370,0.015225
192.590,64.7307,0.015225
192.621,64.7242,0.015225
192.652,64.7183,0.015272
192.683,64.7121,0.015272
192.714,64.7059,0.015272
192.745,64.6996,0.015272
192.777,64.6932,0.015272
192.808,64.6869,0.015272
192.839,64.6808,0.015272
192.871,64.6744,0.015225
192.901,64.6684,0.015225
192.932,64.6623,0.015225
192.962,64.6561,0.015225
192.993,64.6501,0.015225
193.024,64.6437,0.015225
193.055,64.6377,0.015225
193.085,64.6316,0.015225
193.117,64.6254,0.015225
193.148,64.6192,0.015225
193.178,64.6127,0.015225
193.209,64.6067,0.015225
193.239,64.6008,0.015225
193.270,64.5946,0.015225
193.301,64.5884,0.015225
193.333,64.5821,0.015225
193.363,64.5760,0.015244
193.395,64.5697,0.015244
193.426,64.5635,0.015244
193.457,64.5572,0.015244
193.489,64.5509,0.015244
193.519,64.5448,0.015244
193.551,64.5386,0.015244
193.582,64.5322,0.015244
193.613,64.5262,0.015244
193.645,64.5196,0.015244
193.676,64.5134,0.015244
193.708,64.5071,0.015244
193.739,64.5007,0.015244
193.769,64.4949,0.015244
193.800,64.4888,0.015244
193.831,64.4825,0.015244
193.862,64.4763,0.015216
193.893,64.4700,0.015216
193.925,64.4638,0.015216
193.956,64.4575,0.015216
193.987,64.4513,0.015216
194.018,64.4451,0.015216
194.049,64.4389,0.015216
194.080,64.4327,0.015235
194.111,64.4266,0.015235
194.141,64.4204,0.015235
194.173,64.4142,0.015235
194.204,64.4079,0.015235
194.235,64.4018,0.015235
194.266,64.3954,0.015235
194.297,64.3892,0.015235
194.327,64.3832,0.015235
194.358,64.3770,0.015225
194.389,64.3709,0.015225
194.421,64.3646,0.015225
194.452,64.3581,0.015225
194.483,64.3520,0.015225
194.514,64.3457,0.015225
194.546,64.3396,0.015225
194.577,64.3333,0.015216
194.610,64.3267,0.015216
194.641,64.3204,0.015216
194.671,64.3145,0.015216
194.702,64.3083,0.015216
194.733,64.3022,0.015216
194.764,64.2960,0.015216
194.795,64.2897,0.015216
194.827,64.2832,0.015216
194.858,64.2771,0.015272
194.888,64.2709,0.015272
194.920,64.2647,0.015272
194.953,64.2582,0.015272
194.982,64.2522,0.015272
195.013,64.2460,0.015272
195.044,64.2399,0.015272
195.076,64.2335,0.015272
195.107,64.2273,0.015301
195.139,64.2209,0.015301
195.168,64.2150,0.015301
195.199,64.2089,0.015301
195.230,64.2027,0.015301
195.261,64.1965,0.015301
195.292,64.1901,0.015301
195.324,64.1839,0.015301
195.355,64.1774,0.015338
195.388,64.1711,0.015338
195.417,64.1651,0.015338
195.448,64.1589,0.015338
195.479,64.1530,0.015338
195.510,64.1465,0.015338
195.541,64.1405,0.015338
195.573,64.1340,0.015338
195.604,64.1278,0.015338
195.636,64.1216,0.015263
195.665,64.1158,0.015263
195.697,64.1093,0.015263
195.727,64.1031,0.015263
195.758,64.0969,0.015263
195.789,64.0907,0.015263
195.821,64.0846,0.015263
195.852,64.0783,0.015263
195.883,64.0721,0.015188
195.914,64.0658,0.015188
195.945,64.0598,0.015188
195.976,64.0534,0.015188
196.007,64.0473,0.015188
196.038,64.0411,0.015188
196.071,64.0344,0.015188
196.101,64.0285,0.015188
196.133,64.0220,0.015216
196.164,64.0158,0.015216
196.195,64.0097,0.015216
196.226,64.0035,0.015216
196.257,63.9973,0.015216
196.289,63.9909,0.015216
196.319,63.9849,0.015216
196.351,63.9785,0.015216
196.383,63.9722,0.015197
196.414,63.9658,0.015197
196.445,63.9601,0.015197
196.477,63.9550,0.015197
196.507,63.9509,0.015197
196.538,63.9472,0.015197
196.568,63.9445,0.015197
196.600,63.9424,0.015122
196.632,63.9410,0.015122
196.662,63.9403,0.015122
196.694,63.9403,0.015122
196.724,63.9403,0.015122
196.755,63.9403,0.015122
196.786,63.9403,0.015122
196.818,63.9403,0.015122
196.848,63.9409,0.015122
196.881,63.9424,0.015150
196.910,63.9444,0.015150
196.942,63.9472,0.015150
196.973,63.9508,0.015150
197.004,63.9552,0.015150
197.036,63.9604,0.015150
197.066,63.9658,0.015150
197.097,63.9720,0.015150
197.129,63.9785,0.015103
197.158,63.9843,0.015103
197.189,63.9905,0.015103
197.220,63.9967,0.015103
197.251,64.0028,0.015103
197.282,64.0091,0.015103
197.313,64.0153,0.015103
197.345,64.0216,0.015103
197.376,64.0278,0.015141
197.407,64.0340,0.015141
197.437,64.0401,0.015141
197.469,64.0464,0.015141
197.500,64.0525,0.015141
197.531,64.0588,0.015141
197.564,64.0653,0.015141
197.592,64.0711,0.015141
197.625,64.0775,0.015244
197.656,64.0838,0.015244
197.687,64.0900,0.015244
197.718,64.0962,0.015244
197.749,64.1024,0.015244
197.780,64.1087,0.015244
197.810,64.1147,0.015244
197.841,64.1210,0.015244
197.873,64.1272,0.015244
197.904,64.1335,0.015244
197.936,64.1397,0.015244
197.967,64.1462,0.015244
198.000,64.1529,0.015244
198.030,64.1587,0.015244
198.061,64.1648,0.015244
198.093,64.1713,0.015244
198.124,64.1774,0.015263
198.155,64.1836,0.015263
198.186,64.1898,0.015263
198.217,64.1961,0.015263
198.248,64.2022,0.015263
198.280,64.2087,0.015263
198.312,64.2149,0.015263
198.343,64.2214,0.015263
198.375,64.2276,0.015235
198.406,64.2341,0.015235
198.438,64.2402,0.015235
198.468,64.2462,0.015235
198.499,64.2525,0.015235
198.530,64.2587,0.015235
198.560,64.2647,0.015235
198.591,64.2709,0.015225
198.622,64.2770,0.015225
198.653,64.2831,0.015225
198.683,64.2892,0.015225
198.714,64.2955,0.015225
198.745,64.3017,0.015225
198.777,64.3079,0.015225
198.808,64.3142,0.015225
198.838,64.3203,0.015263
198.869,64.3265,0.015263
198.900,64.3327,0.015263
198.930,64.3386,0.015263
198.962,64.3450,0.015263
198.993,64.3512,0.015263
199.024,64.3574,0.015263
199.055,64.3638,0.015263
199.086,64.3698,0.015244
199.117,64.3760,0.015244
199.148,64.3822,0.015244
199.179,64.3885,0.015244
199.210,64.3947,0.015244
199.240,64.4008,0.015244
199.272,64.4070,0.015244
199.303,64.4133,0.015244
199.335,64.4196,0.015206
199.367,64.4260,0.015206
199.398,64.4322,0.015206
199.429,64.4385,0.015206
199.461,64.4447,0.015206
199.492,64.4511,0.015206
199.523,64.4571,0.015206
199.554,64.4635,0.015206
199.585,64.4697,0.015216
199.615,64.4757,0.015216
199.647,64.4819,0.015216
199.677,64.4881,0.015216
199.708,64.4943,0.015216
199.739,64.5006,0.015216
199.770,64.5066,0.015216
199.802,64.5129,0.015216
199.832,64.5190,0.015235
199.864,64.5254,0.015235
199.894,64.5314,0.015235
199.924,64.5375,0.015235
199.955,64.5437,0.015235
199.987,64.5501,0.015235
200.018,64.5561,0.015235
200.049,64.5626,0.015235
200.081,64.5687,0.015282
200.112,64.5750,0.015282
200.143,64.5811,0.015282
200.175,64.5876,0.015282
200.206,64.5939,0.015282
200.237,64.6001,0.015282
200.268,64.6062,0.015282
200.299,64.6124,0.015282
200.330,64.6186,0.015282
200.361,64.6249,0.015254
200.391,64.6308,0.015254
200.422,64.6372,0.015254
200.454,64.6434,0.015254
200.484,64.6494,0.015254
200.514,64.6553,0.015254
200.545,64.6617,0.015254
200.577,64.6679,0.015216
200.608,64.6741,0.015216
200.639,64.6803,0.015216
200.669,64.6864,0.015216
200.701,64.6930,0.015216
200.732,64.6991,0.015216
200.763,64.7053,0.015216
200.794,64.7116,0.015216
200.825,64.7177,0.015216
200.856,64.7240,0.015216
200.888,64.7302,0.015206
200.918,64.7363,0.015206
200.949,64.7425,0.015206
200.980,64.7487,0.015206
201.011,64.7549,0.015206
201.043,64.7613,0.015206
201.074,64.7674,0.015206
201.104,64.7737,0.015263
201.136,64.7799,0.015263
201.168,64.7864,0.015263
201.199,64.7924,0.015263
201.231,64.7988,0.015263
201.260,64.8047,0.015263
201.292,64.8109,0.015263
201.323,64.8174,0.015263
201.354,64.8235,0.015272
201.385,64.8295,0.015272
201.416,64.8357,0.015272
201.447,64.8422,0.015272
201.478,64.8483,0.015272
201.509,64.8545,0.015272
201.540,64.8607,0.015272
201.571,64.8670,0.015272
201.602,64.8729,0.015197
201.633,64.8791,0.015197
201.664,64.8855,0.015197
201.695,64.8917,0.015197
201.726,64.8980,0.015197
201.758,64.9042,0.015197
201.789,64.9103,0.015197
201.820,64.9167,0.015197
201.852,64.9229,0.015254
201.883,64.9292,0.015254
201.914,64.9353,0.015254
201.944,64.9415,0.015254
201.975,64.9478,0.015254
202.006,64.9538,0.015254
202.037,64.9599,0.015254
202.068,64.9662,0.015254
202.098,64.9723,0.015263
202.130,64.9786,0.015263
202.162,64.9849,0.015263
202.193,64.9913,0.015263
202.225,64.9976,0.015263
202.257,65.0039,0.015263
202.288,65.0101,0.015263
202.320,65.0167,0.015263
202.352,65.0230,0.015272
202.382,65.0291,0.015272
202.415,65.0355,0.015272
202.444,65.0414,0.015272
202.476,65.0478,0.015272
202.506,65.0538,0.015272
202.536,65.0598,0.015272
202.567,65.0660,0.015272
202.599,65.0726,0.015263
202.629,65.0786,0.015263
202.660,65.0846,0.015263
202.692,65.0911,0.015263
202.722,65.0972,0.015263
202.754,65.1035,0.015263
202.785,65.1096,0.015263
202.816,65.1159,0.015263
202.847,65.1220,0.015225
202.879,65.1284,0.015225
202.912,65.1350,0.015225
202.941,65.1411,0.015225
202.973,65.1472,0.015225
203.004,65.1534,0.015225
203.035,65.1596,0.015225
203.067,65.1660,0.015225
203.097,65.1722,0.015254
203.128,65.1783,0.015254
203.159,65.1845,0.015254
203.190,65.1907,0.015254
203.221,65.1968,0.015254
203.252,65.2031,0.015254
203.284,65.2093,0.015254
203.315,65.2155,0.015254
203.347,65.2219,0.015216
203.377,65.2280,0.015216
203.407,65.2340,0.015216
203.438,65.2403,0.015216
203.469,65.2464,0.015216
203.500,65.2527,0.015216
203.532,65.2590,0.015216
203.563,65.2655,0.015216
203.595,65.2714,0.015197
203.626,65.2778,0.015197
203.657,65.2840,0.015197
203.688,65.2902,0.015197
203.720,65.2966,0.015197
203.750,65.3024,0.015197
203.780,65.3088,0.015197
203.812,65.3148,0.015197
203.843,65.3212,0.015216
203.873,65.3272,0.015216
203.904,65.3336,0.015216
203.936,65.3398,0.015216
203.967,65.3461,0.015216
203.998,65.3520,0.015216
204.028,65.3584,0.015216
204.059,65.3643,0.015216
204.090,65.3706,0.015216
204.121,65.3767,0.015197
204.151,65.3828,0.015197
204.182,65.3894,0.015197
204.213,65.3951,0.015197
204.245,65.4018,0.015197
204.274,65.4075,0.015197
204.306,65.4139,0.015197
204.337,65.4201,0.015197
204.368,65.4263,0.015244
204.398,65.4323,0.015244
204.430,65.4387,0.015244
204.461,65.4448,0.015244
204.492,65.4510,0.015244
204.523,65.4571,0.015244
204.553,65.4632,0.015244
204.585,65.4695,0.015244
204.616,65.4757,0.015282
204.647,65.4821,0.015282
204.678,65.4881,0.015282
204.708,65.4942,0.015282
204.739,65.5002,0.015282
204.769,65.5066,0.015282
204.801,65.5129,0.015282
204.831,65.5189,0.015282
204.863,65.5252,0.015254
204.894,65.5315,0.015254
204.925,65.5376,0.015254
204.957,65.5439,0.015254
204.987,65.5500,0.015254
205.019,65.5563,0.015254
205.050,65.5626,0.015254
205.080,65.5687,0.015254
205.111,65.5748,0.015216
205.142,65.5811,0.015216
205.173,65.5872,0.015216
205.204,65.5936,0.015216
205.236,65.5997,0.015216
205.267,65.6060,0.015216
205.298,65.6121,0.015216
205.329,65.6186,0.015216
205.360,65.6248,0.015216
205.391,65.6308,0.015225
205.422,65.6369,0.015225
205.453,65.6432,0.015225
205.483,65.6492,0.015225
205.514,65.6555,0.015225
205.545,65.6616,0.015225
205.577,65.6681,0.015225
205.609,65.6744,0.015254
205.639,65.6805,0.015254
205.670,65.6865,0.015254
205.701,65.6927,0.015254
205.732,65.6991,0.015254
205.762,65.7050,0.015254
205.794,65.7115,0.015254
205.824,65.7174,0.015254
205.855,65.7235,0.015263
205.887,65.7299,0.015263
205.918,65.7361,0.015263
205.949,65.7423,0.015263
205.980,65.7487,0.015263
206.012,65.7550,0.015263
206.044,65.7613,0.015263
206.075,65.7676,0.015263
206.106,65.7737,0.015272
206.137,65.7800,0.015272
206.168,65.7861,0.015272
206.199,65.7924,0.015272
206.230,65.7984,0.015272
206.260,65.8047,0.015272
206.291,65.8108,0.015272
206.322,65.8171,0.015272
206.353,65.8233,0.015263
206.384,65.8293,0.015263
206.416,65.8357,0.015263
206.447,65.8421,0.015263
206.478,65.8483,0.015263
206.509,65.8543,0.015263
206.540,65.8607,0.015263
206.571,65.8666,0.015263
206.603,65.8731,0.015225
206.633,65.8791,0.015225
206.664,65.8856,0.015225
206.696,65.8918,0.015225
206.728,65.8982,0.015225
206.758,65.9041,0.015225
206.788,65.9101,0.015225
206.820,65.9165,0.015225
206.851,65.9228,0.015225
206.883,65.9292,0.015225
206.913,65.9351,0.015225
206.943,65.9412,0.015225
206.974,65.9476,0.015225
207.007,65.9541,0.015225
207.037,65.9600,0.015225
207.069,65.9663,0.015225
207.100,65.9727,0.015225
207.131,65.9787,0.015254
207.161,65.9848,0.015254
207.193,65.9911,0.015254
207.225,65.9975,0.015254
207.255,66.0037,0.015254
207.286,66.0097,0.015254
207.318,66.0161,0.015254
207.349,66.0225,0.015225
207.380,66.0285,0.015225
207.411,66.0347,0.015225
207.442,66.0410,0.015225
207.473,66.0473,0.015225
207.505,66.0536,0.015225
207.536,66.0597,0.015225
207.567,66.0659,0.015225
207.598,66.0722,0.015225
207.629,66.0784,0.015225
207.660,66.0846,0.015225
207.691,66.0907,0.015225
207.722,66.0969,0.015225
207.753,66.1030,0.015225
207.784,66.1093,0.015225
207.815,66.1155,0.015225
207.845,66.1215,0.015225
207.877,66.1281,0.015263
207.907,66.1340,0.015263
207.938,66.1401,0.015263
207.970,66.1464,0.015263
208.000,66.1526,0.015263
208.032,66.1589,0.015263
208.062,66.1650,0.015263
208.093,66.1713,0.015263
208.125,66.1775,0.015225
208.155,66.1835,0.015225
208.186,66.1899,0.015225
208.217,66.1960,0.015225
208.248,66.2023,0.015225
208.280,66.2084,0.015225
208.312,66.2150,0.015225
208.343,66.2212,0.015197
208.375,66.2275,0.015197
208.406,66.2337,0.015197
208.437,66.2400,0.015197
208.467,66.2459,0.015197
208.498,66.2522,0.015197
208.529,66.2584,0.015197
208.560,66.2645,0.015197
208.591,66.2711,0.015197
208.621,66.2769,0.015254
208.654,66.2835,0.015254
208.684,66.2893,0.015254
208.715,66.2956,0.015254
208.745,66.3016,0.015254
208.776,66.3079,0.015254
208.807,66.3140,0.015254
208.839,66.3205,0.015244
208.871,66.3266,0.015244
208.901,66.3329,0.015244
208.933,66.3390,0.015244
208.963,66.3452,0.015244
208.994,66.3513,0.015244
209.025,66.3575,0.015244
209.056,66.3638,0.015244
209.087,66.3699,0.015225
209.118,66.3762,0.015225
209.149,66.3827,0.015225
209.180,66.3886,0.015225
209.211,66.3948,0.015225
209.242,66.4009,0.015225
209.273,66.4071,0.015225
209.304,66.4133,0.015225
209.334,66.4194,0.015206
209.366,66.4257,0.015206
209.397,66.4320,0.015206
209.429,66.4385,0.015206
209.460,66.4446,0.015206
209.492,66.4509,0.015206
209.522,66.4568,0.015206
209.552,66.4630,0.015206
209.584,66.4695,0.015235
209.616,66.4757,0.015235
209.647,66.4819,0.015235
209.678,66.4882,0.015235
209.709,66.4947,0.015235
209.741,66.5006,0.015235
209.771,66.5068,0.015235
209.802,66.5131,0.015235
209.833,66.5192,0.015225
209.865,66.5256,0.015225
209.896,66.5318,0.015225
209.927,66.5381,0.015225
209.958,66.5442,0.015225
209.989,66.5506,0.015225
210.021,66.5567,0.015225
210.052,66.5629,0.015225
210.082,66.5690,0.015178
210.114,66.5754,0.015178
210.144,66.5814,0.015178
210.175,66.5877,0.015178
210.206,66.5939,0.015178
210.238,66.6001,0.015178
210.270,66.6064,0.015178
210.303,66.6132,0.015178
210.332,66.6189,0.015178
210.363,66.6253,0.015216
210.394,66.6313,0.015216
210.424,66.6375,0.015216
210.456,66.6437,0.015216
210.487,66.6501,0.015216
210.519,66.6564,0.015216
210.550,66.6626,0.015216
210.581,66.6688,0.015216
210.612,66.6751,0.015235
210.644,66.6813,0.015235
210.676,66.6878,0.015235
210.706,66.6937,0.015235
210.737,66.6999,0.015235
210.767,66.7059,0.015235
210.798,66.7122,0.015235
210.830,66.7184,0.015188
210.860,66.7246,0.015188
210.892,66.7309,0.015188
210.922,66.7370,0.015188
210.953,66.7432,0.015188
210.984,66.7493,0.015188
211.015,66.7556,0.015188
211.047,66.7618,0.015188
211.078,66.7681,0.015188
211.109,66.7743,0.015188
211.140,66.7805,0.015188
211.172,66.7869,0.015188
211.204,66.7933,0.015188
211.234,66.7994,0.015188
211.265,66.8055,0.015188
211.296,66.8117,0.015188
211.327,66.8179,0.015188
211.357,66.8241,0.015188
211.389,66.8303,0.015188
211.420,66.8365,0.015188
211.451,66.8428,0.015188
211.482,66.8490,0.015188
211.514,66.8553,0.015188
211.544,66.8614,0.015188
211.575,66.8677,0.015188
211.606,66.8737,0.015225
211.637,66.8801,0.015225
211.668,66.8861,0.015225
211.700,66.8925,0.015225
211.731,66.8989,0.015225
211.762,66.9052,0.015225
211.793,66.9111,0.015225
211.825,66.9175,0.015225
211.857,66.9229,0.015272
211.889,66.9279,0.015272
211.921,66.9319,0.015272
211.952,66.9350,0.015272
211.983,66.9373,0.015272
212.014,66.9390,0.015272
212.044,66.9400,0.015272
212.077,66.9403,0.015272
212.107,66.9403,0.015272
212.139,66.9403,0.015272
212.168,66.9403,0.015272
212.200,66.9403,0.015272
212.233,66.9403,0.015272
212.263,66.9403,0.015272
212.293,66.9403,0.015272
212.324,66.9403,0.015263
212.355,66.9403,0.015263
212.386,66.9403,0.015263
212.416,66.9403,0.015263
212.447,66.9403,0.015263
212.478,66.9403,0.015263
212.509,66.9403,0.015263
212.540,66.9403,0.015263
