Elapsed Time (s),Position (mm),Force (N)
-0.019,82.4902,-0.013388
0.013,82.4902,-0.013388
0.044,82.4902,-0.013388
0.074,82.4902,-0.013388
0.105,82.4902,-0.013388
0.136,82.4902,-0.013642
0.168,82.4902,-0.013642
0.200,82.4902,-0.013642
0.230,82.4902,-0.013642
0.260,82.4902,-0.013642
0.292,82.4902,-0.013642
0.323,82.4902,-0.013642
0.355,82.4902,-0.013642
0.387,82.4902,-0.011127
0.417,82.4902,-0.011127
0.448,82.4902,-0.011127
0.479,82.4902,-0.011127
0.510,82.4902,-0.011127
0.541,82.4902,-0.011127
0.573,82.4902,-0.011127
0.604,82.4902,-0.011127
0.635,82.4902,-0.009158
0.662,82.4902,-0.009158
0.697,82.4902,-0.009158
0.728,82.4902,-0.009158
0.759,82.4902,-0.009158
0.790,82.4902,-0.009158
0.821,82.4902,-0.009158
0.852,82.4902,-0.009158
0.883,82.4902,-0.007679
0.914,82.4902,-0.007679
0.946,82.4902,-0.007679
0.977,82.4902,-0.007679
1.007,82.4902,-0.007679
1.038,82.4902,-0.007679
1.069,82.4902,-0.007679
1.100,82.4902,-0.007679
1.130,82.4902,-0.006369
1.162,82.4902,-0.006369
1.194,82.4902,-0.006369
1.224,82.4902,-0.006369
1.255,82.4902,-0.006369
1.287,82.4902,-0.006369
1.318,82.4902,-0.006369
1.349,82.4902,-0.006369
1.381,82.4902,-0.005257
1.411,82.4902,-0.005257
1.443,82.4902,-0.005257
1.474,82.4902,-0.005257
1.506,82.4902,-0.005257
1.536,82.4902,-0.005257
1.567,82.4902,-0.005257
1.598,82.4902,-0.005257
1.629,82.4902,-0.005257
1.659,82.4902,-0.004296
1.690,82.4902,-0.004296
1.721,82.4902,-0.004296
1.751,82.4902,-0.004296
1.782,82.4902,-0.004296
1.812,82.4902,-0.004296
1.843,82.4902,-0.004296
1.874,82.4902,-0.004296
1.905,82.4902,-0.003477
1.937,82.4902,-0.003477
1.969,82.4902,-0.003477
2.000,82.4902,-0.003477
2.031,82.4902,-0.003477
2.062,82.4902,-0.003477
2.094,82.4902,-0.003477
2.125,82.4902,-0.003477
2.156,82.4902,-0.002779
2.188,82.4902,-0.002779
2.219,82.4902,-0.002779
2.251,82.4902,-0.002779
2.282,82.4902,-0.002779
2.312,82.4902,-0.002779
2.343,82.4902,-0.002779
2.374,82.4902,-0.002779
2.406,82.4902,-0.002120
2.437,82.4902,-0.002120
2.468,82.4902,-0.002120
2.498,82.4902,-0.002120
2.530,82.4902,-0.002120
2.561,82.4902,-0.002120
2.591,82.4902,-0.002120
2.623,82.4902,-0.002120
2.653,82.4902,-0.001526
2.684,82.4902,-0.001526
2.715,82.4902,-0.001526
2.746,82.4902,-0.001526
2.778,82.4902,-0.001526
2.809,82.4902,-0.001526
2.840,82.4902,-0.001526
2.871,82.4902,-0.001526
2.902,82.4902,-0.000980
2.933,82.4902,-0.000980
2.964,82.4902,-0.000980
2.995,82.4902,-0.000980
3.027,82.4902,-0.000980
3.058,82.4902,-0.000980
3.089,82.4902,-0.000980
3.121,82.4902,-0.000980
3.152,82.4902,-0.000499
3.184,82.4902,-0.000499
3.215,82.4902,-0.000499
3.244,82.4902,-0.000499
3.275,82.4902,-0.000499
3.306,82.4902,-0.000499
3.338,82.4902,-0.000499
3.369,82.4902,-0.000094
3.399,82.4902,-0.000094
3.430,82.4902,-0.000094
3.461,82.4902,-0.000094
3.492,82.4902,-0.000094
3.523,82.4902,-0.000094
3.554,82.4902,-0.000094
3.586,82.4902,-0.000094
3.616,82.4902,-0.000094
3.648,82.4902,-0.000066
3.679,82.4902,-0.000066
3.710,82.4902,-0.000066
3.741,82.4902,-0.000066
3.773,82.4902,-0.000066
3.804,82.4902,-0.000066
3.835,82.4902,-0.000066
3.867,82.4902,-0.000066
3.897,82.4902,-0.000716
3.928,82.4902,-0.000716
3.960,82.4902,-0.000716
3.991,82.4902,-0.000716
4.021,82.4902,-0.000716
4.052,82.4902,-0.000716
4.083,82.4902,-0.000716
4.114,82.4896,-0.000716
4.145,82.4882,-0.001244
4.176,82.4861,-0.001244
4.207,82.4833,-0.001244
4.238,82.4799,-0.001244
4.270,82.4755,-0.001244
4.300,82.4706,-0.001244
4.332,82.4647,-0.001244
4.363,82.4586,-0.001244
4.393,82.4524,-0.001244
4.425,82.4462,-0.001244
4.456,82.4400,0.000245
4.488,82.4334,0.000245
4.519,82.4273,0.000245
4.550,82.4211,0.000245
4.581,82.4148,0.000245
4.611,82.4089,0.000245
4.642,82.4025,0.000245
4.673,82.3965,0.009836
4.704,82.3903,0.009836
4.735,82.3842,0.009836
4.766,82.3779,0.009836
4.797,82.3718,0.009836
4.828,82.3655,0.009836
4.860,82.3590,0.009836
4.892,82.3527,0.009836
4.922,82.3467,0.027747
4.953,82.3403,0.027747
4.984,82.3343,0.027747
5.015,82.3281,0.027747
5.046,82.3219,0.027747
5.077,82.3158,0.027747
5.108,82.3094,0.027747
5.139,82.3033,0.027747
5.170,82.2970,0.048691
5.200,82.2910,0.048691
5.231,82.2848,0.048691
5.263,82.2785,0.048691
5.293,82.2723,0.048691
5.325,82.2662,0.048691
5.356,82.2598,0.048691
5.388,82.2536,0.048691
5.418,82.2473,0.072716
5.450,82.2412,0.072716
5.481,82.2350,0.072716
5.512,82.2288,0.072716
5.543,82.2226,0.072716
5.574,82.2163,0.072716
5.605,82.2101,0.072716
5.637,82.2037,0.072716
5.668,82.1976,0.100387
5.698,82.1914,0.100387
5.730,82.1850,0.100387
5.761,82.1789,0.100387
5.792,82.1726,0.100387
5.823,82.1664,0.100387
5.853,82.1603,0.100387
5.884,82.1542,0.100387
5.915,82.1479,0.131997
5.946,82.1420,0.131997
5.977,82.1358,0.131997
6.008,82.1294,0.131997
6.039,82.1232,0.131997
6.070,82.1170,0.131997
6.101,82.1110,0.131997
6.132,82.1048,0.167912
6.162,82.0987,0.167912
6.193,82.0925,0.167912
6.224,82.0864,0.167912
6.255,82.0801,0.167912
6.285,82.0739,0.167912
6.316,82.0679,0.167912
6.347,82.0616,0.167912
6.378,82.0555,0.167912
6.410,82.0492,0.167912
6.442,82.0427,0.208057
6.472,82.0367,0.208057
6.504,82.0303,0.208057
6.535,82.0240,0.208057
6.566,82.0178,0.208057
6.597,82.0117,0.208057
6.628,82.0055,0.252555
6.659,81.9995,0.252555
6.690,81.9930,0.252555
6.721,81.9868,0.252555
6.752,81.9806,0.252555
6.783,81.9745,0.252555
6.814,81.9681,0.252555
6.846,81.9619,0.252555
6.877,81.9557,0.252555
6.908,81.9495,0.252555
6.940,81.9430,0.301463
6.971,81.9368,0.301463
7.005,81.9301,0.301463
7.034,81.9242,0.301463
7.065,81.9180,0.301463
7.096,81.9119,0.301463
7.128,81.9056,0.301463
7.160,81.8992,0.301463
7.190,81.8930,0.354808
7.222,81.8868,0.354808
7.252,81.8806,0.354808
7.283,81.8744,0.354808
7.313,81.8685,0.354808
7.345,81.8620,0.354808
7.375,81.8561,0.354808
7.407,81.8498,0.354808
7.437,81.8437,0.412468
7.468,81.8375,0.412468
7.498,81.8314,0.412468
7.530,81.8250,0.412468
7.563,81.8184,0.412468
7.593,81.8124,0.412468
7.624,81.8064,0.412468
7.656,81.8000,0.474302
7.687,81.7938,0.474302
7.716,81.7878,0.474302
7.747,81.7816,0.474302
7.778,81.7755,0.474302
7.809,81.7693,0.474302
7.841,81.7629,0.474302
7.872,81.7566,0.474302
7.903,81.7505,0.474302
7.936,81.7438,0.540093
7.966,81.7380,0.540093
7.996,81.7318,0.540093
8.028,81.7256,0.540093
8.059,81.7193,0.540093
8.089,81.7133,0.540093
8.121,81.7070,0.540093
8.152,81.7008,0.609615
8.182,81.6947,0.609615
8.213,81.6884,0.609615
8.245,81.6821,0.609615
8.274,81.6763,0.609615
8.307,81.6697,0.609615
8.336,81.6637,0.609615
8.367,81.6575,0.609615
8.399,81.6513,0.682746
8.429,81.6451,0.682746
8.461,81.6390,0.682746
8.491,81.6327,0.682746
8.523,81.6264,0.682746
8.555,81.6201,0.682746
8.586,81.6139,0.682746
8.617,81.6077,0.682746
8.648,81.6015,0.682746
8.679,81.5951,0.759221
8.711,81.5888,0.759221
8.744,81.5822,0.759221
8.774,81.5763,0.759221
8.807,81.5697,0.759221
8.836,81.5639,0.759221
8.867,81.5577,0.759221
8.899,81.5512,0.838730
8.930,81.5452,0.838730
8.961,81.5387,0.838730
8.993,81.5325,0.838730
9.024,81.5263,0.838730
9.054,81.5204,0.838730
9.085,81.5140,0.838730
9.117,81.5076,0.838730
9.147,81.5016,0.838730
9.178,81.4954,0.920226
9.210,81.4891,0.920226
9.240,81.4832,0.920226
9.271,81.4769,0.920226
9.302,81.4707,0.920226
9.333,81.4645,0.920226
9.364,81.4582,0.920226
9.396,81.4519,1.003881
9.427,81.4457,1.003881
9.459,81.4394,1.003881
9.489,81.4332,1.003881
9.520,81.4272,1.003881
9.551,81.4209,1.003881
9.582,81.4147,1.003881
9.613,81.4084,1.003881
9.644,81.4023,1.090550
9.676,81.3960,1.090550
9.707,81.3895,1.090550
9.738,81.3836,1.090550
9.769,81.3774,1.090550
9.800,81.3710,1.090550
9.832,81.3648,1.090550
9.863,81.3585,1.090550
9.893,81.3524,1.176202
9.924,81.3462,1.176202
9.956,81.3400,1.176202
9.986,81.3340,1.176202
10.017,81.3276,1.176202
10.048,81.3215,1.176202
10.079,81.3153,1.176202
10.109,81.3093,1.176202
10.141,81.3031,1.162409
10.172,81.2967,1.162409
10.203,81.2905,1.162409
10.235,81.2841,1.162409
10.265,81.2781,1.162409
10.296,81.2718,1.162409
10.327,81.2656,1.162409
10.358,81.2594,1.162409
10.389,81.2533,0.562394
10.420,81.2471,0.562394
10.451,81.2408,0.562394
10.482,81.2349,0.562394
10.513,81.2284,0.562394
10.544,81.2223,0.562394
10.575,81.2161,0.562394
10.606,81.2099,0.562394
10.638,81.2036,0.017543
10.669,81.1973,0.017543
10.700,81.1911,0.017543
10.732,81.1847,0.017543
10.763,81.1785,0.017543
10.794,81.1722,0.017543
10.826,81.1659,0.017543
10.857,81.1597,0.017543
10.889,81.1534,0.017260
10.921,81.1470,0.017260
10.952,81.1408,0.017260
10.983,81.1346,0.017260
11.014,81.1284,0.017260
11.045,81.1221,0.017260
11.075,81.1162,0.017260
11.105,81.1100,0.017260
11.137,81.1036,0.017091
11.167,81.0977,0.017091
11.199,81.0915,0.017091
11.230,81.0852,0.017091
11.262,81.0788,0.017091
11.293,81.0724,0.017091
11.324,81.0663,0.017091
11.355,81.0601,0.017091
11.385,81.0540,0.017025
11.417,81.0477,0.017025
11.448,81.0416,0.017025
11.479,81.0353,0.017025
11.511,81.0291,0.017025
11.542,81.0228,0.017025
11.573,81.0166,0.017025
11.603,81.0105,0.017025
11.633,81.0043,0.017063
11.665,80.9982,0.017063
11.694,80.9921,0.017063
11.726,80.9861,0.017063
11.757,80.9797,0.017063
11.788,80.9735,0.017063
11.819,80.9673,0.017063
11.850,80.9610,0.017063
11.881,80.9549,0.017091
11.913,80.9486,0.017091
11.943,80.9425,0.017091
11.974,80.9363,0.017091
12.006,80.9299,0.017091
12.037,80.9237,0.017091
12.068,80.9176,0.017091
12.099,80.9114,0.017091
12.129,80.9053,0.017091
12.161,80.8990,0.017091
12.192,80.8928,0.017091
12.223,80.8863,0.017091
12.255,80.8801,0.017091
12.286,80.8739,0.017091
12.317,80.8679,0.017091
12.347,80.8618,0.017091
12.379,80.8553,0.017157
12.410,80.8491,0.017157
12.442,80.8428,0.017157
12.473,80.8364,0.017157
12.504,80.8303,0.017157
12.536,80.8240,0.017157
12.566,80.8179,0.017157
12.598,80.8116,0.017157
12.629,80.8054,0.017194
12.661,80.7990,0.017194
12.692,80.7927,0.017194
12.722,80.7868,0.017194
12.753,80.7804,0.017194
12.784,80.7744,0.017194
12.815,80.7680,0.017194
12.845,80.7622,0.017194
12.876,80.7559,0.017194
12.908,80.7497,0.017194
12.939,80.7434,0.017176
12.970,80.7371,0.017176
13.001,80.7308,0.017176
13.033,80.7246,0.017176
13.064,80.7182,0.017176
13.096,80.7118,0.017176
13.127,80.7055,0.017176
13.158,80.6996,0.017176
13.190,80.6927,0.017166
13.220,80.6873,0.017166
13.250,80.6811,0.017166
13.281,80.6749,0.017166
13.312,80.6686,0.017166
13.343,80.6624,0.017166
13.374,80.6563,0.017166
13.405,80.6501,0.017166
13.437,80.6439,0.017166
13.468,80.6374,0.017166
13.499,80.6314,0.017166
13.530,80.6250,0.017166
13.562,80.6187,0.017166
13.593,80.6125,0.017166
13.624,80.6063,0.017166
13.655,80.6000,0.017176
13.687,80.5938,0.017176
13.718,80.5873,0.017176
13.749,80.5813,0.017176
13.780,80.5751,0.017176
13.811,80.5690,0.017176
13.841,80.5626,0.017176
13.872,80.5566,0.017176
13.903,80.5504,0.017157
13.935,80.5443,0.017157
13.965,80.5381,0.017157
13.996,80.5319,0.017157
14.028,80.5257,0.017157
14.058,80.5195,0.017157
14.090,80.5132,0.017157
14.120,80.5071,0.017157
14.152,80.5009,0.017213
14.184,80.4943,0.017213
14.214,80.4884,0.017213
14.246,80.4819,0.017213
14.277,80.4758,0.017213
14.307,80.4696,0.017213
14.338,80.4633,0.017213
14.369,80.4574,0.017213
14.400,80.4509,0.017213
14.433,80.4446,0.017251
14.462,80.4386,0.017251
14.493,80.4324,0.017251
14.524,80.4262,0.017251
14.555,80.4200,0.017251
14.585,80.4141,0.017251
14.617,80.4077,0.017251
14.648,80.4015,0.017251
14.679,80.3953,0.017242
14.710,80.3893,0.017242
14.741,80.3828,0.017242
14.773,80.3765,0.017242
14.806,80.3700,0.017242
14.835,80.3642,0.017242
14.868,80.3575,0.017242
14.898,80.3514,0.017242
14.930,80.3450,0.017213
14.962,80.3389,0.017213
14.993,80.3322,0.017213
15.023,80.3266,0.017213
15.055,80.3203,0.017213
15.086,80.3140,0.017213
15.117,80.3078,0.017213
15.148,80.3015,0.017223
15.179,80.2954,0.017223
15.210,80.2891,0.017223
15.241,80.2831,0.017223
15.272,80.2767,0.017223
15.303,80.2707,0.017223
15.333,80.2644,0.017223
15.365,80.2582,0.017223
15.395,80.2520,0.017223
15.426,80.2460,0.017242
15.457,80.2397,0.017242
15.488,80.2334,0.017242
15.519,80.2273,0.017242
15.550,80.2212,0.017242
15.581,80.2149,0.017242
15.613,80.2086,0.017242
15.643,80.2026,0.017185
15.673,80.1965,0.017185
15.704,80.1903,0.017185
15.735,80.1841,0.017185
15.767,80.1778,0.017185
15.798,80.1716,0.017185
15.829,80.1654,0.017185
15.861,80.1588,0.017185
15.891,80.1529,0.017185
15.922,80.1467,0.017223
15.954,80.1403,0.017223
15.985,80.1341,0.017223
16.016,80.1279,0.017223
16.047,80.1219,0.017223
16.078,80.1155,0.017223
16.109,80.1093,0.017223
16.140,80.1033,0.017251
16.171,80.0971,0.017251
16.201,80.0909,0.017251
16.233,80.0847,0.017251
16.264,80.0783,0.017251
16.295,80.0723,0.017251
16.326,80.0659,0.017251
16.355,80.0601,0.017251
16.387,80.0538,0.017251
16.419,80.0475,0.017185
16.450,80.0411,0.017185
16.482,80.0346,0.017185
16.513,80.0286,0.017185
16.544,80.0225,0.017185
16.574,80.0163,0.017185
16.606,80.0099,0.017185
16.637,80.0038,0.017185
16.668,79.9976,0.017176
16.699,79.9914,0.017176
16.730,79.9852,0.017176
16.761,79.9787,0.017176
16.793,79.9727,0.017176
16.824,79.9663,0.017176
16.855,79.9603,0.017176
16.887,79.9538,0.017176
16.918,79.9474,0.017176
16.948,79.9414,0.017176
16.978,79.9355,0.017176
17.010,79.9290,0.017176
17.041,79.9228,0.017176
17.072,79.9166,0.017176
17.104,79.9104,0.017176
17.136,79.9038,0.017157
17.168,79.8976,0.017157
17.198,79.8916,0.017157
17.228,79.8855,0.017157
17.260,79.8792,0.017157
17.291,79.8730,0.017157
17.322,79.8668,0.017157
17.353,79.8606,0.017157
17.384,79.8544,0.017204
17.416,79.8480,0.017204
17.447,79.8418,0.017204
17.478,79.8356,0.017204
17.509,79.8293,0.017204
17.540,79.8231,0.017204
17.571,79.8169,0.017204
17.602,79.8107,0.017204
17.633,79.8046,0.017204
17.665,79.7982,0.017194
17.696,79.7920,0.017194
17.730,79.7853,0.017194
17.759,79.7793,0.017194
17.790,79.7732,0.017194
17.820,79.7670,0.017194
17.853,79.7606,0.017194
17.882,79.7549,0.017147
17.913,79.7486,0.017147
17.944,79.7424,0.017147
17.975,79.7363,0.017147
18.006,79.7300,0.017147
18.037,79.7238,0.017147
18.068,79.7176,0.017147
18.099,79.7112,0.017147
18.131,79.7052,0.017147
18.162,79.6987,0.017119
18.193,79.6924,0.017119
18.224,79.6862,0.017119
18.255,79.6802,0.017119
18.286,79.6739,0.017119
18.317,79.6678,0.017119
18.347,79.6616,0.017119
18.379,79.6554,0.017006
18.410,79.6490,0.017006
18.442,79.6429,0.017006
18.473,79.6366,0.017006
18.504,79.6304,0.017006
18.536,79.6240,0.017006
18.566,79.6180,0.017006
18.597,79.6116,0.017006
18.628,79.6054,0.016978
18.659,79.5992,0.016978
18.689,79.5932,0.016978
18.720,79.5871,0.016978
18.751,79.5808,0.016978
18.783,79.5747,0.016978
18.814,79.5684,0.016978
18.845,79.5622,0.016978
18.877,79.5557,0.016978
18.907,79.5497,0.016940
18.938,79.5434,0.016940
18.969,79.5375,0.016940
19.000,79.5310,0.016940
19.032,79.5249,0.016940
19.063,79.5184,0.016940
19.095,79.5122,0.016940
19.125,79.5061,0.016940
19.156,79.5001,0.016912
19.187,79.4938,0.016912
19.218,79.4876,0.016912
19.248,79.4814,0.016912
19.280,79.4752,0.016912
19.311,79.4689,0.016912
19.341,79.4631,0.016912
19.372,79.4576,0.016912
19.403,79.4530,0.016884
19.433,79.4492,0.016884
19.465,79.4459,0.016884
19.496,79.4433,0.016884
19.527,79.4416,0.016884
19.558,79.4406,0.016884
19.590,79.4402,0.016884
19.621,79.4402,0.016884
19.653,79.4402,0.016695
19.683,79.4402,0.016695
19.714,79.4402,0.016695
19.745,79.4406,0.016695
19.776,79.4417,0.016695
19.808,79.4436,0.016695
19.839,79.4461,0.016695
19.870,79.4494,0.016695
19.901,79.4534,0.016563
19.933,79.4583,0.016563
19.962,79.4636,0.016563
19.993,79.4698,0.016563
20.025,79.4760,0.016563
20.055,79.4822,0.016563
20.086,79.4884,0.016563
20.118,79.4947,0.016563
20.149,79.5009,0.016488
20.181,79.5073,0.016488
20.212,79.5135,0.016488
20.244,79.5197,0.016488
20.276,79.5263,0.016488
20.307,79.5324,0.016488
20.337,79.5386,0.016488
20.368,79.5447,0.016403
20.399,79.5509,0.016403
20.430,79.5571,0.016403
20.463,79.5636,0.016403
20.493,79.5697,0.016403
20.524,79.5759,0.016403
20.554,79.5819,0.016403
20.585,79.5879,0.016403
20.616,79.5944,0.016403
20.648,79.6005,0.016403
20.679,79.6068,0.016403
20.710,79.6130,0.016403
20.741,79.6192,0.016403
20.772,79.6255,0.016403
20.804,79.6319,0.016403
20.835,79.6379,0.016403
20.866,79.6444,0.016403
20.897,79.6505,0.016394
20.928,79.6568,0.016394
20.961,79.6631,0.016394
20.990,79.6692,0.016394
21.021,79.6751,0.016394
21.052,79.6815,0.016394
21.083,79.6877,0.016394
21.114,79.6940,0.016394
21.145,79.7001,0.016394
21.176,79.7064,0.016394
21.207,79.7125,0.016394
21.239,79.7189,0.016394
21.270,79.7250,0.016394
21.302,79.7314,0.016394
21.332,79.7375,0.016394
21.364,79.7440,0.016394
21.396,79.7502,0.016412
21.427,79.7566,0.016412
21.458,79.7626,0.016412
21.490,79.7690,0.016412
21.521,79.7752,0.016412
21.552,79.7815,0.016412
21.583,79.7876,0.016412
21.613,79.7938,0.016412
21.645,79.8000,0.016403
21.677,79.8065,0.016403
21.708,79.8127,0.016403
21.739,79.8190,0.016403
21.773,79.8257,0.016403
21.803,79.8317,0.016403
21.834,79.8379,0.016403
21.865,79.8441,0.016403
21.895,79.8501,0.016394
21.927,79.8566,0.016394
21.960,79.8630,0.016394
21.991,79.8692,0.016394
22.021,79.8754,0.016394
22.053,79.8815,0.016394
22.086,79.8882,0.016394
22.114,79.8939,0.016403
22.144,79.8999,0.016403
22.175,79.9059,0.016403
22.207,79.9124,0.016403
22.237,79.9185,0.016403
22.267,79.9244,0.016403
22.298,79.9307,0.016403
22.330,79.9372,0.016403
22.360,79.9432,0.016403
22.391,79.9494,0.016375
22.423,79.9557,0.016375
22.454,79.9618,0.016375
22.484,79.9678,0.016375
22.516,79.9742,0.016375
22.546,79.9802,0.016375
22.578,79.9867,0.016375
22.609,79.9928,0.016375
22.640,79.9992,0.016356
22.670,80.0052,0.016356
22.702,80.0115,0.016356
22.733,80.0176,0.016356
22.764,80.0239,0.016356
22.795,80.0301,0.016356
22.826,80.0364,0.016356
22.858,80.0426,0.016356
22.889,80.0489,0.016356
22.921,80.0551,0.016346
22.952,80.0617,0.016346
22.984,80.0678,0.016346
23.015,80.0742,0.016346
23.047,80.0804,0.016346
23.078,80.0866,0.016346
23.109,80.0927,0.016346
23.140,80.0990,0.016346
23.170,80.1052,0.016394
23.201,80.1113,0.016394
23.233,80.1175,0.016394
23.264,80.1237,0.016394
23.294,80.1299,0.016394
23.326,80.1361,0.016394
23.357,80.1423,0.016394
23.387,80.1485,0.016394
23.419,80.1547,0.016384
23.450,80.1611,0.016384
23.481,80.1671,0.016384
23.512,80.1735,0.016384
23.542,80.1795,0.016384
23.573,80.1857,0.016384
23.604,80.1918,0.016384
23.635,80.1979,0.016375
23.666,80.2041,0.016375
23.697,80.2104,0.016375
23.728,80.2169,0.016375
23.759,80.2228,0.016375
23.790,80.2291,0.016375
23.821,80.2352,0.016375
23.853,80.2418,0.016375
23.884,80.2479,0.016394
23.915,80.2541,0.016394
23.945,80.2602,0.016394
23.977,80.2666,0.016394
24.008,80.2727,0.016394
24.039,80.2789,0.016394
24.070,80.2851,0.016394
24.103,80.2917,0.016394
24.134,80.2977,0.016309
24.164,80.3039,0.016309
24.195,80.3100,0.016309
24.225,80.3161,0.016309
24.257,80.3224,0.016309
24.288,80.3287,0.016309
24.319,80.3349,0.016309
24.350,80.3410,0.016309
24.381,80.3473,0.016309
24.412,80.3534,0.016309
24.443,80.3597,0.016309
24.474,80.3659,0.016309
24.505,80.3721,0.016309
24.537,80.3783,0.016309
24.568,80.3848,0.016309
24.599,80.3909,0.016309
24.631,80.3973,0.016299
24.662,80.4034,0.016299
24.693,80.4097,0.016299
24.724,80.4159,0.016299
24.756,80.4221,0.016299
24.786,80.4282,0.016299
24.816,80.4343,0.016299
24.847,80.4406,0.016299
24.878,80.4466,0.016224
24.909,80.4528,0.016224
24.940,80.4591,0.016224
24.971,80.4653,0.016224
25.002,80.4714,0.016224
25.033,80.4777,0.016224
25.064,80.4838,0.016224
25.095,80.4901,0.016224
25.126,80.4963,0.016158
25.158,80.5027,0.016158
25.190,80.5091,0.016158
25.220,80.5150,0.016158
25.251,80.5211,0.016158
25.282,80.5274,0.016158
25.313,80.5336,0.016158
25.344,80.5398,0.016158
25.375,80.5460,0.016158
25.406,80.5524,0.016064
25.439,80.5589,0.016064
25.469,80.5649,0.016064
25.499,80.5708,0.016064
25.531,80.5773,0.016064
25.562,80.5834,0.016064
25.593,80.5897,0.016064
25.624,80.5958,0.016064
25.655,80.6021,0.016064
25.686,80.6083,0.016017
25.718,80.6147,0.016017
25.749,80.6208,0.016017
25.781,80.6273,0.016017
25.812,80.6333,0.016017
25.843,80.6397,0.016017
25.873,80.6456,0.016017
25.904,80.6519,0.016017
25.935,80.6580,0.015951
25.966,80.6642,0.015951
25.997,80.6705,0.015951
26.029,80.6770,0.015951
26.060,80.6831,0.015951
26.091,80.6893,0.015951
26.122,80.6955,0.015951
26.152,80.7014,0.015951
26.183,80.7078,0.015913
26.214,80.7138,0.015913
26.246,80.7203,0.015913
26.277,80.7264,0.015913
26.307,80.7326,0.015913
26.338,80.7385,0.015913
26.369,80.7447,0.015913
26.400,80.7510,0.015857
26.431,80.7572,0.015857
26.462,80.7636,0.015857
26.496,80.7701,0.015857
26.525,80.7758,0.015857
26.556,80.7824,0.015857
26.588,80.7887,0.015857
26.618,80.7947,0.015857
26.649,80.8009,0.015857
26.680,80.8071,0.015753
26.712,80.8134,0.015753
26.742,80.8195,0.015753
26.773,80.8256,0.015753
26.804,80.8318,0.015753
26.835,80.8381,0.015753
26.867,80.8444,0.015753
26.899,80.8509,0.015753
26.931,80.8571,0.015706
26.961,80.8633,0.015706
26.993,80.8696,0.015706
27.024,80.8759,0.015706
27.054,80.8818,0.015706
27.088,80.8887,0.015706
27.118,80.8948,0.015706
27.149,80.9009,0.015602
27.181,80.9073,0.015602
27.212,80.9135,0.015602
27.243,80.9196,0.015602
27.274,80.9259,0.015602
27.304,80.9317,0.015602
27.336,80.9382,0.015602
27.366,80.9443,0.015602
27.397,80.9506,0.015602
27.429,80.9567,0.015489
27.459,80.9630,0.015489
27.490,80.9691,0.015489
27.522,80.9755,0.015489
27.553,80.9816,0.015489
27.584,80.9879,0.015489
27.615,80.9941,0.015489
27.646,81.0003,0.015489
27.678,81.0067,0.015329
27.708,81.0127,0.015329
27.740,81.0192,0.015329
27.771,81.0253,0.015329
27.801,81.0311,0.015329
27.831,81.0372,0.015329
27.862,81.0434,0.015329
27.893,81.0496,0.015263
27.925,81.0560,0.015263
27.954,81.0618,0.015263
27.985,81.0682,0.015263
28.015,81.0740,0.015263
28.047,81.0804,0.015263
28.078,81.0865,0.015263
28.109,81.0928,0.015263
28.140,81.0990,0.015178
28.172,81.1056,0.015178
28.204,81.1117,0.015178
28.235,81.1181,0.015178
28.265,81.1240,0.015178
28.297,81.1304,0.015178
28.327,81.1364,0.015178
28.358,81.1426,0.015178
28.389,81.1488,0.014971
28.420,81.1551,0.014971
28.451,81.1614,0.014971
28.483,81.1676,0.014971
28.514,81.1738,0.014971
28.545,81.1800,0.014971
28.576,81.1864,0.014971
28.607,81.1924,0.014971
28.638,81.1986,0.014971
28.670,81.2050,0.014848
28.701,81.2112,0.014848
28.732,81.2175,0.014848
28.763,81.2236,0.014848
28.794,81.2298,0.014848
28.824,81.2358,0.014848
28.856,81.2422,0.014848
28.886,81.2482,0.014782
28.918,81.2545,0.014782
28.950,81.2609,0.014782
28.981,81.2671,0.014782
29.012,81.2733,0.014782
29.043,81.2796,0.014782
29.074,81.2858,0.014782
29.105,81.2922,0.014782
29.136,81.2982,0.014679
29.167,81.3044,0.014679
29.197,81.3105,0.014679
29.228,81.3166,0.014679
29.259,81.3229,0.014679
29.290,81.3290,0.014679
29.321,81.3354,0.014679
29.352,81.3415,0.014679
29.384,81.3480,0.014519
29.415,81.3540,0.014519
29.447,81.3604,0.014519
29.478,81.3667,0.014519
29.509,81.3730,0.014519
29.541,81.3792,0.014519
29.572,81.3855,0.014519
29.604,81.3917,0.014519
29.634,81.3979,0.014434
29.665,81.4041,0.014434
29.696,81.4102,0.014434
29.727,81.4164,0.014434
29.758,81.4225,0.014434
29.789,81.4288,0.014434
29.820,81.4349,0.014434
29.851,81.4411,0.014434
29.882,81.4474,0.014236
29.913,81.4536,0.014236
29.944,81.4597,0.014236
29.975,81.4660,0.014236
30.006,81.4721,0.014236
30.037,81.4784,0.014236
30.069,81.4848,0.014236
30.100,81.4910,0.014236
30.132,81.4973,0.014076
30.163,81.5035,0.014076
30.194,81.5097,0.014076
30.225,81.5160,0.014076
30.256,81.5222,0.014076
30.286,81.5283,0.014076
30.317,81.5342,0.014076
30.347,81.5406,0.014076
30.378,81.5467,0.013925
30.409,81.5529,0.013925
30.441,81.5591,0.013925
30.471,81.5653,0.013925
30.502,81.5713,0.013925
30.532,81.5775,0.013925
30.563,81.5836,0.013925
30.594,81.5898,0.013925
30.625,81.5960,0.013756
30.655,81.6022,0.013756
30.686,81.6084,0.013756
30.717,81.6145,0.013756
30.749,81.6208,0.013756
30.779,81.6269,0.013756
30.810,81.6332,0.013756
30.842,81.6394,0.013756
30.873,81.6457,0.013756
30.904,81.6518,0.013633
30.936,81.6581,0.013633
30.967,81.6643,0.013633
30.998,81.6708,0.013633
31.029,81.6768,0.013633
31.061,81.6831,0.013633
31.091,81.6893,0.013633
31.123,81.6955,0.013633
31.154,81.7018,0.013407
31.185,81.7079,0.013407
31.216,81.7142,0.013407
31.248,81.7205,0.013407
31.279,81.7267,0.013407
31.311,81.7332,0.013407
31.342,81.7393,0.013407
31.373,81.7457,0.013407
31.404,81.7518,0.013162
31.435,81.7581,0.013162
31.466,81.7643,0.013162
31.498,81.7706,0.013162
31.529,81.7767,0.013162
31.559,81.7829,0.013162
31.589,81.7889,0.013162
31.620,81.7951,0.013162
31.652,81.8013,0.012992
31.683,81.8076,0.012992
31.713,81.8137,0.012992
31.744,81.8199,0.012992
31.776,81.8261,0.012992
31.807,81.8323,0.012992
31.838,81.8387,0.012992
31.870,81.8449,0.012992
31.901,81.8511,0.012813
31.932,81.8573,0.012813
31.963,81.8635,0.012813
31.994,81.8699,0.012813
32.025,81.8759,0.012813
32.055,81.8820,0.012813
32.087,81.8882,0.012813
32.118,81.8945,0.012813
32.149,81.9009,0.012502
32.180,81.9071,0.012502
32.212,81.9135,0.012502
32.243,81.9197,0.012502
32.275,81.9259,0.012502
32.305,81.9320,0.012502
32.336,81.9383,0.012502
32.366,81.9443,0.012201
32.397,81.9505,0.012201
32.429,81.9567,0.012201
32.460,81.9630,0.012201
32.491,81.9692,0.012201
32.522,81.9755,0.012201
32.553,81.9815,0.012201
32.584,81.9879,0.012201
32.615,81.9939,0.012201
32.646,82.0003,0.011824
32.677,82.0064,0.011824
32.709,82.0129,0.011824
32.739,82.0188,0.011824
32.771,82.0254,0.011824
32.803,82.0315,0.011824
32.833,82.0378,0.011824
32.865,82.0440,0.011824
32.895,82.0501,0.011824
32.926,82.0561,0.011268
32.956,82.0621,0.011268
32.988,82.0687,0.011268
33.019,82.0747,0.011268
33.049,82.0808,0.011268
33.080,82.0870,0.011268
33.111,82.0932,0.011268
33.142,82.0994,0.011268
33.175,82.1060,0.010571
33.205,82.1119,0.010571
33.236,82.1182,0.010571
33.267,82.1245,0.010571
33.299,82.1308,0.010571
33.330,82.1370,0.010571
33.362,82.1433,0.010571
33.392,82.1494,0.010571
33.424,82.1557,0.009648
33.456,82.1623,0.009648
33.488,82.1688,0.009648
33.519,82.1747,0.009648
33.549,82.1807,0.009648
33.580,82.1870,0.009648
33.611,82.1932,0.009648
33.643,82.1995,0.008319
33.673,82.2056,0.008319
33.704,82.2118,0.008319
33.735,82.2179,0.008319
33.766,82.2241,0.008319
33.797,82.2303,0.008319
33.828,82.2367,0.008319
33.859,82.2427,0.008319
33.889,82.2487,0.008319
33.920,82.2549,0.006322
33.952,82.2614,0.006322
33.984,82.2677,0.006322
34.015,82.2738,0.006322
34.045,82.2801,0.006322
34.076,82.2862,0.006322
34.108,82.2924,0.006322
34.139,82.2987,0.006322
34.170,82.3048,0.003571
34.201,82.3113,0.003571
34.231,82.3172,0.003571
34.263,82.3237,0.003571
34.293,82.3296,0.003571
34.325,82.3361,0.003571
34.357,82.3424,0.003571
34.388,82.3486,0.003571
34.419,82.3549,-0.000122
34.449,82.3609,-0.000122
34.480,82.3669,-0.000122
34.511,82.3734,-0.000122
34.542,82.3793,-0.000122
34.572,82.3854,-0.000122
34.603,82.3915,-0.000122
34.634,82.3979,-0.004965
34.666,82.4043,-0.004965
34.696,82.4102,-0.004965
34.728,82.4166,-0.004965
34.758,82.4219,-0.004965
34.790,82.4268,-0.004965
34.821,82.4308,-0.004965
34.852,82.4342,-0.004965
34.883,82.4368,-0.010825
34.914,82.4386,-0.010825
34.945,82.4399,-0.010825
34.976,82.4402,-0.010825
35.008,82.4402,-0.010825
35.040,82.4402,-0.010825
35.070,82.4402,-0.010825
35.101,82.4402,-0.010825
35.133,82.4402,-0.013944
35.164,82.4402,-0.013944
35.195,82.4402,-0.013944
35.226,82.4402,-0.013944
35.256,82.4402,-0.013944
35.288,82.4402,-0.013944
35.319,82.4402,-0.013944
35.349,82.4402,-0.013944
35.380,82.4402,-0.012446
35.412,82.4402,-0.012446
35.443,82.4402,-0.012446
35.474,82.4402,-0.012446
35.505,82.4402,-0.012446
35.536,82.4402,-0.012446
35.567,82.4402,-0.012446
35.599,82.4402,-0.012446
35.631,82.4402,-0.010006
35.661,82.4402,-0.010006
35.692,82.4402,-0.010006
35.723,82.4402,-0.010006
35.754,82.4402,-0.010006
35.785,82.4402,-0.010006
35.816,82.4402,-0.010006
35.847,82.4402,-0.010006
35.878,82.4402,-0.008197
35.908,82.4402,-0.008197
35.940,82.4402,-0.008197
35.971,82.4402,-0.008197
36.002,82.4402,-0.008197
36.033,82.4402,-0.008197
36.064,82.4402,-0.008197
36.096,82.4402,-0.008197
36.126,82.4402,-0.006755
36.158,82.4402,-0.006755
36.189,82.4402,-0.006755
36.220,82.4402,-0.006755
36.252,82.4402,-0.006755
36.284,82.4402,-0.006755
36.315,82.4402,-0.006755
36.346,82.4402,-0.006755
36.378,82.4402,-0.006755
36.409,82.4402,-0.005606
36.441,82.4402,-0.005606
36.470,82.4402,-0.005606
36.501,82.4402,-0.005606
36.532,82.4402,-0.005606
36.564,82.4402,-0.005606
36.595,82.4402,-0.005606
36.626,82.4402,-0.005606
36.657,82.4402,-0.005606
36.688,82.4402,-0.004664
36.720,82.4402,-0.004664
36.751,82.4402,-0.004664
36.782,82.4402,-0.004664
36.812,82.4402,-0.004664
36.843,82.4402,-0.004664
36.874,82.4402,-0.004664
36.905,82.4402,-0.004664
36.937,82.4402,-0.003872
36.967,82.4402,-0.003872
37.000,82.4402,-0.003872
37.031,82.4402,-0.003872
37.063,82.4402,-0.003872
37.094,82.4402,-0.003872
37.125,82.4402,-0.003872
37.156,82.4402,-0.003071
37.186,82.4402,-0.003071
37.217,82.4402,-0.003071
37.248,82.4402,-0.003071
37.279,82.4402,-0.003071
37.310,82.4402,-0.003071
37.341,82.4402,-0.003071
37.372,82.4402,-0.003071
37.404,82.4402,-0.003071
37.436,82.4402,-0.002393
37.466,82.4402,-0.002393
37.498,82.4402,-0.002393
37.529,82.4402,-0.002393
37.561,82.4402,-0.002393
37.592,82.4402,-0.002393
37.622,82.4402,-0.002393
37.652,82.4402,-0.001837
37.684,82.4402,-0.001837
37.714,82.4402,-0.001837
37.745,82.4402,-0.001837
37.775,82.4402,-0.001837
37.807,82.4402,-0.001837
37.837,82.4402,-0.001837
37.870,82.4402,-0.001837
37.899,82.4402,-0.001837
37.930,82.4402,-0.001253
37.961,82.4402,-0.001253
37.992,82.4402,-0.001253
38.022,82.4402,-0.001253
38.053,82.4402,-0.001253
38.086,82.4402,-0.001253
38.115,82.4402,-0.001253
38.146,82.4402,-0.001253
38.178,82.4402,-0.000773
38.207,82.4402,-0.000773
38.239,82.4402,-0.000773
38.269,82.4402,-0.000773
38.301,82.4402,-0.000773
38.332,82.4402,-0.000773
38.362,82.4402,-0.000773
38.393,82.4402,-0.000273
38.424,82.4402,-0.000273
38.455,82.4402,-0.000273
38.486,82.4402,-0.000273
38.517,82.4402,-0.000273
38.548,82.4402,-0.000273
38.579,82.4402,-0.000273
38.609,82.4402,-0.000273
38.641,82.4402,-0.000273
38.672,82.4402,0.000188
38.702,82.4402,0.000188
38.734,82.4402,0.000188
38.764,82.4402,0.000188
38.795,82.4402,0.000188
38.826,82.4402,0.000188
38.857,82.4402,0.000188
38.889,82.4402,0.000556
38.921,82.4402,0.000556
38.953,82.4402,0.000556
38.985,82.4402,0.000556
39.016,82.4402,0.000556
39.047,82.4402,0.000556
39.077,82.4402,0.000556
39.108,82.4402,0.000556
39.139,82.4402,0.000612
39.170,82.4402,0.000612
39.200,82.4402,0.000612
39.231,82.4402,0.000612
39.262,82.4402,0.000612
39.293,82.4402,0.000612
39.324,82.4402,0.000612
39.355,82.4402,0.000612
39.386,82.4402,-0.000047
39.417,82.4402,-0.000047
39.448,82.4402,-0.000047
39.479,82.4402,-0.000047
39.510,82.4402,-0.000047
39.541,82.4400,-0.000047
39.572,82.4391,-0.000047
39.603,82.4374,-0.000047
39.634,82.4349,-0.000641
39.664,82.4321,-0.000641
39.695,82.4281,-0.000641
39.725,82.4237,-0.000641
39.757,82.4183,-0.000641
39.787,82.4125,-0.000641
39.819,82.4061,-0.000641
39.850,82.3999,-0.000641
39.881,82.3937,-0.000641
39.912,82.3875,0.002638
39.943,82.3812,0.002638
39.974,82.3751,0.002638
40.004,82.3690,0.002638
40.035,82.3628,0.002638
40.067,82.3565,0.002638
40.097,82.3503,0.002638
40.128,82.3441,0.002638
40.160,82.3379,0.014669
40.190,82.3318,0.014669
40.221,82.3258,0.014669
40.253,82.3193,0.014669
40.283,82.3132,0.014669
40.314,82.3072,0.014669
40.344,82.3011,0.014669
40.375,82.2948,0.014669
40.406,82.2887,0.033221
40.437,82.2825,0.033221
40.468,82.2764,0.033221
40.499,82.2701,0.033221
40.530,82.2639,0.033221
40.561,82.2576,0.033221
40.593,82.2515,0.033221
40.623,82.2453,0.033221
40.654,82.2391,0.054589
40.685,82.2329,0.054589
40.716,82.2265,0.054589
40.747,82.2206,0.054589
40.778,82.2144,0.054589
40.809,82.2082,0.054589
40.840,82.2019,0.054589
40.870,82.1959,0.054589
40.901,82.1897,0.079320
40.932,82.1835,0.079320
40.963,82.1774,0.079320
40.993,82.1714,0.079320
41.024,82.1650,0.079320
41.057,82.1586,0.079320
41.088,82.1524,0.079320
41.119,82.1462,0.079320
41.149,82.1401,0.107774
41.180,82.1339,0.107774
41.211,82.1278,0.107774
41.242,82.1215,0.107774
41.273,82.1152,0.107774
41.304,82.1091,0.107774
41.335,82.1029,0.107774
41.366,82.0967,0.107774
41.397,82.0906,0.140363
41.427,82.0845,0.140363
41.458,82.0783,0.140363
41.489,82.0720,0.140363
41.520,82.0658,0.140363
41.552,82.0595,0.140363
41.583,82.0533,0.140363
41.614,82.0471,0.140363
41.645,82.0409,0.177211
41.677,82.0344,0.177211
41.708,82.0284,0.177211
41.739,82.0220,0.177211
41.770,82.0158,0.177211
41.801,82.0096,0.177211
41.833,82.0033,0.177211
41.864,81.9971,0.177211
41.894,81.9910,0.177211
41.925,81.9848,0.218280
41.956,81.9786,0.218280
41.987,81.9724,0.218280
42.018,81.9661,0.218280
42.050,81.9600,0.218280
42.080,81.9538,0.218280
42.111,81.9477,0.218280
42.142,81.9413,0.263814
42.173,81.9353,0.263814
42.204,81.9293,0.263814
42.235,81.9228,0.263814
42.267,81.9165,0.263814
42.299,81.9100,0.263814
42.329,81.9041,0.263814
42.361,81.8976,0.263814
42.391,81.8918,0.313777
42.422,81.8856,0.313777
42.452,81.8792,0.313777
42.483,81.8733,0.313777
42.514,81.8671,0.313777
42.544,81.8610,0.313777
42.575,81.8547,0.313777
42.607,81.8485,0.313777
42.639,81.8421,0.368281
42.670,81.8359,0.368281
42.701,81.8295,0.368281
42.732,81.8235,0.368281
42.763,81.8171,0.368281
42.795,81.8109,0.368281
42.825,81.8050,0.368281
42.857,81.7987,0.368281
42.888,81.7925,0.427232
42.919,81.7860,0.427232
42.951,81.7798,0.427232
42.982,81.7736,0.427232
43.012,81.7674,0.427232
43.043,81.7612,0.427232
43.076,81.7546,0.427232
43.106,81.7488,0.427232
43.137,81.7425,0.490121
43.168,81.7364,0.490121
43.198,81.7303,0.490121
43.230,81.7240,0.490121
43.261,81.7178,0.490121
43.292,81.7115,0.490121
43.324,81.7052,0.490121
43.356,81.6987,0.490121
43.386,81.6926,0.490121
43.418,81.6863,0.556760
43.449,81.6801,0.556760
43.479,81.6741,0.556760
43.511,81.6677,0.556760
43.541,81.6617,0.556760
43.572,81.6554,0.556760
43.604,81.6491,0.556760
43.634,81.6430,0.556760
43.666,81.6366,0.626800
43.697,81.6306,0.626800
43.728,81.6242,0.626800
43.760,81.6180,0.626800
43.790,81.6118,0.626800
43.822,81.6056,0.626800
43.853,81.5992,0.626800
43.884,81.5932,0.626800
43.915,81.5868,0.700468
43.946,81.5808,0.700468
43.977,81.5747,0.700468
44.007,81.5685,0.700468
44.038,81.5623,0.700468
44.070,81.5560,0.700468
44.100,81.5500,0.700468
44.132,81.5433,0.777762
44.163,81.5375,0.777762
44.193,81.5314,0.777762
44.223,81.5253,0.777762
44.255,81.5191,0.777762
44.285,81.5129,0.777762
44.317,81.5065,0.777762
44.349,81.5001,0.777762
44.379,81.4942,0.777762
44.410,81.4880,0.857780
44.442,81.4815,0.857780
44.473,81.4755,0.857780
44.505,81.4690,0.857780
44.536,81.4627,0.857780
44.567,81.4566,0.857780
44.598,81.4504,0.857780
44.630,81.4441,0.939654
44.662,81.4375,0.939654
44.693,81.4313,0.939654
44.725,81.4251,0.939654
44.755,81.4188,0.939654
44.786,81.4127,0.939654
44.818,81.4064,0.939654
44.849,81.4001,0.939654
44.879,81.3940,0.939654
44.910,81.3879,1.023751
44.940,81.3818,1.023751
44.971,81.3756,1.023751
45.002,81.3695,1.023751
45.034,81.3631,1.023751
45.064,81.3570,1.023751
45.095,81.3509,1.023751
45.127,81.3445,1.109233
45.159,81.3382,1.109233
45.189,81.3321,1.109233
45.220,81.3259,1.109233
45.252,81.3194,1.109233
45.282,81.3136,1.109233
45.314,81.3070,1.109233
45.344,81.3012,1.109233
45.376,81.2949,1.109233
45.406,81.2887,1.109233
45.437,81.2826,1.181073
45.468,81.2763,1.181073
45.498,81.2703,1.181073
45.529,81.2641,1.181073
45.560,81.2579,1.181073
45.592,81.2515,1.181073
45.625,81.2449,1.181073
45.655,81.2388,1.181073
45.687,81.2327,0.620488
45.717,81.2264,0.620488
45.749,81.2203,0.620488
45.780,81.2140,0.620488
45.810,81.2079,0.620488
45.842,81.2016,0.620488
45.872,81.1953,0.620488
45.904,81.1891,0.024129
45.935,81.1828,0.024129
45.966,81.1767,0.024129
45.997,81.1705,0.024129
46.028,81.1643,0.024129
46.060,81.1580,0.024129
46.091,81.1518,0.024129
46.122,81.1454,0.024129
46.154,81.1392,0.024129
46.186,81.1328,0.017411
46.216,81.1267,0.017411
46.248,81.1201,0.017411
46.279,81.1141,0.017411
46.311,81.1079,0.017411
46.340,81.1018,0.017411
46.372,81.0955,0.017411
46.403,81.0893,0.017411
46.434,81.0831,0.017317
46.466,81.0767,0.017317
46.497,81.0705,0.017317
46.528,81.0643,0.017317
46.558,81.0584,0.017317
46.589,81.0520,0.017317
46.620,81.0461,0.017317
46.650,81.0399,0.017223
46.682,81.0333,0.017223
46.713,81.0274,0.017223
46.744,81.0210,0.017223
46.775,81.0148,0.017223
46.806,81.0086,0.017223
46.837,81.0026,0.017223
46.868,80.9962,0.017223
46.898,80.9903,0.017157
46.930,80.9840,0.017157
46.960,80.9780,0.017157
46.992,80.9713,0.017157
47.022,80.9656,0.017157
47.053,80.9593,0.017157
47.084,80.9531,0.017157
47.116,80.9467,0.017157
47.147,80.9404,0.017157
47.178,80.9342,0.017157
47.209,80.9283,0.017157
47.240,80.9219,0.017157
47.271,80.9157,0.017157
47.302,80.9095,0.017157
47.333,80.9035,0.017157
47.364,80.8971,0.017157
47.395,80.8909,0.017138
47.426,80.8847,0.017138
47.456,80.8788,0.017138
47.487,80.8725,0.017138
47.518,80.8664,0.017138
47.550,80.8599,0.017138
47.582,80.8536,0.017138
47.612,80.8475,0.017138
47.643,80.8413,0.017138
47.674,80.8350,0.017138
47.706,80.8288,0.017138
47.737,80.8225,0.017138
47.768,80.8164,0.017138
47.799,80.8102,0.017138
47.829,80.8040,0.017138
47.861,80.7978,0.017138
47.891,80.7918,0.017138
47.921,80.7858,0.017138
47.953,80.7793,0.017138
47.983,80.7734,0.017138
48.014,80.7673,0.017138
48.044,80.7611,0.017138
48.076,80.7548,0.017138
48.108,80.7484,0.017138
48.139,80.7422,0.017147
48.169,80.7360,0.017147
48.200,80.7300,0.017147
48.231,80.7236,0.017147
48.262,80.7177,0.017147
48.293,80.7114,0.017147
48.324,80.7052,0.017147
48.355,80.6990,0.017147
48.386,80.6926,0.017166
48.417,80.6865,0.017166
48.449,80.6802,0.017166
48.480,80.6741,0.017166
48.510,80.6678,0.017166
48.542,80.6616,0.017166
48.573,80.6555,0.017166
48.603,80.6492,0.017166
48.634,80.6431,0.017185
48.665,80.6369,0.017185
48.696,80.6307,0.017185
48.727,80.6245,0.017185
48.759,80.6183,0.017185
48.790,80.6120,0.017185
48.821,80.6058,0.017185
48.852,80.5995,0.017185
48.883,80.5934,0.017185
48.915,80.5871,0.017185
48.946,80.5809,0.017185
48.977,80.5746,0.017185
49.009,80.5682,0.017185
49.040,80.5619,0.017185
49.071,80.5558,0.017185
49.102,80.5496,0.017185
49.132,80.5434,0.017213
49.163,80.5373,0.017213
49.195,80.5310,0.017213
49.226,80.5247,0.017213
49.256,80.5187,0.017213
49.288,80.5124,0.017213
49.320,80.5061,0.017213
49.350,80.5000,0.017213
49.383,80.4934,0.017223
49.413,80.4874,0.017223
49.444,80.4809,0.017223
49.475,80.4748,0.017223
49.507,80.4686,0.017223
49.538,80.4622,0.017223
49.570,80.4561,0.017223
49.601,80.4499,0.017223
49.631,80.4437,0.017223
49.662,80.4374,0.017260
49.693,80.4314,0.017260
49.724,80.4251,0.017260
49.756,80.4188,0.017260
49.787,80.4126,0.017260
49.819,80.4060,0.017260
49.849,80.4003,0.017260
49.881,80.3937,0.017260
49.911,80.3879,0.017260
49.942,80.3816,0.017289
49.973,80.3754,0.017289
50.004,80.3692,0.017289
50.035,80.3628,0.017289
50.065,80.3570,0.017289
50.096,80.3507,0.017289
50.129,80.3442,0.017223
50.159,80.3382,0.017223
50.189,80.3321,0.017223
50.220,80.3260,0.017223
50.250,80.3199,0.017223
50.280,80.3137,0.017223
50.311,80.3077,0.017223
50.342,80.3016,0.017223
50.373,80.2953,0.017223
50.404,80.2893,0.017223
50.436,80.2827,0.017251
50.467,80.2765,0.017251
50.499,80.2698,0.017251
50.528,80.2644,0.017251
50.560,80.2582,0.017251
50.591,80.2516,0.017251
50.622,80.2455,0.017251
50.654,80.2391,0.017251
50.686,80.2327,0.017260
50.716,80.2267,0.017260
50.748,80.2203,0.017260
50.779,80.2143,0.017260
50.810,80.2081,0.017260
50.841,80.2017,0.017260
50.872,80.1955,0.017260
50.903,80.1895,0.017260
50.934,80.1831,0.017242
50.966,80.1769,0.017242
50.996,80.1709,0.017242
51.027,80.1645,0.017242
51.059,80.1582,0.017242
51.090,80.1520,0.017242
51.121,80.1457,0.017242
51.153,80.1394,0.017242
51.184,80.1332,0.017260
51.215,80.1270,0.017260
51.245,80.1210,0.017260
51.277,80.1146,0.017260
51.309,80.1082,0.017260
51.338,80.1023,0.017260
51.369,80.0959,0.017260
51.400,80.0900,0.017260
51.431,80.0835,0.017270
51.462,80.0776,0.017270
51.495,80.0709,0.017270
51.525,80.0651,0.017270
51.556,80.0587,0.017270
51.587,80.0527,0.017270
51.618,80.0463,0.017270
51.650,80.0400,0.017270
51.680,80.0338,0.017289
51.712,80.0276,0.017289
51.743,80.0212,0.017289
51.774,80.0152,0.017289
51.805,80.0091,0.017289
51.837,80.0027,0.017289
51.867,79.9966,0.017289
51.898,79.9903,0.017251
51.928,79.9843,0.017251
51.959,79.9782,0.017251
51.990,79.9720,0.017251
52.021,79.9658,0.017251
52.052,79.9596,0.017251
52.083,79.9534,0.017251
52.114,79.9472,0.017251
52.146,79.9409,0.017251
52.176,79.9347,0.017204
52.208,79.9284,0.017204
52.240,79.9221,0.017204
52.271,79.9157,0.017204
52.302,79.9095,0.017204
52.333,79.9032,0.017204
52.364,79.8971,0.017204
52.395,79.8911,0.017204
52.425,79.8851,0.017204
52.455,79.8789,0.017204
52.487,79.8727,0.017204
52.518,79.8665,0.017204
52.548,79.8604,0.017204
52.579,79.8541,0.017204
52.610,79.8480,0.017204
52.641,79.8417,0.017204
52.672,79.8356,0.017242
52.703,79.8294,0.017242
52.735,79.8231,0.017242
52.766,79.8168,0.017242
52.797,79.8106,0.017242
52.829,79.8041,0.017242
52.860,79.7980,0.017242
52.891,79.7918,0.017242
52.922,79.7856,0.017194
52.953,79.7793,0.017194
52.985,79.7729,0.017194
53.016,79.7667,0.017194
53.048,79.7605,0.017194
53.079,79.7543,0.017194
53.110,79.7481,0.017194
53.141,79.7417,0.017194
53.173,79.7355,0.017128
53.204,79.7293,0.017128
53.235,79.7230,0.017128
53.266,79.7168,0.017128
53.298,79.7105,0.017128
53.329,79.7043,0.017128
53.360,79.6981,0.017128
53.391,79.6916,0.017128
53.423,79.6854,0.017091
53.454,79.6790,0.017091
53.486,79.6727,0.017091
53.518,79.6665,0.017091
53.548,79.6604,0.017091
53.578,79.6543,0.017091
53.610,79.6480,0.017091
53.641,79.6419,0.017091
53.673,79.6354,0.017053
53.704,79.6291,0.017053
53.734,79.6233,0.017053
53.764,79.6170,0.017053
53.796,79.6109,0.017053
53.826,79.6047,0.017053
53.857,79.5985,0.017053
53.889,79.5923,0.017034
53.919,79.5862,0.017034
53.951,79.5798,0.017034
53.982,79.5736,0.017034
54.013,79.5675,0.017034
54.043,79.5614,0.017034
54.073,79.5553,0.017034
54.104,79.5493,0.017034
54.136,79.5429,0.016968
54.166,79.5367,0.016968
54.197,79.5306,0.016968
54.229,79.5241,0.016968
54.260,79.5180,0.016968
54.291,79.5118,0.016968
54.322,79.5056,0.016968
54.354,79.4991,0.016968
54.385,79.4928,0.016931
54.417,79.4866,0.016931
54.449,79.4804,0.016931
54.480,79.4740,0.016931
54.512,79.4678,0.016931
54.544,79.4613,0.016931
54.574,79.4551,0.016931
54.604,79.4492,0.016931
54.636,79.4427,0.016940
54.666,79.4369,0.016940
54.698,79.4304,0.016940
54.729,79.4241,0.016940
54.761,79.4178,0.016940
54.792,79.4118,0.016940
54.824,79.4065,0.016940
54.856,79.4019,0.016940
54.888,79.3979,0.016865
54.919,79.3950,0.016865
54.950,79.3927,0.016865
54.981,79.3912,0.016865
55.011,79.3904,0.016865
55.042,79.3903,0.016865
55.075,79.3903,0.016865
55.105,79.3903,0.016865
55.136,79.3903,0.016629
55.166,79.3903,0.016629
55.197,79.3903,0.016629
55.227,79.3903,0.016629
55.258,79.3903,0.016629
55.290,79.3903,0.016629
55.320,79.3903,0.016629
55.352,79.3903,0.016629
55.383,79.3903,0.016507
55.415,79.3903,0.016507
55.446,79.3903,0.016507
55.478,79.3903,0.016507
55.509,79.3903,0.016507
55.541,79.3903,0.016507
55.571,79.3904,0.016507
55.603,79.3911,0.016507
55.634,79.3926,0.016507
55.664,79.3947,0.016507
55.695,79.3976,0.016507
55.726,79.4013,0.016507
55.757,79.4056,0.016507
55.788,79.4108,0.016507
55.820,79.4168,0.016507
55.850,79.4227,0.016507
55.881,79.4288,0.016507
55.911,79.4352,0.016507
55.942,79.4411,0.016412
55.974,79.4477,0.016412
56.006,79.4540,0.016412
56.037,79.4603,0.016412
56.069,79.4665,0.016412
56.101,79.4730,0.016412
56.132,79.4792,0.016356
56.164,79.4856,0.016356
56.193,79.4913,0.016356
56.225,79.4978,0.016356
56.256,79.5040,0.016356
56.286,79.5099,0.016356
56.316,79.5161,0.016356
56.347,79.5222,0.016356
56.379,79.5285,0.016356
56.410,79.5347,0.016356
56.440,79.5409,0.016375
56.470,79.5468,0.016375
56.502,79.5531,0.016375
56.533,79.5593,0.016375
56.564,79.5657,0.016375
56.596,79.5719,0.016375
56.627,79.5783,0.016375
56.659,79.5845,0.016356
56.690,79.5908,0.016356
56.722,79.5971,0.016356
56.753,79.6032,0.016356
56.784,79.6095,0.016356
56.815,79.6156,0.016356
56.845,79.6218,0.016356
56.877,79.6280,0.016356
56.908,79.6342,0.016328
56.938,79.6405,0.016328
56.969,79.6465,0.016328
57.000,79.6528,0.016328
57.032,79.6590,0.016328
57.063,79.6652,0.016328
57.094,79.6714,0.016328
57.124,79.6775,0.016328
57.156,79.6839,0.016328
57.187,79.6901,0.016328
57.219,79.6965,0.016328
57.250,79.7025,0.016328
57.281,79.7089,0.016328
57.312,79.7152,0.016328
57.343,79.7214,0.016328
57.375,79.7277,0.016328
57.405,79.7339,0.016309
57.438,79.7404,0.016309
57.468,79.7466,0.016309
57.500,79.7527,0.016309
57.531,79.7589,0.016309
57.561,79.7649,0.016309
57.592,79.7713,0.016309
57.624,79.7775,0.016309
57.655,79.7837,0.016309
57.686,79.7899,0.016346
57.717,79.7961,0.016346
57.747,79.8020,0.016346
57.779,79.8086,0.016346
57.810,79.8147,0.016346
57.841,79.8210,0.016346
57.872,79.8271,0.016346
57.904,79.8334,0.016365
57.935,79.8396,0.016365
57.967,79.8460,0.016365
57.997,79.8521,0.016365
58.029,79.8587,0.016365
58.061,79.8650,0.016365
58.090,79.8708,0.016365
58.123,79.8774,0.016365
58.153,79.8832,0.016365
58.184,79.8894,0.016356
58.214,79.8955,0.016356
58.245,79.9017,0.016356
58.276,79.9078,0.016356
58.307,79.9141,0.016356
58.338,79.9203,0.016356
58.370,79.9265,0.016356
58.402,79.9331,0.016365
58.431,79.9391,0.016365
58.464,79.9455,0.016365
58.495,79.9517,0.016365
58.526,79.9578,0.016365
58.557,79.9641,0.016365
58.588,79.9703,0.016365
58.618,79.9764,0.016365
58.649,79.9825,0.016375
58.680,79.9887,0.016375
58.711,79.9949,0.016375
58.742,80.0011,0.016375
58.772,80.0073,0.016375
58.803,80.0132,0.016375
58.834,80.0195,0.016375
58.865,80.0259,0.016375
58.897,80.0322,0.016375
58.928,80.0383,0.016441
58.958,80.0445,0.016441
58.990,80.0508,0.016441
59.021,80.0571,0.016441
59.052,80.0631,0.016441
59.084,80.0697,0.016441
59.115,80.0757,0.016441
59.147,80.0822,0.016469
59.178,80.0884,0.016469
59.209,80.0945,0.016469
59.240,80.1007,0.016469
59.271,80.1069,0.016469
59.302,80.1132,0.016469
59.333,80.1194,0.016469
59.365,80.1256,0.016469
59.396,80.1318,0.016422
59.427,80.1381,0.016422
59.457,80.1441,0.016422
59.488,80.1504,0.016422
59.519,80.1565,0.016422
59.550,80.1628,0.016422
59.581,80.1689,0.016422
59.612,80.1752,0.016422
59.643,80.1813,0.016403
59.674,80.1875,0.016403
59.705,80.1937,0.016403
59.736,80.1999,0.016403
59.767,80.2061,0.016403
59.798,80.2123,0.016403
59.828,80.2184,0.016403
59.859,80.2246,0.016403
59.890,80.2306,0.016412
59.921,80.2368,0.016412
59.952,80.2432,0.016412
59.983,80.2494,0.016412
60.014,80.2556,0.016412
60.046,80.2619,0.016412
60.076,80.2680,0.016412
60.108,80.2743,0.016412
60.138,80.2802,0.016337
60.169,80.2864,0.016337
60.199,80.2924,0.016337
60.230,80.2989,0.016337
60.262,80.3049,0.016337
60.292,80.3113,0.016337
60.323,80.3173,0.016337
60.354,80.3237,0.016337
60.386,80.3299,0.016281
60.417,80.3362,0.016281
60.448,80.3423,0.016281
60.479,80.3486,0.016281
60.510,80.3549,0.016281
60.542,80.3611,0.016281
60.573,80.3673,0.016281
60.605,80.3736,0.016281
60.635,80.3797,0.016271
60.667,80.3860,0.016271
60.698,80.3922,0.016271
60.728,80.3983,0.016271
60.759,80.4045,0.016271
60.790,80.4107,0.016271
60.821,80.4169,0.016271
60.852,80.4232,0.016271
60.884,80.4296,0.016215
60.914,80.4354,0.016215
60.945,80.4418,0.016215
60.976,80.4481,0.016215
61.007,80.4541,0.016215
61.039,80.4605,0.016215
61.070,80.4669,0.016215
61.101,80.4729,0.016215
61.132,80.4793,0.016215
61.164,80.4856,0.016158
61.194,80.4916,0.016158
61.225,80.4977,0.016158
61.256,80.5041,0.016158
61.288,80.5102,0.016158
61.319,80.5166,0.016158
61.350,80.5226,0.016158
61.381,80.5288,0.016158
61.413,80.5352,0.016149
61.445,80.5418,0.016149
61.476,80.5478,0.016149
61.508,80.5542,0.016149
61.538,80.5604,0.016149
61.570,80.5666,0.016149
61.600,80.5726,0.016149
61.632,80.5791,0.016149
61.663,80.5852,0.016149
61.694,80.5917,0.016083
61.725,80.5976,0.016083
61.755,80.6038,0.016083
61.787,80.6100,0.016083
61.817,80.6161,0.016083
61.849,80.6224,0.016083
61.879,80.6286,0.016083
61.910,80.6347,0.016036
61.942,80.6412,0.016036
61.973,80.6471,0.016036
62.005,80.6537,0.016036
62.035,80.6596,0.016036
62.066,80.6660,0.016036
62.097,80.6722,0.016036
62.128,80.6782,0.016036
62.160,80.6846,0.016026
62.191,80.6909,0.016026
62.222,80.6971,0.016026
62.253,80.7033,0.016026
62.283,80.7092,0.016026
62.314,80.7154,0.016026
62.344,80.7215,0.016026
62.375,80.7277,0.016026
62.406,80.7339,0.015894
62.438,80.7402,0.015894
62.468,80.7462,0.015894
62.499,80.7525,0.015894
62.530,80.7586,0.015894
62.562,80.7649,0.015894
62.592,80.7711,0.015894
62.622,80.7771,0.015894
62.653,80.7833,0.015800
62.685,80.7896,0.015800
62.716,80.7959,0.015800
62.747,80.8023,0.015800
62.778,80.8082,0.015800
62.808,80.8144,0.015800
62.840,80.8207,0.015800
62.870,80.8268,0.015800
62.901,80.8328,0.015772
62.931,80.8390,0.015772
62.962,80.8450,0.015772
62.994,80.8516,0.015772
63.026,80.8577,0.015772
63.057,80.8643,0.015772
63.089,80.8704,0.015772
63.119,80.8767,0.015772
63.150,80.8828,0.015649
63.181,80.8888,0.015649
63.213,80.8952,0.015649
63.244,80.9014,0.015649
63.275,80.9077,0.015649
63.307,80.9141,0.015649
63.337,80.9201,0.015649
63.369,80.9265,0.015470
63.399,80.9325,0.015470
63.431,80.9388,0.015470
63.462,80.9450,0.015470
63.493,80.9513,0.015470
63.524,80.9574,0.015470
63.555,80.9637,0.015470
63.586,80.9698,0.015470
63.618,80.9761,0.015470
63.649,80.9823,0.015338
63.679,80.9884,0.015338
63.711,80.9947,0.015338
63.741,81.0011,0.015338
63.772,81.0071,0.015338
63.804,81.0135,0.015338
63.834,81.0196,0.015338
63.866,81.0259,0.015338
63.897,81.0321,0.015244
63.927,81.0383,0.015244
63.958,81.0445,0.015244
63.989,81.0504,0.015244
64.021,81.0569,0.015244
64.052,81.0631,0.015244
64.083,81.0695,0.015244
64.115,81.0756,0.015244
64.146,81.0819,0.015188
64.178,81.0881,0.015188
64.210,81.0946,0.015188
64.240,81.1005,0.015188
64.271,81.1070,0.015188
64.302,81.1131,0.015188
64.334,81.1194,0.015188
64.364,81.1255,0.015188
64.395,81.1317,0.015188
64.427,81.1380,0.015103
64.458,81.1443,0.015103
64.488,81.1504,0.015103
64.519,81.1565,0.015103
64.551,81.1629,0.015103
64.582,81.1691,0.015103
64.612,81.1753,0.015103
64.644,81.1814,0.015103
64.674,81.1877,0.015009
64.706,81.1939,0.015009
64.738,81.2003,0.015009
64.769,81.2065,0.015009
64.801,81.2129,0.015009
64.831,81.2189,0.015009
64.862,81.2252,0.015009
64.894,81.2314,0.015009
64.925,81.2376,0.014886
64.956,81.2438,0.014886
64.987,81.2500,0.014886
65.018,81.2563,0.014886
65.048,81.2623,0.014886
65.080,81.2687,0.014886
65.111,81.2748,0.014886
65.142,81.2810,0.014886
65.173,81.2872,0.014669
65.205,81.2938,0.014669
65.235,81.2997,0.014669
65.266,81.3059,0.014669
65.298,81.3121,0.014669
65.328,81.3182,0.014669
65.359,81.3245,0.014669
65.391,81.3308,0.014669
65.422,81.3371,0.014528
65.454,81.3434,0.014528
65.484,81.3495,0.014528
65.515,81.3557,0.014528
65.547,81.3620,0.014528
65.578,81.3683,0.014528
65.610,81.3746,0.014528
65.640,81.3807,0.014528
65.671,81.3868,0.014415
65.702,81.3931,0.014415
65.733,81.3992,0.014415
65.764,81.4054,0.014415
65.795,81.4117,0.014415
65.826,81.4179,0.014415
65.857,81.4241,0.014415
65.888,81.4303,0.014415
65.918,81.4363,0.014311
65.949,81.4425,0.014311
65.980,81.4487,0.014311
66.011,81.4549,0.014311
66.042,81.4612,0.014311
66.073,81.4674,0.014311
66.104,81.4735,0.014311
66.135,81.4797,0.014311
66.167,81.4860,0.014161
66.198,81.4922,0.014161
66.229,81.4984,0.014161
66.260,81.5046,0.014161
66.291,81.5108,0.014161
66.322,81.5171,0.014161
66.353,81.5233,0.014161
66.385,81.5297,0.014161
66.416,81.5357,0.013963
66.448,81.5422,0.013963
66.479,81.5484,0.013963
66.510,81.5546,0.013963
66.541,81.5608,0.013963
66.572,81.5671,0.013963
66.603,81.5732,0.013963
66.634,81.5795,0.013963
66.665,81.5856,0.013963
66.697,81.5919,0.013784
66.728,81.5982,0.013784
66.758,81.6043,0.013784
66.789,81.6106,0.013784
66.821,81.6167,0.013784
66.851,81.6230,0.013784
66.883,81.6294,0.013784
66.914,81.6356,0.013595
66.945,81.6418,0.013595
66.976,81.6480,0.013595
67.007,81.6542,0.013595
67.039,81.6605,0.013595
67.070,81.6667,0.013595
67.101,81.6729,0.013595
67.133,81.6791,0.013595
67.163,81.6853,0.013435
67.195,81.6918,0.013435
67.225,81.6977,0.013435
67.257,81.7039,0.013435
67.286,81.7099,0.013435
67.318,81.7163,0.013435
67.348,81.7223,0.013435
67.379,81.7283,0.013435
67.410,81.7345,0.013247
67.441,81.7409,0.013247
67.472,81.7469,0.013247
67.503,81.7533,0.013247
67.534,81.7594,0.013247
67.565,81.7657,0.013247
67.596,81.7719,0.013247
67.627,81.7781,0.013247
67.658,81.7842,0.013030
67.689,81.7905,0.013030
67.720,81.7966,0.013030
67.752,81.8031,0.013030
67.783,81.8091,0.013030
67.814,81.8154,0.013030
67.845,81.8216,0.013030
67.875,81.8277,0.013030
67.907,81.8340,0.012776
67.937,81.8401,0.012776
67.969,81.8463,0.012776
68.000,81.8526,0.012776
68.031,81.8588,0.012776
68.063,81.8653,0.012776
68.094,81.8715,0.012776
68.126,81.8778,0.012474
68.158,81.8842,0.012474
68.190,81.8907,0.012474
68.221,81.8968,0.012474
68.252,81.9031,0.012474
68.283,81.9093,0.012474
68.314,81.9155,0.012474
68.345,81.9217,0.012474
68.377,81.9281,0.012116
68.408,81.9342,0.012116
68.439,81.9407,0.012116
68.471,81.9467,0.012116
68.501,81.9528,0.012116
68.531,81.9588,0.012116
68.562,81.9651,0.012116
68.593,81.9712,0.012116
68.624,81.9775,0.012116
68.655,81.9836,0.011664
68.686,81.9899,0.011664
68.718,81.9962,0.011664
68.749,82.0024,0.011664
68.780,82.0086,0.011664
68.812,82.0150,0.011664
68.843,82.0212,0.011664
68.873,82.0275,0.011061
68.905,82.0334,0.011061
68.936,82.0398,0.011061
68.966,82.0460,0.011061
68.997,82.0522,0.011061
69.028,82.0582,0.011061
69.059,82.0646,0.011061
69.090,82.0706,0.011061
69.121,82.0770,0.011061
69.152,82.0829,0.010251
69.184,82.0895,0.010251
69.215,82.0956,0.010251
69.247,82.1022,0.010251
69.277,82.1081,0.010251
69.309,82.1146,0.010251
69.339,82.1204,0.010251
69.371,82.1267,0.009148
69.402,82.1329,0.009148
69.432,82.1390,0.009148
69.463,82.1453,0.009148
69.494,82.1515,0.009148
69.525,82.1577,0.009148
69.557,82.1639,0.009148
69.588,82.1701,0.009148
69.618,82.1764,0.007471
69.649,82.1824,0.007471
69.681,82.1888,0.007471
69.711,82.1948,0.007471
69.743,82.2014,0.007471
69.774,82.2074,0.007471
69.804,82.2136,0.007471
69.835,82.2197,0.007471
69.868,82.2263,0.007471
69.899,82.2324,0.005097
69.930,82.2388,0.005097
69.962,82.2449,0.005097
69.993,82.2512,0.005097
70.024,82.2573,0.005097
70.054,82.2635,0.005097
70.085,82.2698,0.005097
70.116,82.2758,0.001809
70.147,82.2820,0.001809
70.178,82.2883,0.001809
70.210,82.2946,0.001809
70.240,82.3007,0.001809
70.271,82.3068,0.001809
70.302,82.3131,0.001809
70.333,82.3192,0.001809
70.364,82.3255,0.001809
70.395,82.3316,-0.002619
70.426,82.3379,-0.002619
70.458,82.3441,-0.002619
70.488,82.3504,-0.002619
70.520,82.3565,-0.002619
70.551,82.3628,-0.002619
70.583,82.3689,-0.002619
70.613,82.3740,-0.002619
70.644,82.3786,-0.002619
70.676,82.3823,-0.008197
70.706,82.3853,-0.008197
70.737,82.3877,-0.008197
70.769,82.3893,-0.008197
70.800,82.3901,-0.008197
70.832,82.3903,-0.008197
70.863,82.3903,-0.008197
70.894,82.3903,-0.008197
70.925,82.3903,-0.012521
70.956,82.3903,-0.012521
70.987,82.3903,-0.012521
71.018,82.3903,-0.012521
71.049,82.3903,-0.012521
71.081,82.3903,-0.012521
71.113,82.3903,-0.012521
71.143,82.3903,-0.012437
71.173,82.3903,-0.012437
71.203,82.3903,-0.012437
71.234,82.3903,-0.012437
71.266,82.3903,-0.012437
71.296,82.3903,-0.012437
71.327,82.3903,-0.012437
71.359,82.3903,-0.012437
71.389,82.3903,-0.012437
71.421,82.3903,-0.009996
71.452,82.3903,-0.009996
71.483,82.3903,-0.009996
71.514,82.3903,-0.009996
71.545,82.3903,-0.009996
71.576,82.3903,-0.009996
71.607,82.3903,-0.009996
71.638,82.3903,-0.009996
71.669,82.3903,-0.009996
71.701,82.3903,-0.008074
71.733,82.3903,-0.008074
71.764,82.3903,-0.008074
71.795,82.3903,-0.008074
71.827,82.3903,-0.008074
71.859,82.3903,-0.008074
71.889,82.3903,-0.008074
71.921,82.3903,-0.006557
71.951,82.3903,-0.006557
71.983,82.3903,-0.006557
72.014,82.3903,-0.006557
72.046,82.3903,-0.006557
72.077,82.3903,-0.006557
72.108,82.3903,-0.006557
72.139,82.3903,-0.006557
72.170,82.3903,-0.005333
72.202,82.3903,-0.005333
72.232,82.3903,-0.005333
72.263,82.3903,-0.005333
72.294,82.3903,-0.005333
72.325,82.3903,-0.005333
72.356,82.3903,-0.005333
72.387,82.3903,-0.005333
72.418,82.3903,-0.004372
72.449,82.3903,-0.004372
72.480,82.3903,-0.004372
72.510,82.3903,-0.004372
72.542,82.3903,-0.004372
72.573,82.3903,-0.004372
72.605,82.3903,-0.004372
72.637,82.3903,-0.004372
72.668,82.3903,-0.003514
72.699,82.3903,-0.003514
72.730,82.3903,-0.003514
72.762,82.3903,-0.003514
72.793,82.3903,-0.003514
72.824,82.3903,-0.003514
72.856,82.3903,-0.003514
72.887,82.3903,-0.003514
72.918,82.3903,-0.002751
72.948,82.3903,-0.002751
72.979,82.3903,-0.002751
73.010,82.3903,-0.002751
73.040,82.3903,-0.002751
73.071,82.3903,-0.002751
73.102,82.3903,-0.002751
73.133,82.3903,-0.002751
73.163,82.3903,-0.002007
73.195,82.3903,-0.002007
73.226,82.3903,-0.002007
73.257,82.3903,-0.002007
73.289,82.3903,-0.002007
73.320,82.3903,-0.002007
73.351,82.3903,-0.002007
73.383,82.3903,-0.002007
73.413,82.3903,-0.001338
73.444,82.3903,-0.001338
73.474,82.3903,-0.001338
73.505,82.3903,-0.001338
73.536,82.3903,-0.001338
73.566,82.3903,-0.001338
73.597,82.3903,-0.001338
73.628,82.3903,-0.001338
73.659,82.3903,-0.000744
73.690,82.3903,-0.000744
73.720,82.3903,-0.000744
73.752,82.3903,-0.000744
73.782,82.3903,-0.000744
73.813,82.3903,-0.000744
73.844,82.3903,-0.000744
73.875,82.3903,-0.000744
73.906,82.3903,-0.000254
73.937,82.3903,-0.000254
73.968,82.3903,-0.000254
73.999,82.3903,-0.000254
74.031,82.3903,-0.000254
74.061,82.3903,-0.000254
74.092,82.3903,-0.000254
74.124,82.3903,0.000226
74.157,82.3903,0.000226
74.187,82.3903,0.000226
74.219,82.3903,0.000226
74.250,82.3903,0.000226
74.280,82.3903,0.000226
74.312,82.3903,0.000226
74.343,82.3903,0.000226
74.374,82.3903,0.000678
74.405,82.3903,0.000678
74.436,82.3903,0.000678
74.467,82.3903,0.000678
74.498,82.3903,0.000678
74.529,82.3903,0.000678
74.560,82.3903,0.000678
74.590,82.3903,0.000678
74.622,82.3903,0.000678
74.653,82.3903,0.000999
74.685,82.3903,0.000999
74.716,82.3903,0.000999
74.747,82.3903,0.000999
74.778,82.3903,0.000999
74.809,82.3903,0.000999
74.841,82.3903,0.000999
74.872,82.3903,0.000999
74.903,82.3903,0.001281
74.934,82.3903,0.001281
74.965,82.3903,0.001281
74.995,82.3903,0.001281
75.026,82.3903,0.001281
75.057,82.3903,0.001281
75.088,82.3903,0.001281
75.119,82.3903,0.001281
75.151,82.3903,0.000989
75.182,82.3903,0.000989
75.213,82.3903,0.000989
75.245,82.3903,0.000989
75.275,82.3903,0.000989
75.307,82.3903,0.000989
75.338,82.3903,0.000989
75.368,82.3903,0.000989
75.399,82.3903,0.000254
75.431,82.3903,0.000254
75.461,82.3903,0.000254
75.492,82.3898,0.000254
75.523,82.3885,0.000254
75.554,82.3865,0.000254
75.586,82.3838,0.000254
75.616,82.3805,0.000254
75.647,82.3764,0.000254
75.678,82.3714,0.000038
75.709,82.3659,0.000038
75.741,82.3595,0.000038
75.772,82.3533,0.000038
75.803,82.3470,0.000038
75.834,82.3410,0.000038
75.866,82.3346,0.000038
75.898,82.3282,0.000038
75.928,82.3220,0.005257
75.959,82.3161,0.005257
75.990,82.3096,0.005257
76.022,82.3033,0.005257
76.052,82.2974,0.005257
76.084,82.2910,0.005257
76.115,82.2847,0.005257
76.147,82.2784,0.019446
76.177,82.2723,0.019446
76.208,82.2661,0.019446
76.240,82.2599,0.019446
76.271,82.2536,0.019446
76.302,82.2475,0.019446
76.333,82.2411,0.019446
76.365,82.2349,0.019446
76.395,82.2289,0.019446
76.425,82.2228,0.038930
76.457,82.2165,0.038930
76.488,82.2103,0.038930
76.519,82.2040,0.038930
76.551,82.1976,0.038930
76.583,82.1913,0.038930
76.613,82.1851,0.038930
76.645,82.1788,0.061222
76.676,82.1726,0.061222
76.707,82.1664,0.061222
76.738,82.1602,0.061222
76.770,82.1537,0.061222
76.801,82.1477,0.061222
76.832,82.1413,0.061222
76.863,82.1353,0.061222
76.894,82.1289,0.086933
76.925,82.1229,0.086933
76.956,82.1165,0.086933
76.987,82.1106,0.086933
77.017,82.1043,0.086933
77.048,82.0983,0.086933
77.079,82.0919,0.086933
77.111,82.0855,0.086933
77.143,82.0792,0.086933
77.175,82.0729,0.116564
77.205,82.0666,0.116564
77.236,82.0606,0.116564
77.266,82.0544,0.116564
77.298,82.0481,0.116564
77.329,82.0420,0.116564
77.360,82.0359,0.116564
77.391,82.0296,0.150190
77.422,82.0234,0.150190
77.454,82.0171,0.150190
77.484,82.0110,0.150190
77.516,82.0047,0.150190
77.547,81.9983,0.150190
77.578,81.9921,0.150190
77.609,81.9861,0.150190
77.640,81.9799,0.150190
77.670,81.9738,0.188093
77.702,81.9675,0.188093
77.734,81.9610,0.188093
77.764,81.9551,0.188093
77.796,81.9487,0.188093
77.826,81.9425,0.188093
77.858,81.9362,0.188093
77.889,81.9300,0.230443
77.921,81.9237,0.230443
77.953,81.9174,0.230443
77.983,81.9112,0.230443
78.014,81.9050,0.230443
78.045,81.8989,0.230443
78.076,81.8927,0.230443
78.107,81.8864,0.230443
78.138,81.8801,0.277240
78.169,81.8739,0.277240
78.200,81.8679,0.277240
78.231,81.8614,0.277240
78.262,81.8555,0.277240
78.293,81.8491,0.277240
78.324,81.8431,0.277240
78.354,81.8369,0.277240
78.385,81.8308,0.328616
78.416,81.8246,0.328616
78.446,81.8185,0.328616
78.477,81.8123,0.328616
78.508,81.8062,0.328616
78.539,81.8000,0.328616
78.570,81.7940,0.328616
78.600,81.7878,0.328616
78.631,81.7814,0.384514
78.662,81.7755,0.384514
78.692,81.7694,0.384514
78.724,81.7629,0.384514
78.755,81.7567,0.384514
78.786,81.7505,0.384514
78.817,81.7445,0.384514
78.848,81.7383,0.384514
78.879,81.7321,0.384514
78.910,81.7259,0.444445
78.940,81.7198,0.444445
78.971,81.7137,0.444445
79.002,81.7074,0.444445
79.034,81.7009,0.444445
79.065,81.6947,0.444445
79.097,81.6885,0.444445
79.128,81.6822,0.508267
79.160,81.6758,0.508267
79.192,81.6693,0.508267
79.222,81.6632,0.508267
79.253,81.6572,0.508267
79.285,81.6507,0.508267
79.317,81.6445,0.508267
79.347,81.6383,0.508267
79.379,81.6320,0.575754
79.410,81.6257,0.575754
79.442,81.6196,0.575754
79.473,81.6131,0.575754
79.504,81.6072,0.575754
79.535,81.6008,0.575754
79.567,81.5945,0.575754
79.598,81.5882,0.575754
79.629,81.5821,0.575754
79.659,81.5760,0.575754
79.690,81.5698,0.646755
79.721,81.5636,0.646755
79.753,81.5573,0.646755
79.784,81.5510,0.646755
79.815,81.5448,0.646755
79.846,81.5386,0.646755
79.878,81.5321,0.646755
79.909,81.5259,0.646755
79.940,81.5199,0.721515
79.971,81.5137,0.721515
80.002,81.5073,0.721515
80.033,81.5013,0.721515
80.063,81.4952,0.721515
80.094,81.4890,0.721515
80.125,81.4829,0.721515
80.156,81.4766,0.721515
80.187,81.4705,0.799573
80.217,81.4644,0.799573
80.248,81.4582,0.799573
80.279,81.4520,0.799573
80.311,81.4458,0.799573
80.341,81.4396,0.799573
80.373,81.4332,0.799573
80.404,81.4270,0.879798
80.435,81.4210,0.879798
80.466,81.4147,0.879798
80.497,81.4085,0.879798
80.528,81.4022,0.879798
80.560,81.3958,0.879798
80.590,81.3898,0.879798
80.621,81.3836,0.879798
80.653,81.3774,0.961917
80.683,81.3713,0.961917
80.713,81.3652,0.961917
80.744,81.3591,0.961917
80.775,81.3528,0.961917
80.806,81.3467,0.961917
80.837,81.3405,0.961917
80.868,81.3343,0.961917
80.900,81.3280,0.961917
80.932,81.3215,1.046250
80.963,81.3152,1.046250
80.994,81.3090,1.046250
81.025,81.3027,1.046250
81.055,81.2967,1.046250
81.087,81.2904,1.046250
81.120,81.2838,1.046250
81.150,81.2778,1.131383
81.182,81.2713,1.131383
81.212,81.2655,1.131383
81.244,81.2592,1.131383
81.274,81.2528,1.131383
81.306,81.2468,1.131383
81.336,81.2404,1.131383
81.368,81.2344,1.131383
81.398,81.2280,1.131383
81.430,81.2220,1.189731
81.461,81.2156,1.189731
81.493,81.2094,1.189731
81.522,81.2032,1.189731
81.554,81.1970,1.189731
81.586,81.1906,1.189731
81.616,81.1846,1.189731
81.647,81.1784,1.189731
81.678,81.1722,0.611867
81.709,81.1659,0.611867
81.741,81.1597,0.611867
81.773,81.1532,0.611867
81.803,81.1472,0.611867
81.835,81.1410,0.611867
81.865,81.1349,0.611867
81.895,81.1287,0.017788
81.926,81.1225,0.017788
81.958,81.1163,0.017788
81.989,81.1101,0.017788
82.019,81.1040,0.017788
82.050,81.0978,0.017788
82.081,81.0917,0.017788
82.113,81.0854,0.017788
82.142,81.0795,0.017439
82.173,81.0733,0.017439
82.204,81.0671,0.017439
82.236,81.0606,0.017439
82.268,81.0544,0.017439
82.300,81.0480,0.017439
82.331,81.0416,0.017439
82.362,81.0355,0.017439
82.391,81.0295,0.017326
82.422,81.0235,0.017326
82.453,81.0174,0.017326
82.483,81.0112,0.017326
82.514,81.0050,0.017326
82.545,80.9990,0.017326
82.576,80.9926,0.017326
82.607,80.9864,0.017326
82.637,80.9804,0.017251
82.668,80.9743,0.017251
82.699,80.9681,0.017251
82.730,80.9619,0.017251
82.761,80.9557,0.017251
82.792,80.9495,0.017251
82.823,80.9432,0.017251
82.855,80.9370,0.017251
82.886,80.9306,0.017204
82.917,80.9244,0.017204
82.948,80.9183,0.017204
82.979,80.9119,0.017204
83.010,80.9058,0.017204
83.041,80.8996,0.017204
83.073,80.8933,0.017204
83.104,80.8870,0.017204
83.136,80.8806,0.017194
83.167,80.8744,0.017194
83.198,80.8684,0.017194
83.229,80.8622,0.017194
83.260,80.8560,0.017194
83.292,80.8495,0.017194
83.321,80.8437,0.017194
83.353,80.8374,0.017194
83.383,80.8312,0.017223
83.414,80.8250,0.017223
83.446,80.8186,0.017223
83.477,80.8124,0.017223
83.509,80.8061,0.017223
83.540,80.7999,0.017223
83.572,80.7935,0.017223
83.603,80.7874,0.017223
83.634,80.7811,0.017213
83.666,80.7746,0.017213
83.697,80.7685,0.017213
83.728,80.7623,0.017213
83.759,80.7561,0.017213
83.790,80.7499,0.017213
83.821,80.7436,0.017213
83.852,80.7374,0.017213
83.883,80.7311,0.017223
83.914,80.7250,0.017223
83.945,80.7188,0.017223
83.975,80.7128,0.017223
84.007,80.7064,0.017223
84.038,80.7003,0.017223
84.069,80.6939,0.017223
84.102,80.6875,0.017223
84.132,80.6813,0.017260
84.164,80.6750,0.017260
84.195,80.6687,0.017260
84.227,80.6624,0.017260
84.258,80.6563,0.017260
84.288,80.6502,0.017260
84.319,80.6441,0.017260
84.349,80.6379,0.017260
84.379,80.6321,0.017289
84.411,80.6257,0.017289
84.442,80.6195,0.017289
84.473,80.6131,0.017289
84.504,80.6070,0.017289
84.535,80.6008,0.017289
84.566,80.5946,0.017289
84.598,80.5882,0.017289
84.629,80.5821,0.017204
84.660,80.5759,0.017204
84.691,80.5696,0.017204
84.723,80.5630,0.017204
84.754,80.5571,0.017204
84.786,80.5506,0.017204
84.817,80.5444,0.017204
84.848,80.5385,0.017204
84.879,80.5323,0.017204
84.911,80.5258,0.017176
84.940,80.5197,0.017176
84.972,80.5134,0.017176
85.003,80.5073,0.017176
85.034,80.5010,0.017176
85.065,80.4949,0.017176
85.096,80.4886,0.017176
85.127,80.4824,0.017223
85.158,80.4762,0.017223
85.189,80.4701,0.017223
85.219,80.4639,0.017223
85.251,80.4576,0.017223
85.283,80.4512,0.017223
85.314,80.4451,0.017223
85.345,80.4387,0.017223
85.376,80.4327,0.017223
85.408,80.4263,0.017223
85.438,80.4203,0.017298
85.469,80.4139,0.017298
85.500,80.4077,0.017298
85.532,80.4014,0.017298
85.563,80.3953,0.017298
85.594,80.3891,0.017298
85.625,80.3829,0.017298
85.656,80.3766,0.017298
85.686,80.3707,0.017336
85.718,80.3643,0.017336
85.749,80.3581,0.017336
85.780,80.3519,0.017336
85.812,80.3456,0.017336
85.842,80.3394,0.017336
85.874,80.3331,0.017336
85.905,80.3269,0.017336
85.937,80.3206,0.017298
85.969,80.3141,0.017298
86.000,80.3080,0.017298
86.031,80.3016,0.017298
86.062,80.2955,0.017298
86.093,80.2892,0.017298
86.123,80.2831,0.017298
86.154,80.2770,0.017307
86.185,80.2708,0.017307
86.216,80.2647,0.017307
86.248,80.2583,0.017307
86.279,80.2521,0.017307
86.310,80.2458,0.017307
86.342,80.2396,0.017307
86.373,80.2331,0.017307
86.405,80.2269,0.017307
86.436,80.2205,0.017260
86.468,80.2143,0.017260
86.499,80.2079,0.017260
86.530,80.2019,0.017260
86.562,80.1955,0.017260
86.592,80.1895,0.017260
86.623,80.1833,0.017260
86.654,80.1769,0.017260
86.686,80.1707,0.017279
86.717,80.1645,0.017279
86.748,80.1583,0.017279
86.778,80.1521,0.017279
86.808,80.1462,0.017279
86.840,80.1400,0.017279
86.870,80.1338,0.017279
86.901,80.1277,0.017336
86.932,80.1215,0.017336
86.962,80.1154,0.017336
86.994,80.1090,0.017336
87.025,80.1028,0.017336
87.057,80.0964,0.017336
87.087,80.0905,0.017336
87.118,80.0842,0.017336
87.150,80.0780,0.017279
87.181,80.0715,0.017279
87.213,80.0653,0.017279
87.246,80.0587,0.017279
87.276,80.0527,0.017279
87.308,80.0462,0.017279
87.338,80.0403,0.017279
87.369,80.0342,0.017279
87.399,80.0280,0.017307
87.430,80.0219,0.017307
87.461,80.0156,0.017307
87.492,80.0095,0.017307
87.524,80.0032,0.017307
87.555,79.9970,0.017307
87.585,79.9909,0.017307
87.616,79.9846,0.017307
87.647,79.9785,0.017270
87.676,79.9725,0.017270
87.707,79.9666,0.017270
87.737,79.9604,0.017270
87.769,79.9542,0.017270
87.799,79.9480,0.017270
87.830,79.9420,0.017270
87.862,79.9355,0.017270
87.893,79.9294,0.017213
87.923,79.9232,0.017213
87.954,79.9170,0.017213
87.984,79.9110,0.017213
88.015,79.9047,0.017213
88.047,79.8985,0.017213
88.077,79.8923,0.017213
88.109,79.8861,0.017213
88.139,79.8800,0.017279
88.170,79.8737,0.017279
88.201,79.8675,0.017279
88.232,79.8615,0.017279
88.263,79.8553,0.017279
88.294,79.8490,0.017279
88.325,79.8429,0.017279
88.357,79.8365,0.017279
88.387,79.8304,0.017251
88.418,79.8243,0.017251
88.450,79.8179,0.017251
88.482,79.8116,0.017251
88.513,79.8054,0.017251
88.544,79.7990,0.017251
88.574,79.7931,0.017251
88.606,79.7868,0.017251
88.636,79.7807,0.017157
88.668,79.7744,0.017157
88.698,79.7680,0.017157
88.730,79.7620,0.017157
88.760,79.7558,0.017157
88.792,79.7496,0.017157
88.822,79.7433,0.017157
88.853,79.7373,0.017157
88.884,79.7311,0.017138
88.915,79.7247,0.017138
88.946,79.7185,0.017138
88.978,79.7123,0.017138
89.009,79.7060,0.017138
89.039,79.6999,0.017138
89.070,79.6939,0.017138
89.102,79.6874,0.017138
89.133,79.6813,0.017100
89.164,79.6750,0.017100
89.195,79.6689,0.017100
89.227,79.6626,0.017100
89.257,79.6565,0.017100
89.288,79.6502,0.017100
89.319,79.6441,0.017100
89.350,79.6378,0.017100
89.381,79.6316,0.017081
89.412,79.6254,0.017081
89.444,79.6192,0.017081
89.474,79.6131,0.017081
89.506,79.6067,0.017081
89.538,79.6002,0.017081
89.569,79.5941,0.017081
89.601,79.5877,0.017081
89.633,79.5814,0.017091
89.664,79.5750,0.017091
89.696,79.5687,0.017091
89.726,79.5626,0.017091
89.757,79.5564,0.017091
89.787,79.5505,0.017091
89.819,79.5442,0.017091
89.850,79.5380,0.017091
89.881,79.5315,0.017091
89.911,79.5256,0.017025
89.942,79.5195,0.017025
89.973,79.5133,0.017025
90.004,79.5071,0.017025
90.035,79.5008,0.017025
90.065,79.4948,0.017025
90.097,79.4885,0.017025
90.129,79.4819,0.017025
90.160,79.4758,0.017025
90.191,79.4695,0.016959
90.222,79.4636,0.016959
90.252,79.4575,0.016959
90.284,79.4512,0.016959
90.315,79.4448,0.016959
90.345,79.4389,0.016959
90.375,79.4329,0.016959
90.407,79.4265,0.016912
90.438,79.4204,0.016912
90.469,79.4142,0.016912
90.500,79.4079,0.016912
90.532,79.4017,0.016912
90.564,79.3951,0.016912
90.593,79.3891,0.016912
90.624,79.3831,0.016912
90.654,79.3770,0.016912
90.686,79.3708,0.016884
90.716,79.3646,0.016884
90.748,79.3590,0.016884
90.778,79.3542,0.016884
90.811,79.3498,0.016884
90.841,79.3466,0.016884
90.873,79.3439,0.016884
90.904,79.3419,0.016752
90.935,79.3408,0.016752
90.967,79.3403,0.016752
90.998,79.3403,0.016752
91.030,79.3403,0.016752
91.061,79.3403,0.016752
91.092,79.3403,0.016752
91.123,79.3403,0.016752
91.154,79.3403,0.016563
91.185,79.3403,0.016563
91.216,79.3403,0.016563
91.247,79.3403,0.016563
91.279,79.3403,0.016563
91.309,79.3403,0.016563
91.340,79.3403,0.016563
91.371,79.3403,0.016563
91.402,79.3403,0.016544
91.433,79.3403,0.016544
91.465,79.3403,0.016544
91.496,79.3403,0.016544
91.528,79.3403,0.016544
91.558,79.3405,0.016544
91.589,79.3415,0.016544
91.620,79.3432,0.016544
91.651,79.3456,0.016497
91.683,79.3488,0.016497
91.713,79.3527,0.016497
91.745,79.3575,0.016497
91.776,79.3627,0.016497
91.807,79.3690,0.016497
91.839,79.3751,0.016497
91.870,79.3814,0.016497
91.901,79.3877,0.016309
91.933,79.3940,0.016309
91.963,79.4001,0.016309
91.994,79.4061,0.016309
92.025,79.4123,0.016309
92.056,79.4188,0.016309
92.088,79.4250,0.016309
92.118,79.4311,0.016309
92.149,79.4371,0.016290
92.180,79.4433,0.016290
92.212,79.4497,0.016290
92.243,79.4560,0.016290
92.274,79.4622,0.016290
92.306,79.4686,0.016290
92.336,79.4747,0.016290
92.368,79.4809,0.016290
92.398,79.4870,0.016346
92.429,79.4932,0.016346
92.461,79.4995,0.016346
92.493,79.5058,0.016346
92.523,79.5120,0.016346
92.554,79.5182,0.016346
92.585,79.5243,0.016346
92.616,79.5305,0.016346
92.647,79.5367,0.016290
92.678,79.5429,0.016290
92.708,79.5491,0.016290
92.739,79.5552,0.016290
92.771,79.5617,0.016290
92.802,79.5679,0.016290
92.833,79.5741,0.016290
92.864,79.5803,0.016290
92.895,79.5865,0.016328
92.925,79.5924,0.016328
92.956,79.5986,0.016328
92.987,79.6048,0.016328
93.018,79.6109,0.016328
93.049,79.6172,0.016328
93.080,79.6233,0.016328
93.111,79.6296,0.016328
93.142,79.6358,0.016328
93.174,79.6420,0.016394
93.206,79.6485,0.016394
93.236,79.6545,0.016394
93.268,79.6610,0.016394
93.299,79.6671,0.016394
93.330,79.6735,0.016394
93.361,79.6796,0.016394
93.392,79.6859,0.016394
93.424,79.6921,0.016394
93.455,79.6986,0.016394
93.486,79.7045,0.016394
93.517,79.7109,0.016394
93.548,79.7171,0.016394
93.579,79.7234,0.016394
93.610,79.7295,0.016394
93.641,79.7357,0.016384
93.672,79.7417,0.016384
93.703,79.7478,0.016384
93.734,79.7541,0.016384
93.764,79.7601,0.016384
93.796,79.7667,0.016384
93.827,79.7727,0.016384
93.858,79.7791,0.016384
93.890,79.7853,0.016403
93.921,79.7917,0.016403
93.952,79.7978,0.016403
93.982,79.8039,0.016403
94.013,79.8100,0.016403
94.045,79.8163,0.016403
94.075,79.8224,0.016403
94.107,79.8288,0.016403
94.139,79.8351,0.016403
94.169,79.8412,0.016403
94.199,79.8473,0.016403
94.231,79.8536,0.016403
94.262,79.8598,0.016403
94.293,79.8661,0.016403
94.324,79.8722,0.016403
94.355,79.8784,0.016403
94.386,79.8845,0.016394
94.417,79.8909,0.016394
94.448,79.8969,0.016394
94.479,79.9033,0.016394
94.511,79.9095,0.016394
94.542,79.9159,0.016394
94.573,79.9219,0.016394
94.604,79.9284,0.016394
94.635,79.9343,0.016403
94.666,79.9408,0.016403
94.698,79.9469,0.016403
94.728,79.9529,0.016403
94.759,79.9590,0.016403
94.790,79.9654,0.016403
94.822,79.9717,0.016403
94.853,79.9780,0.016403
94.884,79.9843,0.016403
94.915,79.9904,0.016403
94.946,79.9965,0.016403
94.978,80.0029,0.016403
95.008,80.0090,0.016403
95.039,80.0152,0.016403
95.071,80.0214,0.016403
95.101,80.0275,0.016403
95.132,80.0337,0.016403
95.163,80.0399,0.016403
95.194,80.0462,0.016403
95.226,80.0525,0.016403
95.257,80.0587,0.016403
95.289,80.0651,0.016403
95.320,80.0713,0.016403
95.351,80.0776,0.016403
95.382,80.0837,0.016403
95.412,80.0897,0.016422
95.443,80.0959,0.016422
95.473,80.1020,0.016422
95.505,80.1085,0.016422
95.537,80.1147,0.016422
95.568,80.1211,0.016422
95.600,80.1273,0.016422
95.631,80.1337,0.016422
95.662,80.1397,0.016422
95.692,80.1459,0.016422
95.724,80.1521,0.016422
95.756,80.1586,0.016422
95.788,80.1648,0.016422
95.819,80.1712,0.016422
95.850,80.1774,0.016422
95.881,80.1836,0.016460
95.911,80.1896,0.016460
95.943,80.1959,0.016460
95.973,80.2021,0.016460
96.005,80.2082,0.016460
96.035,80.2143,0.016460
96.066,80.2206,0.016460
96.098,80.2269,0.016460
96.129,80.2331,0.016450
96.159,80.2392,0.016450
96.192,80.2458,0.016450
96.222,80.2517,0.016450
96.253,80.2579,0.016450
96.285,80.2644,0.016450
96.316,80.2704,0.016450
96.346,80.2768,0.016450
96.377,80.2827,0.016450
96.408,80.2889,0.016356
96.439,80.2951,0.016356
96.470,80.3015,0.016356
96.501,80.3077,0.016356
96.532,80.3139,0.016356
96.564,80.3202,0.016356
96.594,80.3261,0.016356
96.625,80.3325,0.016356
96.656,80.3385,0.016318
96.687,80.3450,0.016318
96.719,80.3512,0.016318
96.750,80.3574,0.016318
96.781,80.3636,0.016318
96.813,80.3699,0.016318
96.843,80.3760,0.016318
96.874,80.3822,0.016318
96.905,80.3883,0.016328
96.936,80.3946,0.016328
96.967,80.4009,0.016328
96.999,80.4070,0.016328
97.029,80.4134,0.016328
97.063,80.4200,0.016328
97.091,80.4255,0.016328
97.121,80.4318,0.016328
97.152,80.4378,0.016328
97.183,80.4442,0.016281
97.215,80.4504,0.016281
97.245,80.4565,0.016281
97.277,80.4627,0.016281
97.307,80.4689,0.016281
97.338,80.4751,0.016281
97.369,80.4812,0.016281
97.401,80.4874,0.016205
97.431,80.4936,0.016205
97.462,80.4998,0.016205
97.493,80.5058,0.016205
97.524,80.5123,0.016205
97.555,80.5182,0.016205
97.585,80.5244,0.016205
97.616,80.5305,0.016205
97.646,80.5366,0.016205
97.677,80.5427,0.016149
97.707,80.5489,0.016149
97.739,80.5552,0.016149
97.771,80.5615,0.016149
97.802,80.5676,0.016149
97.832,80.5738,0.016149
97.864,80.5801,0.016149
97.894,80.5862,0.016083
97.927,80.5929,0.016083
97.957,80.5987,0.016083
97.988,80.6049,0.016083
98.019,80.6113,0.016083
98.050,80.6173,0.016083
98.082,80.6238,0.016083
98.113,80.6299,0.016083
98.144,80.6362,0.016083
98.174,80.6423,0.016045
98.205,80.6485,0.016045
98.237,80.6547,0.016045
98.268,80.6609,0.016045
98.299,80.6672,0.016045
98.330,80.6733,0.016045
98.361,80.6796,0.016045
98.392,80.6857,0.016017
98.423,80.6920,0.016017
98.453,80.6980,0.016017
98.484,80.7042,0.016017
98.515,80.7104,0.016017
98.546,80.7166,0.016017
98.577,80.7229,0.016017
98.609,80.7292,0.016017
98.640,80.7355,0.015951
98.672,80.7417,0.015951
98.702,80.7479,0.015951
98.733,80.7539,0.015951
98.763,80.7600,0.015951
98.794,80.7662,0.015951
98.825,80.7722,0.015951
98.856,80.7786,0.015951
98.888,80.7849,0.015847
98.918,80.7910,0.015847
98.950,80.7972,0.015847
98.981,80.8035,0.015847
99.012,80.8097,0.015847
99.044,80.8160,0.015847
99.074,80.8221,0.015847
99.105,80.8283,0.015847
99.136,80.8346,0.015772
99.168,80.8408,0.015772
99.198,80.8469,0.015772
99.229,80.8532,0.015772
99.261,80.8594,0.015772
99.292,80.8656,0.015772
99.322,80.8717,0.015772
99.352,80.8778,0.015772
99.384,80.8841,0.015678
99.415,80.8904,0.015678
99.446,80.8964,0.015678
99.477,80.9028,0.015678
99.508,80.9088,0.015678
99.539,80.9151,0.015678
99.570,80.9213,0.015678
99.601,80.9276,0.015678
99.632,80.9337,0.015508
99.663,80.9399,0.015508
99.694,80.9461,0.015508
99.726,80.9525,0.015508
99.757,80.9588,0.015508
99.787,80.9647,0.015508
99.818,80.9708,0.015508
99.849,80.9771,0.015508
99.881,80.9835,0.015433
99.912,80.9897,0.015433
99.943,80.9959,0.015433
99.973,81.0021,0.015433
100.004,81.0081,0.015433
100.035,81.0145,0.015433
100.066,81.0205,0.015433
100.098,81.0270,0.015433
100.130,81.0332,0.015367
100.161,81.0395,0.015367
100.192,81.0456,0.015367
100.223,81.0518,0.015367
100.254,81.0581,0.015367
100.286,81.0647,0.015367
100.317,81.0706,0.015367
100.348,81.0768,0.015367
100.379,81.0831,0.015216
100.410,81.0894,0.015216
100.442,81.0958,0.015216
100.473,81.1019,0.015216
100.504,81.1080,0.015216
100.535,81.1143,0.015216
100.566,81.1205,0.015216
100.597,81.1267,0.015216
100.629,81.1332,0.015122
100.660,81.1395,0.015122
100.691,81.1456,0.015122
100.722,81.1516,0.015122
100.753,81.1580,0.015122
100.784,81.1642,0.015122
100.815,81.1704,0.015122
100.847,81.1768,0.015122
100.878,81.1829,0.015122
100.909,81.1891,0.015027
100.940,81.1954,0.015027
100.971,81.2016,0.015027
101.002,81.2077,0.015027
101.033,81.2140,0.015027
101.065,81.2202,0.015027
101.095,81.2264,0.015027
101.126,81.2327,0.014933
101.157,81.2387,0.014933
101.188,81.2451,0.014933
101.219,81.2511,0.014933
101.251,81.2577,0.014933
101.281,81.2636,0.014933
101.312,81.2697,0.014933
101.343,81.2760,0.014933
101.374,81.2821,0.014933
101.406,81.2886,0.014933
101.438,81.2949,0.014782
101.469,81.3011,0.014782
101.499,81.3072,0.014782
101.530,81.3134,0.014782
101.562,81.3197,0.014782
101.593,81.3260,0.014782
101.624,81.3322,0.014782
101.656,81.3384,0.014603
101.687,81.3447,0.014603
101.719,81.3509,0.014603
101.750,81.3574,0.014603
101.781,81.3635,0.014603
101.811,81.3695,0.014603
101.842,81.3757,0.014603
101.873,81.3819,0.014603
101.904,81.3883,0.014443
101.935,81.3943,0.014443
101.966,81.4006,0.014443
101.998,81.4069,0.014443
102.028,81.4130,0.014443
102.059,81.4190,0.014443
102.090,81.4252,0.014443
102.120,81.4313,0.014443
102.152,81.4376,0.014283
102.183,81.4440,0.014283
102.214,81.4500,0.014283
102.245,81.4562,0.014283
102.276,81.4624,0.014283
102.306,81.4686,0.014283
102.338,81.4748,0.014283
102.369,81.4813,0.014283
102.400,81.4872,0.014066
102.431,81.4936,0.014066
102.463,81.4999,0.014066
102.493,81.5060,0.014066
102.524,81.5122,0.014066
102.555,81.5185,0.014066
102.586,81.5246,0.014066
102.617,81.5307,0.014066
102.648,81.5369,0.013878
102.679,81.5431,0.013878
102.710,81.5491,0.013878
102.741,81.5556,0.013878
102.771,81.5615,0.013878
102.803,81.5679,0.013878
102.834,81.5741,0.013878
102.866,81.5805,0.013878
102.897,81.5867,0.013718
102.929,81.5930,0.013718
102.959,81.5990,0.013718
102.989,81.6052,0.013718
103.022,81.6116,0.013718
103.052,81.6177,0.013718
103.083,81.6242,0.013718
103.114,81.6301,0.013718
103.146,81.6366,0.013548
103.177,81.6428,0.013548
103.208,81.6490,0.013548
103.240,81.6554,0.013548
103.270,81.6614,0.013548
103.302,81.6676,0.013548
103.332,81.6739,0.013548
103.364,81.6801,0.013548
103.395,81.6865,0.013369
103.427,81.6929,0.013369
103.458,81.6991,0.013369
103.490,81.7053,0.013369
103.522,81.7118,0.013369
103.554,81.7181,0.013369
103.586,81.7246,0.013369
103.618,81.7309,0.013369
103.649,81.7373,0.013124
103.680,81.7434,0.013124
103.712,81.7497,0.013124
103.743,81.7560,0.013124
103.774,81.7621,0.013124
103.805,81.7684,0.013124
103.837,81.7746,0.013124
103.868,81.7809,0.012823
103.899,81.7870,0.012823
103.930,81.7932,0.012823
103.960,81.7994,0.012823
103.991,81.8055,0.012823
104.023,81.8119,0.012823
104.054,81.8180,0.012823
104.085,81.8243,0.012823
104.116,81.8307,0.012823
104.148,81.8370,0.012531
104.178,81.8429,0.012531
104.210,81.8494,0.012531
104.240,81.8553,0.012531
104.271,81.8617,0.012531
104.303,81.8677,0.012531
104.334,81.8741,0.012531
104.365,81.8803,0.012531
104.397,81.8867,0.012210
104.428,81.8929,0.012210
104.458,81.8990,0.012210
104.489,81.9050,0.012210
104.519,81.9112,0.012210
104.550,81.9172,0.012210
104.581,81.9234,0.012210
104.611,81.9295,0.012210
104.643,81.9358,0.012210
104.674,81.9420,0.012210
104.705,81.9482,0.011702
104.736,81.9546,0.011702
104.767,81.9608,0.011702
104.798,81.9670,0.011702
104.829,81.9732,0.011702
104.861,81.9794,0.011702
104.892,81.9857,0.011702
104.924,81.9920,0.011127
104.955,81.9982,0.011127
104.986,82.0045,0.011127
105.018,82.0109,0.011127
105.049,82.0171,0.011127
105.081,82.0235,0.011127
105.113,82.0297,0.011127
105.144,82.0362,0.011127
105.176,82.0425,0.010354
105.206,82.0486,0.010354
105.238,82.0549,0.010354
105.269,82.0611,0.010354
105.301,82.0674,0.010354
105.332,82.0736,0.010354
105.363,82.0801,0.010354
105.394,82.0862,0.010354
105.424,82.0921,0.009167
105.454,82.0982,0.009167
105.485,82.1043,0.009167
105.516,82.1105,0.009167
105.547,82.1167,0.009167
105.580,82.1232,0.009167
105.610,82.1292,0.009167
105.640,82.1354,0.009167
105.672,82.1416,0.007509
105.702,82.1477,0.007509
105.732,82.1536,0.007509
105.763,82.1601,0.007509
105.794,82.1660,0.007509
105.825,82.1722,0.007509
105.857,82.1787,0.007509
105.886,82.1845,0.007509
105.918,82.1910,0.005012
105.949,82.1972,0.005012
105.980,82.2034,0.005012
106.011,82.2096,0.005012
106.043,82.2159,0.005012
106.074,82.2220,0.005012
106.104,82.2283,0.005012
106.136,82.2345,0.001649
106.168,82.2409,0.001649
106.199,82.2471,0.001649
106.231,82.2533,0.001649
106.262,82.2595,0.001649
106.293,82.2657,0.001649
106.324,82.2722,0.001649
106.354,82.2781,0.001649
106.386,82.2845,-0.002911
106.417,82.2908,-0.002911
106.448,82.2970,-0.002911
106.479,82.3031,-0.002911
106.510,82.3093,-0.002911
106.542,82.3156,-0.002911
106.573,82.3214,-0.002911
106.604,82.3261,-0.002911
106.635,82.3304,-0.008536
106.666,82.3337,-0.008536
106.697,82.3366,-0.008536
106.729,82.3385,-0.008536
106.760,82.3398,-0.008536
106.792,82.3403,-0.008536
106.822,82.3403,-0.008536
106.853,82.3403,-0.008536
106.884,82.3403,-0.008536
106.914,82.3403,-0.012597
106.946,82.3403,-0.012597
106.977,82.3403,-0.012597
107.008,82.3403,-0.012597
107.039,82.3403,-0.012597
107.070,82.3403,-0.012597
107.102,82.3403,-0.012597
107.133,82.3403,-0.012305
107.164,82.3403,-0.012305
107.196,82.3403,-0.012305
107.228,82.3403,-0.012305
107.259,82.3403,-0.012305
107.289,82.3403,-0.012305
107.319,82.3403,-0.012305
107.350,82.3403,-0.012305
107.382,82.3403,-0.009770
107.413,82.3403,-0.009770
107.444,82.3403,-0.009770
107.475,82.3403,-0.009770
107.506,82.3403,-0.009770
107.537,82.3403,-0.009770
107.568,82.3403,-0.009770
107.599,82.3403,-0.009770
107.630,82.3403,-0.007858
107.660,82.3403,-0.007858
107.692,82.3403,-0.007858
107.724,82.3403,-0.007858
107.754,82.3403,-0.007858
107.785,82.3403,-0.007858
107.817,82.3403,-0.007858
107.847,82.3403,-0.007858
107.879,82.3403,-0.006388
107.910,82.3403,-0.006388
107.942,82.3403,-0.006388
107.973,82.3403,-0.006388
108.005,82.3403,-0.006388
108.035,82.3403,-0.006388
108.067,82.3403,-0.006388
108.097,82.3403,-0.006388
108.129,82.3403,-0.006388
108.159,82.3403,-0.006388
108.189,82.3403,-0.005229
108.221,82.3403,-0.005229
108.252,82.3403,-0.005229
108.282,82.3403,-0.005229
108.313,82.3403,-0.005229
108.345,82.3403,-0.005229
108.376,82.3403,-0.005229
108.408,82.3403,-0.004268
108.439,82.3403,-0.004268
108.469,82.3403,-0.004268
108.501,82.3403,-0.004268
108.532,82.3403,-0.004268
108.564,82.3403,-0.004268
108.594,82.3403,-0.004268
108.625,82.3403,-0.004268
108.656,82.3403,-0.003392
108.687,82.3403,-0.003392
108.718,82.3403,-0.003392
108.749,82.3403,-0.003392
108.780,82.3403,-0.003392
108.812,82.3403,-0.003392
108.843,82.3403,-0.003392
108.874,82.3403,-0.003392
108.905,82.3403,-0.002619
108.936,82.3403,-0.002619
108.967,82.3403,-0.002619
108.998,82.3403,-0.002619
109.029,82.3403,-0.002619
109.061,82.3403,-0.002619
109.091,82.3403,-0.002619
109.123,82.3403,-0.002619
109.154,82.3403,-0.001931
109.184,82.3403,-0.001931
109.216,82.3403,-0.001931
109.246,82.3403,-0.001931
109.277,82.3403,-0.001931
109.308,82.3403,-0.001931
109.339,82.3403,-0.001931
109.371,82.3403,-0.001931
109.402,82.3403,-0.001338
109.433,82.3403,-0.001338
109.464,82.3403,-0.001338
109.495,82.3403,-0.001338
109.525,82.3403,-0.001338
109.557,82.3403,-0.001338
109.588,82.3403,-0.001338
109.619,82.3403,-0.001338
109.650,82.3403,-0.000782
109.680,82.3403,-0.000782
109.711,82.3403,-0.000782
109.742,82.3403,-0.000782
109.774,82.3403,-0.000782
109.805,82.3403,-0.000782
109.836,82.3403,-0.000782
109.867,82.3403,-0.000782
109.898,82.3403,-0.000245
109.928,82.3403,-0.000245
109.960,82.3403,-0.000245
109.990,82.3403,-0.000245
110.021,82.3403,-0.000245
110.052,82.3403,-0.000245
110.083,82.3403,-0.000245
110.114,82.3403,0.000236
110.145,82.3403,0.000236
110.177,82.3403,0.000236
110.207,82.3403,0.000236
110.238,82.3403,0.000236
110.270,82.3403,0.000236
110.300,82.3403,0.000236
110.331,82.3403,0.000236
110.362,82.3403,0.000236
110.394,82.3403,0.000236
110.425,82.3403,0.000603
110.457,82.3403,0.000603
110.488,82.3403,0.000603
110.519,82.3403,0.000603
110.550,82.3403,0.000603
110.582,82.3403,0.000603
110.614,82.3403,0.000603
110.646,82.3403,0.000603
110.677,82.3403,0.000518
110.708,82.3403,0.000518
110.740,82.3403,0.000518
110.771,82.3403,0.000518
110.802,82.3403,0.000518
110.834,82.3403,0.000518
110.865,82.3403,0.000518
110.895,82.3403,0.000518
110.925,82.3403,-0.000160
110.956,82.3403,-0.000160
110.987,82.3403,-0.000160
111.018,82.3403,-0.000160
111.050,82.3403,-0.000160
111.081,82.3400,-0.000160
111.112,82.3390,-0.000160
111.144,82.3373,-0.000160
111.175,82.3349,-0.000707
111.206,82.3316,-0.000707
111.237,82.3279,-0.000707
111.268,82.3232,-0.000707
111.299,82.3180,-0.000707
111.330,82.3120,-0.000707
111.360,82.3057,-0.000707
111.392,82.2996,0.001262
111.423,82.2934,0.001262
111.453,82.2872,0.001262
111.484,82.2811,0.001262
111.515,82.2748,0.001262
111.546,82.2687,0.001262
111.577,82.2624,0.001262
111.609,82.2561,0.001262
111.640,82.2499,0.001262
111.672,82.2434,0.011579
111.704,82.2371,0.011579
111.736,82.2306,0.011579
111.766,82.2247,0.011579
111.797,82.2185,0.011579
111.828,82.2124,0.011579
111.858,82.2065,0.011579
111.889,82.2001,0.029631
111.919,82.1942,0.029631
111.950,82.1879,0.029631
111.980,82.1819,0.029631
112.011,82.1756,0.029631
112.044,82.1691,0.029631
112.074,82.1632,0.029631
112.107,82.1566,0.029631
112.136,82.1508,0.029631
112.168,82.1442,0.050745
112.197,82.1384,0.050745
112.228,82.1324,0.050745
112.259,82.1261,0.050745
112.290,82.1198,0.050745
112.322,82.1136,0.050745
112.353,82.1074,0.050745
112.384,82.1012,0.050745
112.415,82.0950,0.075109
112.446,82.0888,0.075109
112.476,82.0826,0.075109
112.507,82.0764,0.075109
112.538,82.0704,0.075109
112.569,82.0640,0.075109
112.600,82.0579,0.075109
112.631,82.0515,0.075109
112.663,82.0453,0.102978
112.694,82.0390,0.102978
112.726,82.0328,0.102978
112.757,82.0264,0.102978
112.790,82.0198,0.102978
112.821,82.0137,0.102978
112.853,82.0073,0.102978
112.884,82.0009,0.102978
112.914,81.9951,0.134795
112.945,81.9889,0.134795
112.976,81.9827,0.134795
113.007,81.9765,0.134795
113.038,81.9702,0.134795
113.070,81.9640,0.134795
113.100,81.9578,0.134795
113.132,81.9516,0.134795
113.162,81.9454,0.170804
113.193,81.9393,0.170804
113.224,81.9330,0.170804
113.256,81.9268,0.170804
113.286,81.9206,0.170804
113.318,81.9143,0.170804
113.349,81.9081,0.170804
113.380,81.9019,0.170804
113.413,81.8953,0.211129
113.443,81.8892,0.211129
113.474,81.8831,0.211129
113.505,81.8770,0.211129
113.536,81.8707,0.211129
113.568,81.8644,0.211129
113.597,81.8586,0.211129
113.628,81.8522,0.256098
113.660,81.8457,0.256098
113.690,81.8398,0.256098
113.720,81.8339,0.256098
113.751,81.8276,0.256098
113.781,81.8217,0.256098
113.812,81.8153,0.256098
113.844,81.8092,0.256098
113.874,81.8031,0.256098
113.905,81.7971,0.305665
113.936,81.7907,0.305665
113.966,81.7847,0.305665
113.997,81.7786,0.305665
114.028,81.7725,0.305665
114.058,81.7663,0.305665
114.089,81.7601,0.305665
114.120,81.7539,0.305665
114.152,81.7476,0.359641
114.182,81.7416,0.359641
114.212,81.7354,0.359641
114.243,81.7293,0.359641
114.275,81.7229,0.359641
114.306,81.7168,0.359641
114.337,81.7106,0.359641
114.368,81.7043,0.359641
114.399,81.6982,0.417876
114.430,81.6919,0.417876
114.462,81.6856,0.417876
114.493,81.6794,0.417876
114.524,81.6730,0.417876
114.556,81.6667,0.417876
114.587,81.6604,0.417876
114.618,81.6544,0.417876
114.648,81.6481,0.480059
114.680,81.6419,0.480059
114.711,81.6357,0.480059
114.742,81.6295,0.480059
114.774,81.6230,0.480059
114.804,81.6171,0.480059
114.837,81.6105,0.480059
114.867,81.6044,0.480059
114.898,81.5981,0.545765
114.929,81.5920,0.545765
114.961,81.5856,0.545765
114.991,81.5798,0.545765
115.022,81.5734,0.545765
115.054,81.5672,0.545765
115.084,81.5612,0.545765
115.116,81.5546,0.615249
115.147,81.5485,0.615249
115.178,81.5423,0.615249
115.212,81.5355,0.615249
115.240,81.5298,0.615249
115.272,81.5235,0.615249
115.303,81.5174,0.615249
115.333,81.5111,0.615249
115.364,81.5051,0.615249
115.395,81.4989,0.688483
115.426,81.4927,0.688483
115.456,81.4866,0.688483
115.486,81.4805,0.688483
115.516,81.4746,0.688483
115.547,81.4686,0.688483
115.578,81.4624,0.688483
115.610,81.4559,0.688483
115.641,81.4498,0.764977
115.672,81.4433,0.764977
115.703,81.4371,0.764977
115.734,81.4312,0.764977
115.765,81.4249,0.764977
115.795,81.4190,0.764977
115.826,81.4127,0.764977
115.856,81.4066,0.764977
115.888,81.4003,0.764977
115.919,81.3941,0.843968
115.951,81.3877,0.843968
115.983,81.3815,0.843968
116.014,81.3750,0.843968
116.045,81.3689,0.843968
116.076,81.3627,0.843968
116.106,81.3568,0.843968
116.137,81.3506,0.923675
116.167,81.3445,0.923675
116.198,81.3383,0.923675
116.230,81.3318,0.923675
116.261,81.3258,0.923675
116.292,81.3194,0.923675
116.324,81.3132,0.923675
116.353,81.3072,0.923675
116.384,81.3011,1.002326
116.415,81.2948,1.002326
116.447,81.2886,1.002326
116.479,81.2820,1.002326
116.511,81.2758,1.002326
116.543,81.2693,1.002326
116.575,81.2630,1.002326
116.606,81.2567,1.002326
116.638,81.2504,1.064754
116.670,81.2438,1.064754
116.701,81.2377,1.064754
116.733,81.2313,1.064754
116.765,81.2249,1.064754
116.796,81.2189,1.064754
116.827,81.2125,1.064754
116.858,81.2063,1.064754
116.889,81.2003,1.064754
116.920,81.1939,0.560039
116.952,81.1875,0.560039
116.984,81.1813,0.560039
117.015,81.1750,0.560039
117.046,81.1688,0.560039
117.077,81.1625,0.560039
117.108,81.1563,0.560039
117.138,81.1505,0.560039
117.168,81.1443,0.024647
117.199,81.1381,0.024647
117.230,81.1320,0.024647
117.260,81.1260,0.024647
117.290,81.1199,0.024647
117.322,81.1136,0.024647
117.352,81.1075,0.024647
117.384,81.1012,0.024647
117.414,81.0951,0.017468
117.445,81.0890,0.017468
117.476,81.0829,0.017468
117.508,81.0764,0.017468
117.539,81.0703,0.017468
117.570,81.0638,0.017468
117.601,81.0577,0.017468
117.632,81.0515,0.017468
117.663,81.0452,0.017336
117.694,81.0391,0.017336
117.725,81.0329,0.017336
117.756,81.0266,0.017336
117.787,81.0204,0.017336
117.819,81.0141,0.017336
117.850,81.0080,0.017336
117.881,81.0017,0.017336
117.911,80.9957,0.017336
117.942,80.9893,0.017279
117.975,80.9830,0.017279
118.005,80.9768,0.017279
118.037,80.9706,0.017279
118.068,80.9644,0.017279
118.098,80.9584,0.017279
118.129,80.9521,0.017279
118.160,80.9460,0.017289
118.191,80.9396,0.017289
118.222,80.9335,0.017289
118.253,80.9274,0.017289
118.284,80.9213,0.017289
118.315,80.9150,0.017289
118.345,80.9088,0.017289
118.376,80.9027,0.017289
118.407,80.8966,0.017270
118.438,80.8903,0.017270
118.469,80.8841,0.017270
118.500,80.8778,0.017270
118.531,80.8718,0.017270
118.561,80.8658,0.017270
118.592,80.8597,0.017270
118.624,80.8532,0.017270
118.655,80.8470,0.017194
118.686,80.8408,0.017194
118.718,80.8345,0.017194
118.749,80.8281,0.017194
118.780,80.8220,0.017194
118.810,80.8159,0.017194
118.840,80.8100,0.017194
118.872,80.8036,0.017194
118.903,80.7974,0.017185
118.934,80.7912,0.017185
118.964,80.7850,0.017185
118.994,80.7791,0.017185
119.026,80.7727,0.017185
119.058,80.7664,0.017185
119.088,80.7603,0.017185
119.119,80.7543,0.017185
119.149,80.7482,0.017232
119.180,80.7420,0.017232
119.211,80.7357,0.017232
119.242,80.7295,0.017232
119.274,80.7233,0.017232
119.305,80.7169,0.017232
119.336,80.7107,0.017232
119.366,80.7045,0.017232
119.397,80.6986,0.017223
119.428,80.6924,0.017223
119.460,80.6861,0.017223
119.490,80.6799,0.017223
119.522,80.6735,0.017223
119.553,80.6674,0.017223
119.583,80.6614,0.017223
119.615,80.6549,0.017223
119.645,80.6490,0.017242
119.675,80.6429,0.017242
119.706,80.6367,0.017242
119.738,80.6304,0.017242
119.768,80.6243,0.017242
119.799,80.6181,0.017242
119.830,80.6120,0.017242
119.861,80.6058,0.017242
119.892,80.5996,0.017251
119.923,80.5933,0.017251
119.954,80.5872,0.017251
119.985,80.5809,0.017251
120.017,80.5747,0.017251
120.048,80.5682,0.017251
120.079,80.5620,0.017251
120.111,80.5557,0.017251
120.143,80.5495,0.017260
120.174,80.5432,0.017260
120.205,80.5371,0.017260
120.235,80.5310,0.017260
120.266,80.5248,0.017260
120.296,80.5187,0.017260
120.327,80.5125,0.017260
120.357,80.5065,0.017260
120.388,80.5003,0.017232
120.419,80.4941,0.017232
120.449,80.4881,0.017232
120.480,80.4819,0.017232
120.511,80.4757,0.017232
120.542,80.4695,0.017232
120.573,80.4633,0.017232
120.603,80.4574,0.017232
120.635,80.4509,0.017232
120.665,80.4450,0.017298
120.696,80.4387,0.017298
120.726,80.4327,0.017298
120.757,80.4265,0.017298
120.788,80.4204,0.017298
120.821,80.4137,0.017298
120.851,80.4079,0.017298
120.882,80.4015,0.017298
120.914,80.3953,0.017355
120.944,80.3890,0.017355
120.974,80.3832,0.017355
121.005,80.3770,0.017355
121.037,80.3707,0.017355
121.068,80.3643,0.017355
121.100,80.3579,0.017355
121.131,80.3518,0.017355
121.161,80.3457,0.017317
121.193,80.3394,0.017317
121.224,80.3333,0.017317
121.255,80.3271,0.017317
121.286,80.3208,0.017317
121.317,80.3146,0.017317
121.347,80.3085,0.017317
121.378,80.3023,0.017317
121.409,80.2961,0.017355
121.440,80.2899,0.017355
121.472,80.2837,0.017355
121.503,80.2775,0.017355
121.535,80.2711,0.017355
121.566,80.2647,0.017355
121.597,80.2587,0.017355
121.628,80.2523,0.017355
121.659,80.2461,0.017345
121.690,80.2399,0.017345
121.721,80.2335,0.017345
121.753,80.2274,0.017345
121.783,80.2213,0.017345
121.814,80.2150,0.017345
121.845,80.2089,0.017345
121.876,80.2027,0.017345
121.908,80.1965,0.017289
121.938,80.1903,0.017289
121.970,80.1841,0.017289
122.000,80.1779,0.017289
122.032,80.1717,0.017289
122.063,80.1654,0.017289
122.095,80.1591,0.017289
122.127,80.1526,0.017289
122.159,80.1462,0.017260
122.190,80.1401,0.017260
122.221,80.1338,0.017260
122.252,80.1275,0.017260
122.283,80.1214,0.017260
122.314,80.1153,0.017260
122.345,80.1091,0.017260
122.375,80.1030,0.017260
122.406,80.0967,0.017307
122.437,80.0906,0.017307
122.468,80.0843,0.017307
122.500,80.0780,0.017307
122.530,80.0718,0.017307
122.562,80.0656,0.017307
122.593,80.0592,0.017307
122.624,80.0532,0.017307
122.656,80.0467,0.017298
122.687,80.0406,0.017298
122.718,80.0342,0.017298
122.751,80.0277,0.017298
122.781,80.0217,0.017298
122.813,80.0155,0.017298
122.843,80.0094,0.017298
122.874,80.0032,0.017298
122.905,79.9971,0.017298
122.936,79.9908,0.017251
122.967,79.9846,0.017251
122.998,79.9785,0.017251
123.029,79.9722,0.017251
123.059,79.9661,0.017251
123.090,79.9600,0.017251
123.121,79.9538,0.017251
123.152,79.9476,0.017279
123.183,79.9414,0.017279
123.213,79.9353,0.017279
123.244,79.9293,0.017279
123.274,79.9231,0.017279
123.305,79.9170,0.017279
123.336,79.9108,0.017279
123.367,79.9047,0.017279
123.397,79.8985,0.017251
123.428,79.8923,0.017251
123.459,79.8861,0.017251
123.491,79.8797,0.017251
123.522,79.8736,0.017251
123.553,79.8674,0.017251
123.584,79.8613,0.017251
123.614,79.8550,0.017251
123.645,79.8490,0.017213
123.677,79.8424,0.017213
123.708,79.8365,0.017213
123.740,79.8299,0.017213
123.771,79.8238,0.017213
123.803,79.8173,0.017213
123.834,79.8112,0.017213
123.867,79.8046,0.017213
123.897,79.7985,0.017223
123.928,79.7923,0.017223
123.960,79.7861,0.017223
123.991,79.7798,0.017223
124.023,79.7735,0.017223
124.054,79.7673,0.017223
124.085,79.7610,0.017223
124.116,79.7549,0.017223
124.146,79.7488,0.017194
124.178,79.7424,0.017194
124.209,79.7363,0.017194
124.240,79.7301,0.017194
124.271,79.7239,0.017194
124.302,79.7176,0.017194
124.332,79.7115,0.017194
124.364,79.7053,0.017194
124.395,79.6991,0.017185
124.426,79.6929,0.017185
124.457,79.6865,0.017185
124.487,79.6805,0.017185
124.518,79.6744,0.017185
124.549,79.6681,0.017185
124.580,79.6621,0.017185
124.611,79.6558,0.017185
124.642,79.6496,0.017176
124.673,79.6435,0.017176
124.705,79.6369,0.017176
124.736,79.6309,0.017176
124.767,79.6245,0.017176
124.798,79.6183,0.017176
124.829,79.6121,0.017176
124.861,79.6059,0.017176
124.891,79.5996,0.017119
124.922,79.5934,0.017119
124.953,79.5875,0.017119
124.985,79.5811,0.017119
125.016,79.5748,0.017119
125.047,79.5685,0.017119
125.077,79.5625,0.017119
125.108,79.5564,0.017119
125.139,79.5502,0.017119
125.169,79.5442,0.017053
125.200,79.5378,0.017053
125.231,79.5318,0.017053
125.262,79.5254,0.017053
125.293,79.5194,0.017053
125.325,79.5129,0.017053
125.355,79.5070,0.017053
125.387,79.5005,0.017053
125.418,79.4946,0.016997
125.449,79.4881,0.016997
125.480,79.4822,0.016997
125.511,79.4757,0.016997
125.542,79.4698,0.016997
125.573,79.4636,0.016997
125.604,79.4571,0.016997
125.635,79.4510,0.016997
125.666,79.4448,0.016959
125.697,79.4386,0.016959
125.728,79.4323,0.016959
125.758,79.4263,0.016959
125.789,79.4203,0.016959
125.820,79.4141,0.016959
125.851,79.4079,0.016959
125.881,79.4018,0.016959
125.912,79.3956,0.016902
125.943,79.3894,0.016902
125.974,79.3833,0.016902
126.004,79.3770,0.016902
126.036,79.3708,0.016902
126.068,79.3645,0.016902
126.101,79.3578,0.016902
126.131,79.3517,0.016874
126.162,79.3455,0.016874
126.193,79.3394,0.016874
126.224,79.3332,0.016874
126.255,79.3270,0.016874
126.286,79.3208,0.016874
126.317,79.3146,0.016874
126.349,79.3090,0.016874
126.380,79.3041,0.016818
126.411,79.3000,0.016818
126.442,79.2965,0.016818
126.474,79.2939,0.016818
126.506,79.2919,0.016818
126.537,79.2908,0.016818
126.567,79.2903,0.016818
126.599,79.2903,0.016818
126.630,79.2903,0.016639
126.660,79.2903,0.016639
126.692,79.2903,0.016639
126.722,79.2903,0.016639
126.753,79.2903,0.016639
126.785,79.2903,0.016639
126.815,79.2903,0.016639
126.846,79.2903,0.016639
126.877,79.2903,0.016488
126.909,79.2903,0.016488
126.939,79.2903,0.016488
126.970,79.2903,0.016488
127.001,79.2903,0.016488
127.033,79.2903,0.016488
127.064,79.2904,0.016488
127.096,79.2912,0.016488
127.127,79.2928,0.016488
127.159,79.2950,0.016488
127.190,79.2981,0.016507
127.221,79.3018,0.016507
127.254,79.3068,0.016507
127.284,79.3115,0.016507
127.314,79.3175,0.016507
127.346,79.3237,0.016507
127.376,79.3297,0.016507
127.406,79.3359,0.016384
127.437,79.3420,0.016384
127.469,79.3485,0.016384
127.500,79.3545,0.016384
127.531,79.3609,0.016384
127.562,79.3669,0.016384
127.594,79.3735,0.016384
127.625,79.3795,0.016384
127.656,79.3859,0.016384
127.688,79.3922,0.016290
127.720,79.3987,0.016290
127.751,79.4048,0.016290
127.781,79.4110,0.016290
127.813,79.4170,0.016290
127.845,79.4235,0.016290
127.875,79.4294,0.016290
127.906,79.4358,0.016356
127.937,79.4421,0.016356
127.968,79.4482,0.016356
127.999,79.4544,0.016356
128.030,79.4606,0.016356
128.061,79.4667,0.016356
128.092,79.4730,0.016356
128.123,79.4792,0.016356
128.154,79.4855,0.016356
128.186,79.4917,0.016328
128.216,79.4978,0.016328
128.248,79.5041,0.016328
128.279,79.5104,0.016328
128.310,79.5165,0.016328
128.341,79.5228,0.016328
128.373,79.5292,0.016328
128.404,79.5355,0.016271
128.435,79.5417,0.016271
128.466,79.5479,0.016271
128.497,79.5540,0.016271
128.528,79.5603,0.016271
128.561,79.5669,0.016271
128.591,79.5727,0.016271
128.622,79.5793,0.016271
128.653,79.5852,0.016299
128.683,79.5912,0.016299
128.715,79.5975,0.016299
128.746,79.6039,0.016299
128.777,79.6100,0.016299
128.808,79.6165,0.016299
128.839,79.6224,0.016299
128.871,79.6288,0.016299
128.901,79.6348,0.016299
128.932,79.6410,0.016328
128.962,79.6471,0.016328
128.993,79.6533,0.016328
129.024,79.6594,0.016328
129.056,79.6658,0.016328
129.087,79.6719,0.016328
129.119,79.6784,0.016328
129.149,79.6844,0.016281
129.180,79.6908,0.016281
129.211,79.6967,0.016281
129.242,79.7029,0.016281
129.272,79.7092,0.016281
129.304,79.7153,0.016281
129.334,79.7214,0.016281
129.365,79.7276,0.016281
129.396,79.7337,0.016299
129.427,79.7399,0.016299
129.458,79.7461,0.016299
129.489,79.7525,0.016299
129.520,79.7586,0.016299
129.551,79.7648,0.016299
129.582,79.7710,0.016299
129.614,79.7773,0.016299
129.644,79.7834,0.016290
129.675,79.7895,0.016290
129.706,79.7957,0.016290
129.737,79.8019,0.016290
129.769,79.8083,0.016290
129.800,79.8147,0.016290
129.831,79.8207,0.016290
129.862,79.8271,0.016290
129.894,79.8333,0.016337
129.925,79.8395,0.016337
129.956,79.8457,0.016337
129.986,79.8519,0.016337
130.017,79.8582,0.016337
130.049,79.8643,0.016337
130.080,79.8705,0.016337
130.110,79.8766,0.016337
130.141,79.8830,0.016394
130.173,79.8892,0.016394
130.203,79.8952,0.016394
130.234,79.9014,0.016394
130.266,79.9077,0.016394
130.297,79.9139,0.016394
130.328,79.9202,0.016394
130.358,79.9264,0.016394
130.389,79.9324,0.016394
130.420,79.9387,0.016394
130.452,79.9450,0.016394
130.483,79.9511,0.016394
130.515,79.9575,0.016394
130.545,79.9635,0.016394
130.576,79.9698,0.016394
130.608,79.9763,0.016394
130.637,79.9821,0.016394
130.668,79.9882,0.016412
130.700,79.9947,0.016412
130.732,80.0009,0.016412
130.763,80.0073,0.016412
130.794,80.0133,0.016412
130.826,80.0199,0.016412
130.857,80.0261,0.016412
130.888,80.0323,0.016412
130.919,80.0383,0.016403
130.950,80.0446,0.016403
130.981,80.0507,0.016403
131.011,80.0568,0.016403
131.043,80.0632,0.016403
131.074,80.0694,0.016403
131.105,80.0755,0.016403
131.136,80.0818,0.016403
131.167,80.0880,0.016403
131.198,80.0942,0.016403
131.230,80.1005,0.016403
131.261,80.1067,0.016403
131.292,80.1128,0.016403
131.323,80.1191,0.016403
131.353,80.1252,0.016403
131.385,80.1315,0.016403
131.416,80.1377,0.016431
131.447,80.1439,0.016431
131.480,80.1504,0.016431
131.511,80.1567,0.016431
131.543,80.1630,0.016431
131.572,80.1691,0.016431
131.603,80.1751,0.016431
131.634,80.1813,0.016460
131.665,80.1875,0.016460
131.696,80.1938,0.016460
131.726,80.1999,0.016460
131.757,80.2060,0.016460
131.788,80.2123,0.016460
131.819,80.2185,0.016460
131.850,80.2247,0.016460
131.881,80.2308,0.016460
131.912,80.2371,0.016460
131.943,80.2432,0.016460
131.975,80.2496,0.016460
132.006,80.2557,0.016460
132.038,80.2621,0.016460
132.068,80.2681,0.016460
132.099,80.2743,0.016460
132.130,80.2806,0.016431
132.161,80.2867,0.016431
132.191,80.2929,0.016431
132.224,80.2993,0.016431
132.254,80.3055,0.016431
132.285,80.3116,0.016431
132.316,80.3178,0.016431
132.347,80.3239,0.016431
132.377,80.3300,0.016375
132.408,80.3362,0.016375
132.439,80.3425,0.016375
132.471,80.3487,0.016375
132.503,80.3553,0.016375
132.535,80.3615,0.016375
132.566,80.3679,0.016375
132.598,80.3741,0.016375
132.629,80.3802,0.016375
132.659,80.3863,0.016318
132.689,80.3924,0.016318
132.721,80.3988,0.016318
132.753,80.4051,0.016318
132.783,80.4112,0.016318
132.814,80.4174,0.016318
132.845,80.4235,0.016318
132.876,80.4297,0.016318
132.907,80.4359,0.016318
132.938,80.4421,0.016318
132.969,80.4483,0.016318
133.000,80.4546,0.016318
133.031,80.4608,0.016318
133.062,80.4670,0.016318
133.094,80.4732,0.016318
133.125,80.4796,0.016318
133.156,80.4858,0.016318
133.188,80.4921,0.016271
133.219,80.4983,0.016271
133.250,80.5046,0.016271
133.281,80.5108,0.016271
133.312,80.5169,0.016271
133.343,80.5233,0.016271
133.374,80.5294,0.016271
133.406,80.5357,0.016196
133.437,80.5419,0.016196
133.467,80.5479,0.016196
133.498,80.5541,0.016196
133.529,80.5603,0.016196
133.559,80.5664,0.016196
133.590,80.5724,0.016196
133.621,80.5786,0.016196
133.653,80.5851,0.016196
133.684,80.5914,0.016064
133.716,80.5976,0.016064
133.746,80.6037,0.016064
133.777,80.6099,0.016064
133.808,80.6161,0.016064
133.838,80.6222,0.016064
133.871,80.6286,0.016064
133.901,80.6347,0.016064
133.931,80.6409,0.016083
133.963,80.6471,0.016083
133.993,80.6532,0.016083
134.025,80.6595,0.016083
134.056,80.6657,0.016083
134.087,80.6719,0.016083
134.118,80.6782,0.016083
134.149,80.6843,0.016083
134.180,80.6906,0.016102
134.210,80.6966,0.016102
134.242,80.7029,0.016102
134.273,80.7091,0.016102
134.305,80.7154,0.016102
134.337,80.7220,0.016102
134.369,80.7283,0.016102
134.400,80.7344,0.016102
134.430,80.7405,0.015988
134.461,80.7468,0.015988
134.493,80.7531,0.015988
134.523,80.7591,0.015988
134.555,80.7657,0.015988
134.585,80.7715,0.015988
134.616,80.7780,0.015988
134.648,80.7840,0.015988
134.680,80.7906,0.015894
134.710,80.7966,0.015894
134.742,80.8030,0.015894
134.774,80.8093,0.015894
134.804,80.8155,0.015894
134.836,80.8217,0.015894
134.867,80.8279,0.015894
134.898,80.8341,0.015894
134.929,80.8405,0.015772
134.961,80.8467,0.015772
134.991,80.8527,0.015772
135.022,80.8588,0.015772
135.053,80.8651,0.015772
135.085,80.8715,0.015772
135.115,80.8774,0.015772
135.146,80.8837,0.015772
135.177,80.8898,0.015678
135.207,80.8960,0.015678
135.238,80.9022,0.015678
135.270,80.9084,0.015678
135.301,80.9146,0.015678
135.332,80.9208,0.015678
135.363,80.9273,0.015678
135.395,80.9335,0.015640
135.426,80.9398,0.015640
135.456,80.9458,0.015640
135.488,80.9521,0.015640
135.520,80.9585,0.015640
135.550,80.9646,0.015640
135.581,80.9707,0.015640
135.611,80.9769,0.015640
135.643,80.9831,0.015508
135.674,80.9895,0.015508
135.705,80.9955,0.015508
135.736,81.0017,0.015508
135.767,81.0079,0.015508
135.798,81.0142,0.015508
135.830,81.0207,0.015508
135.861,81.0267,0.015508
135.892,81.0329,0.015272
135.924,81.0393,0.015272
135.955,81.0456,0.015272
135.986,81.0519,0.015272
136.017,81.0580,0.015272
136.048,81.0642,0.015272
136.079,81.0704,0.015272
136.111,81.0768,0.015272
136.142,81.0829,0.015216
136.173,81.0891,0.015216
136.204,81.0953,0.015216
136.234,81.1015,0.015216
136.266,81.1076,0.015216
136.298,81.1142,0.015216
136.329,81.1204,0.015216
136.362,81.1270,0.015216
136.393,81.1330,0.015188
136.425,81.1396,0.015188
136.457,81.1458,0.015188
136.488,81.1521,0.015188
136.520,81.1585,0.015188
136.551,81.1649,0.015188
136.582,81.1709,0.015188
136.614,81.1774,0.015188
136.646,81.1836,0.015037
136.677,81.1900,0.015037
136.708,81.1960,0.015037
136.740,81.2026,0.015037
136.770,81.2086,0.015037
136.802,81.2150,0.015037
136.833,81.2211,0.015037
136.865,81.2275,0.015037
136.896,81.2336,0.014886
136.927,81.2399,0.014886
136.958,81.2461,0.014886
136.989,81.2522,0.014886
137.019,81.2584,0.014886
137.049,81.2644,0.014886
137.081,81.2708,0.014886
137.114,81.2773,0.014886
137.144,81.2835,0.014698
137.176,81.2897,0.014698
137.208,81.2961,0.014698
137.238,81.3022,0.014698
137.269,81.3083,0.014698
137.301,81.3149,0.014698
137.332,81.3209,0.014698
137.364,81.3274,0.014698
137.394,81.3333,0.014566
137.426,81.3398,0.014566
137.457,81.3459,0.014566
137.488,81.3523,0.014566
137.518,81.3581,0.014566
137.549,81.3643,0.014566
137.581,81.3707,0.014566
137.612,81.3769,0.014566
137.643,81.3832,0.014500
137.674,81.3893,0.014500
137.705,81.3955,0.014500
137.736,81.4017,0.014500
137.768,81.4081,0.014500
137.798,81.4139,0.014500
137.829,81.4203,0.014500
137.860,81.4266,0.014500
137.892,81.4328,0.014311
137.923,81.4391,0.014311
137.954,81.4453,0.014311
137.986,81.4516,0.014311
138.018,81.4581,0.014311
138.048,81.4641,0.014311
138.079,81.4703,0.014311
138.110,81.4767,0.014311
138.141,81.4828,0.014311
138.172,81.4889,0.014057
138.204,81.4952,0.014057
138.234,81.5013,0.014057
138.266,81.5077,0.014057
138.297,81.5138,0.014057
138.328,81.5204,0.014057
138.359,81.5263,0.014057
138.391,81.5328,0.014057
138.422,81.5388,0.013897
138.453,81.5452,0.013897
138.484,81.5512,0.013897
138.515,81.5577,0.013897
138.547,81.5638,0.013897
138.579,81.5703,0.013897
138.609,81.5763,0.013897
138.641,81.5829,0.013897
138.672,81.5889,0.013737
138.703,81.5953,0.013737
138.733,81.6011,0.013737
138.765,81.6075,0.013737
138.796,81.6136,0.013737
138.826,81.6199,0.013737
138.857,81.6261,0.013737
138.888,81.6321,0.013737
138.920,81.6384,0.013529
138.951,81.6448,0.013529
138.982,81.6510,0.013529
139.014,81.6573,0.013529
139.045,81.6634,0.013529
139.076,81.6697,0.013529
139.107,81.6759,0.013529
139.138,81.6821,0.013529
139.170,81.6884,0.013303
139.201,81.6947,0.013303
139.232,81.7009,0.013303
139.263,81.7073,0.013303
139.294,81.7133,0.013303
139.326,81.7198,0.013303
139.356,81.7257,0.013303
139.387,81.7319,0.013303
139.420,81.7385,0.013039
139.450,81.7445,0.013039
139.481,81.7505,0.013039
139.511,81.7569,0.013039
139.542,81.7629,0.013039
139.573,81.7691,0.013039
139.604,81.7753,0.013039
139.636,81.7818,0.013039
139.667,81.7879,0.012672
139.699,81.7942,0.012672
139.729,81.8003,0.012672
139.760,81.8066,0.012672
139.791,81.8129,0.012672
139.822,81.8189,0.012672
139.853,81.8252,0.012672
139.884,81.8313,0.012672
139.914,81.8376,0.012323
139.945,81.8436,0.012323
139.977,81.8499,0.012323
140.007,81.8558,0.012323
140.038,81.8619,0.012323
140.069,81.8682,0.012323
140.101,81.8746,0.012323
140.132,81.8809,0.012323
140.163,81.8871,0.011890
140.194,81.8933,0.011890
140.225,81.8994,0.011890
140.256,81.9057,0.011890
140.288,81.9121,0.011890
140.318,81.9180,0.011890
140.349,81.9243,0.011890
140.379,81.9304,0.011344
140.410,81.9367,0.011344
140.442,81.9429,0.011344
140.474,81.9492,0.011344
140.505,81.9556,0.011344
140.535,81.9618,0.011344
140.567,81.9678,0.011344
140.598,81.9742,0.011344
140.628,81.9801,0.010571
140.660,81.9866,0.010571
140.692,81.9928,0.010571
140.724,81.9993,0.010571
140.755,82.0054,0.010571
140.786,82.0119,0.010571
140.818,82.0181,0.010571
140.849,82.0243,0.010571
140.880,82.0305,0.009374
140.911,82.0369,0.009374
140.942,82.0431,0.009374
140.974,82.0493,0.009374
141.004,82.0553,0.009374
141.035,82.0616,0.009374
141.066,82.0677,0.009374
141.098,82.0740,0.009374
141.128,82.0801,0.009374
141.159,82.0863,0.009374
141.189,82.0922,0.007726
141.220,82.0986,0.007726
141.252,82.1048,0.007726
141.283,82.1111,0.007726
141.314,82.1172,0.007726
141.344,82.1234,0.007726
141.376,82.1298,0.007726
141.406,82.1358,0.005389
141.436,82.1417,0.005389
141.467,82.1480,0.005389
141.499,82.1544,0.005389
141.530,82.1606,0.005389
141.561,82.1668,0.005389
141.592,82.1730,0.005389
141.624,82.1793,0.005389
141.654,82.1854,0.002082
141.686,82.1917,0.002082
141.716,82.1976,0.002082
141.747,82.2040,0.002082
141.779,82.2103,0.002082
141.811,82.2169,0.002082
141.842,82.2228,0.002082
141.874,82.2292,0.002082
141.905,82.2355,-0.002403
141.936,82.2418,-0.002403
141.967,82.2479,-0.002403
141.998,82.2541,-0.002403
142.028,82.2600,-0.002403
142.060,82.2664,-0.002403
142.100,82.2734,-0.002403
142.138,82.2789,-0.007914
142.169,82.2826,-0.007914
142.200,82.2856,-0.007914
142.231,82.2878,-0.007914
142.262,82.2894,-0.007914
142.292,82.2902,-0.007914
142.323,82.2903,-0.007914
142.354,82.2903,-0.007914
142.386,82.2903,-0.012163
142.417,82.2903,-0.012163
142.448,82.2903,-0.012163
142.479,82.2903,-0.012163
142.510,82.2903,-0.012163
142.543,82.2903,-0.012163
142.574,82.2903,-0.012163
142.606,82.2903,-0.012163
142.636,82.2903,-0.012088
142.667,82.2903,-0.012088
142.698,82.2903,-0.012088
142.730,82.2903,-0.012088
142.762,82.2903,-0.012088
142.793,82.2903,-0.012088
142.825,82.2903,-0.012088
142.855,82.2903,-0.012088
142.885,82.2903,-0.009525
142.917,82.2903,-0.009525
142.947,82.2903,-0.009525
142.979,82.2903,-0.009525
143.010,82.2903,-0.009525
143.042,82.2903,-0.009525
143.072,82.2903,-0.009525
143.104,82.2903,-0.009525
143.135,82.2903,-0.009525
143.167,82.2903,-0.007537
143.198,82.2903,-0.007537
143.229,82.2903,-0.007537
143.260,82.2903,-0.007537
143.291,82.2903,-0.007537
143.322,82.2903,-0.007537
143.354,82.2903,-0.007537
143.384,82.2903,-0.007537
143.416,82.2903,-0.006068
143.446,82.2903,-0.006068
143.477,82.2903,-0.006068
143.508,82.2903,-0.006068
143.539,82.2903,-0.006068
143.570,82.2903,-0.006068
143.601,82.2903,-0.006068
143.633,82.2903,-0.006068
143.663,82.2903,-0.006068
143.694,82.2903,-0.004852
143.726,82.2903,-0.004852
143.756,82.2903,-0.004852
143.787,82.2903,-0.004852
143.819,82.2903,-0.004852
143.850,82.2903,-0.004852
143.882,82.2903,-0.004852
143.912,82.2903,-0.003816
143.943,82.2903,-0.003816
143.974,82.2903,-0.003816
144.006,82.2903,-0.003816
144.036,82.2903,-0.003816
144.068,82.2903,-0.003816
144.099,82.2903,-0.003816
144.131,82.2903,-0.003816
144.161,82.2903,-0.002921
144.193,82.2903,-0.002921
144.223,82.2903,-0.002921
144.255,82.2903,-0.002921
144.287,82.2903,-0.002921
144.317,82.2903,-0.002921
144.349,82.2903,-0.002921
144.380,82.2903,-0.002921
144.410,82.2903,-0.002195
144.441,82.2903,-0.002195
144.472,82.2903,-0.002195
144.504,82.2903,-0.002195
144.535,82.2903,-0.002195
144.567,82.2903,-0.002195
144.598,82.2903,-0.002195
144.630,82.2903,-0.001526
144.662,82.2903,-0.001526
144.693,82.2903,-0.001526
144.725,82.2903,-0.001526
144.756,82.2903,-0.001526
144.786,82.2903,-0.001526
144.818,82.2903,-0.001526
144.849,82.2903,-0.001526
144.880,82.2903,-0.000904
144.909,82.2903,-0.000904
144.940,82.2903,-0.000904
144.971,82.2903,-0.000904
145.002,82.2903,-0.000904
145.033,82.2903,-0.000904
145.064,82.2903,-0.000904
145.094,82.2903,-0.000904
145.126,82.2903,-0.000904
145.157,82.2903,-0.000367
145.189,82.2903,-0.000367
145.220,82.2903,-0.000367
145.252,82.2903,-0.000367
145.284,82.2903,-0.000367
145.314,82.2903,-0.000367
145.345,82.2903,-0.000367
145.375,82.2903,0.000141
145.408,82.2903,0.000141
145.438,82.2903,0.000141
145.469,82.2903,0.000141
145.500,82.2903,0.000141
145.531,82.2903,0.000141
145.563,82.2903,0.000141
145.594,82.2903,0.000141
145.625,82.2903,0.000141
145.658,82.2903,0.000622
145.687,82.2903,0.000622
145.718,82.2903,0.000622
145.749,82.2903,0.000622
145.781,82.2903,0.000622
145.813,82.2903,0.000622
145.844,82.2903,0.000622
145.870,82.2903,0.000622
145.905,82.2903,0.001065
145.936,82.2903,0.001065
145.968,82.2903,0.001065
145.999,82.2903,0.001065
146.029,82.2903,0.001065
146.060,82.2903,0.001065
146.092,82.2903,0.001065
146.123,82.2903,0.001423
146.154,82.2903,0.001423
146.186,82.2903,0.001423
146.217,82.2903,0.001423
146.248,82.2903,0.001423
146.278,82.2903,0.001423
146.309,82.2903,0.001423
146.340,82.2903,0.001423
146.371,82.2903,0.001423
146.402,82.2903,0.001573
146.434,82.2903,0.001573
146.466,82.2903,0.001573
146.497,82.2903,0.001573
146.528,82.2903,0.001573
146.559,82.2903,0.001573
146.591,82.2903,0.001573
146.622,82.2903,0.001140
146.653,82.2903,0.001140
146.684,82.2903,0.001140
146.715,82.2903,0.001140
146.747,82.2903,0.001140
146.778,82.2903,0.001140
146.809,82.2903,0.001140
146.840,82.2903,0.001140
146.871,82.2903,0.001140
146.903,82.2903,0.001140
146.934,82.2903,0.000481
146.965,82.2903,0.000481
146.996,82.2902,0.000481
147.027,82.2893,0.000481
147.058,82.2878,0.000481
147.088,82.2856,0.000481
147.119,82.2826,0.000481
147.150,82.2789,0.000377
147.182,82.2743,0.000377
147.213,82.2692,0.000377
147.245,82.2631,0.000377
147.276,82.2568,0.000377
147.309,82.2504,0.000377
147.339,82.2442,0.000377
147.370,82.2380,0.000377
147.401,82.2319,0.005069
147.432,82.2258,0.005069
147.463,82.2196,0.005069
147.493,82.2134,0.005069
147.525,82.2071,0.005069
147.555,82.2010,0.005069
147.587,82.1945,0.005069
147.618,82.1886,0.005069
147.649,82.1823,0.018513
147.680,82.1761,0.018513
147.712,82.1697,0.018513
147.743,82.1635,0.018513
147.775,82.1572,0.018513
147.805,82.1510,0.018513
147.836,82.1448,0.018513
147.867,82.1385,0.037564
147.899,82.1323,0.037564
147.930,82.1262,0.037564
147.961,82.1200,0.037564
147.992,82.1137,0.037564
148.024,82.1072,0.037564
148.054,82.1014,0.037564
148.084,82.0951,0.037564
148.116,82.0889,0.037564
148.147,82.0827,0.037564
148.178,82.0765,0.059460
148.210,82.0702,0.059460
148.241,82.0640,0.059460
148.271,82.0578,0.059460
148.302,82.0517,0.059460
148.334,82.0452,0.059460
148.365,82.0391,0.059460
148.397,82.0326,0.084710
148.427,82.0267,0.084710
148.458,82.0205,0.084710
148.489,82.0142,0.084710
148.521,82.0079,0.084710
148.552,82.0017,0.084710
148.583,81.9954,0.084710
148.614,81.9893,0.084710
148.645,81.9831,0.084710
148.677,81.9768,0.113794
148.707,81.9707,0.113794
148.738,81.9645,0.113794
148.769,81.9583,0.113794
148.801,81.9520,0.113794
148.832,81.9458,0.113794
148.864,81.9394,0.113794
148.894,81.9332,0.113794
148.926,81.9269,0.146996
148.957,81.9207,0.146996
148.988,81.9146,0.146996
149.019,81.9082,0.146996
149.050,81.9021,0.146996
149.081,81.8960,0.146996
149.112,81.8896,0.146996
149.144,81.8832,0.146996
149.174,81.8772,0.184503
149.205,81.8710,0.184503
149.236,81.8646,0.184503
149.268,81.8586,0.184503
149.298,81.8522,0.184503
149.329,81.8462,0.184503
149.360,81.8400,0.184503
149.391,81.8340,0.184503
149.422,81.8276,0.226476
149.454,81.8212,0.226476
149.486,81.8149,0.226476
149.517,81.8087,0.226476
149.548,81.8024,0.226476
149.579,81.7963,0.226476
149.610,81.7901,0.226476
149.640,81.7840,0.226476
149.672,81.7776,0.273029
149.703,81.7715,0.273029
149.734,81.7653,0.273029
149.765,81.7591,0.273029
149.796,81.7529,0.273029
149.827,81.7466,0.273029
149.859,81.7404,0.273029
149.890,81.7340,0.273029
149.921,81.7278,0.324046
149.952,81.7216,0.324046
149.983,81.7156,0.324046
150.014,81.7092,0.324046
150.045,81.7032,0.324046
150.075,81.6970,0.324046
150.107,81.6906,0.324046
150.137,81.6846,0.324046
150.168,81.6780,0.379483
150.200,81.6722,0.379483
150.231,81.6658,0.379483
150.262,81.6596,0.379483
150.293,81.6534,0.379483
150.325,81.6471,0.379483
150.356,81.6408,0.379483
150.387,81.6347,0.379483
150.418,81.6283,0.438830
150.450,81.6222,0.438830
150.481,81.6157,0.438830
150.512,81.6097,0.438830
150.544,81.6031,0.438830
150.576,81.5969,0.438830
150.607,81.5907,0.438830
150.638,81.5845,0.438830
150.669,81.5784,0.501936
150.700,81.5720,0.501936
150.732,81.5657,0.501936
150.762,81.5595,0.501936
150.794,81.5532,0.501936
150.825,81.5471,0.501936
150.856,81.5409,0.501936
150.887,81.5347,0.568999
150.918,81.5285,0.568999
150.949,81.5225,0.568999
150.979,81.5163,0.568999
151.010,81.5102,0.568999
151.041,81.5040,0.568999
151.071,81.4979,0.568999
151.103,81.4916,0.568999
151.135,81.4851,0.568999
151.166,81.4789,0.639614
151.198,81.4726,0.639614
151.228,81.4664,0.639614
151.261,81.4598,0.639614
151.290,81.4540,0.639614
151.322,81.4478,0.639614
151.353,81.4414,0.639614
151.384,81.4353,0.713846
151.415,81.4292,0.713846
151.445,81.4231,0.713846
151.476,81.4169,0.713846
151.507,81.4107,0.713846
151.538,81.4046,0.713846
151.568,81.3986,0.713846
151.600,81.3922,0.713846
151.630,81.3862,0.713846
151.661,81.3800,0.791395
151.692,81.3736,0.791395
151.723,81.3674,0.791395
151.755,81.3611,0.791395
151.785,81.3552,0.791395
151.816,81.3490,0.791395
151.847,81.3428,0.791395
151.878,81.3364,0.870895
151.909,81.3304,0.870895
151.939,81.3243,0.870895
151.969,81.3181,0.870895
152.001,81.3120,0.870895
152.033,81.3054,0.870895
152.063,81.2995,0.870895
152.093,81.2933,0.870895
152.125,81.2871,0.870895
152.156,81.2807,0.951949
152.188,81.2745,0.951949
152.219,81.2683,0.951949
152.251,81.2620,0.951949
152.281,81.2559,0.951949
152.312,81.2497,0.951949
152.343,81.2435,0.951949
152.372,81.2377,0.951949
152.403,81.2316,0.951949
152.434,81.2253,1.035368
152.465,81.2191,1.035368
152.495,81.2130,1.035368
152.527,81.2068,1.035368
152.558,81.2005,1.035368
152.589,81.1944,1.035368
152.620,81.1881,1.035368
152.652,81.1818,1.117392
152.683,81.1754,1.117392
152.715,81.1692,1.117392
152.745,81.1630,1.117392
152.775,81.1571,1.117392
152.806,81.1509,1.117392
152.837,81.1446,1.117392
152.868,81.1385,1.117392
152.900,81.1322,1.119154
152.930,81.1260,1.119154
152.961,81.1200,1.119154
152.992,81.1136,1.119154
153.023,81.1075,1.119154
153.055,81.1012,1.119154
153.085,81.0951,1.119154
153.116,81.0888,1.119154
153.147,81.0827,0.549534
153.179,81.0762,0.549534
153.210,81.0702,0.549534
153.242,81.0637,0.549534
153.273,81.0574,0.549534
153.303,81.0515,0.549534
153.334,81.0453,0.549534
153.364,81.0394,0.549534
153.395,81.0331,0.017684
153.425,81.0270,0.017684
153.456,81.0210,0.017684
153.487,81.0147,0.017684
153.518,81.0085,0.017684
153.548,81.0024,0.017684
153.579,80.9962,0.017684
153.610,80.9902,0.017684
153.642,80.9837,0.017684
153.673,80.9775,0.017505
153.705,80.9711,0.017505
153.736,80.9650,0.017505
153.768,80.9585,0.017505
153.799,80.9523,0.017505
153.830,80.9463,0.017505
153.861,80.9398,0.017505
153.893,80.9336,0.017505
153.924,80.9274,0.017383
153.955,80.9212,0.017383
153.985,80.9151,0.017383
154.017,80.9085,0.017383
154.048,80.9027,0.017383
154.078,80.8964,0.017383
154.108,80.8904,0.017383
154.139,80.8842,0.017383
154.169,80.8780,0.017345
154.202,80.8717,0.017345
154.233,80.8656,0.017345
154.263,80.8594,0.017345
154.294,80.8534,0.017345
154.325,80.8472,0.017345
154.356,80.8411,0.017345
154.386,80.8349,0.017336
154.417,80.8286,0.017336
154.449,80.8222,0.017336
154.480,80.8162,0.017336
154.511,80.8100,0.017336
154.542,80.8039,0.017336
154.572,80.7977,0.017336
154.604,80.7913,0.017336
154.634,80.7854,0.017336
154.666,80.7789,0.017336
154.697,80.7727,0.017336
154.729,80.7663,0.017336
154.760,80.7601,0.017336
154.792,80.7538,0.017336
154.822,80.7478,0.017336
154.854,80.7414,0.017336
154.885,80.7350,0.017326
154.916,80.7291,0.017326
154.946,80.7229,0.017326
154.977,80.7166,0.017326
155.009,80.7105,0.017326
155.039,80.7042,0.017326
155.070,80.6982,0.017326
155.101,80.6919,0.017326
155.132,80.6858,0.017326
155.162,80.6796,0.017289
155.192,80.6736,0.017289
155.224,80.6672,0.017289
155.255,80.6612,0.017289
155.285,80.6549,0.017289
155.317,80.6487,0.017289
155.348,80.6424,0.017289
155.379,80.6363,0.017298
155.410,80.6301,0.017298
155.441,80.6240,0.017298
155.472,80.6177,0.017298
155.503,80.6114,0.017298
155.535,80.6053,0.017298
155.566,80.5991,0.017298
155.597,80.5927,0.017298
155.628,80.5865,0.017307
155.660,80.5801,0.017307
155.690,80.5742,0.017307
155.721,80.5677,0.017307
155.753,80.5615,0.017307
155.784,80.5552,0.017307
155.815,80.5493,0.017307
155.845,80.5431,0.017307
155.876,80.5370,0.017326
155.908,80.5305,0.017326
155.939,80.5244,0.017326
155.970,80.5180,0.017326
156.001,80.5119,0.017326
156.032,80.5056,0.017326
156.064,80.4994,0.017326
156.095,80.4931,0.017326
156.125,80.4871,0.017326
156.155,80.4810,0.017298
156.186,80.4747,0.017298
156.217,80.4686,0.017298
156.249,80.4623,0.017298
156.279,80.4562,0.017298
156.311,80.4499,0.017298
156.341,80.4440,0.017298
156.372,80.4376,0.017298
156.403,80.4316,0.017307
156.435,80.4250,0.017307
156.467,80.4189,0.017307
156.499,80.4123,0.017307
156.530,80.4063,0.017307
156.562,80.3997,0.017307
156.592,80.3937,0.017307
156.624,80.3872,0.017307
156.655,80.3811,0.017336
156.687,80.3748,0.017336
156.718,80.3686,0.017336
156.749,80.3624,0.017336
156.780,80.3561,0.017336
156.811,80.3498,0.017336
156.843,80.3435,0.017336
156.873,80.3374,0.017336
156.904,80.3313,0.017355
156.935,80.3253,0.017355
156.967,80.3188,0.017355
156.998,80.3126,0.017355
157.029,80.3064,0.017355
157.060,80.3002,0.017355
157.091,80.2940,0.017355
157.122,80.2878,0.017355
157.154,80.2815,0.017383
157.185,80.2752,0.017383
157.216,80.2690,0.017383
157.247,80.2629,0.017383
157.278,80.2566,0.017383
157.309,80.2502,0.017383
157.340,80.2442,0.017383
157.371,80.2380,0.017383
157.401,80.2320,0.017383
157.432,80.2258,0.017383
157.463,80.2194,0.017383
157.494,80.2133,0.017383
157.525,80.2069,0.017383
157.557,80.2007,0.017383
157.588,80.1944,0.017383
157.619,80.1883,0.017383
157.650,80.1819,0.017373
157.681,80.1758,0.017373
157.713,80.1695,0.017373
157.744,80.1632,0.017373
157.775,80.1570,0.017373
157.806,80.1509,0.017373
157.838,80.1447,0.017373
157.869,80.1384,0.017373
157.899,80.1323,0.017355
157.931,80.1260,0.017355
157.961,80.1199,0.017355
157.992,80.1136,0.017355
158.023,80.1075,0.017355
158.055,80.1010,0.017355
158.086,80.0950,0.017355
158.117,80.0886,0.017355
158.149,80.0824,0.017326
158.180,80.0761,0.017326
158.211,80.0702,0.017326
158.242,80.0637,0.017326
158.273,80.0576,0.017326
158.305,80.0512,0.017326
158.336,80.0449,0.017326
158.367,80.0388,0.017326
158.398,80.0326,0.017289
158.430,80.0261,0.017289
158.461,80.0200,0.017289
158.493,80.0136,0.017289
158.524,80.0074,0.017289
158.555,80.0011,0.017289
158.585,79.9951,0.017289
158.617,79.9888,0.017289
158.647,79.9827,0.017345
158.679,79.9763,0.017345
158.710,79.9703,0.017345
158.742,79.9637,0.017345
158.773,79.9577,0.017345
158.804,79.9512,0.017345
158.836,79.9450,0.017345
158.867,79.9387,0.017345
158.898,79.9324,0.017317
158.929,79.9265,0.017317
158.960,79.9202,0.017317
158.991,79.9139,0.017317
159.021,79.9078,0.017317
159.052,79.9016,0.017317
159.084,79.8953,0.017317
159.114,79.8893,0.017317
159.146,79.8830,0.017270
159.176,79.8768,0.017270
159.208,79.8706,0.017270
159.239,79.8644,0.017270
159.270,79.8583,0.017270
159.301,79.8520,0.017270
159.334,79.8454,0.017270
159.363,79.8395,0.017270
159.395,79.8331,0.017242
159.426,79.8271,0.017242
159.457,79.8207,0.017242
159.488,79.8145,0.017242
159.520,79.8081,0.017242
159.551,79.8020,0.017242
159.581,79.7959,0.017242
159.612,79.7899,0.017242
159.642,79.7835,0.017204
159.673,79.7775,0.017204
159.706,79.7709,0.017204
159.736,79.7651,0.017204
159.767,79.7586,0.017204
159.798,79.7527,0.017204
159.831,79.7460,0.017204
159.861,79.7401,0.017204
159.892,79.7338,0.017204
159.923,79.7274,0.017204
159.954,79.7213,0.017204
159.986,79.7149,0.017204
160.018,79.7084,0.017204
160.050,79.7023,0.017204
160.080,79.6961,0.017204
160.111,79.6900,0.017204
160.143,79.6834,0.017091
160.174,79.6775,0.017091
160.205,79.6712,0.017091
160.234,79.6653,0.017091
160.265,79.6593,0.017091
160.296,79.6531,0.017091
160.327,79.6466,0.017091
160.358,79.6407,0.017091
160.389,79.6345,0.017091
160.420,79.6280,0.017100
160.451,79.6219,0.017100
160.483,79.6156,0.017100
160.514,79.6094,0.017100
160.545,79.6032,0.017100
160.576,79.5969,0.017100
160.607,79.5907,0.017100
160.639,79.5845,0.017100
160.669,79.5784,0.017128
160.701,79.5719,0.017128
160.731,79.5660,0.017128
160.763,79.5597,0.017128
160.795,79.5531,0.017128
160.824,79.5473,0.017128
160.856,79.5411,0.017128
160.887,79.5347,0.017128
160.919,79.5284,0.017053
160.950,79.5221,0.017053
160.981,79.5160,0.017053
161.013,79.5096,0.017053
161.044,79.5034,0.017053
161.074,79.4973,0.017053
161.105,79.4911,0.017053
161.137,79.4849,0.016949
161.167,79.4788,0.016949
161.199,79.4722,0.016949
161.230,79.4662,0.016949
161.260,79.4601,0.016949
161.292,79.4536,0.016949
161.323,79.4474,0.016949
161.355,79.4412,0.016949
161.385,79.4352,0.016902
161.417,79.4288,0.016902
161.447,79.4226,0.016902
161.479,79.4163,0.016902
161.511,79.4099,0.016902
161.541,79.4039,0.016902
161.573,79.3976,0.016902
161.605,79.3911,0.016902
161.635,79.3850,0.016902
161.666,79.3791,0.016968
161.697,79.3726,0.016968
161.730,79.3662,0.016968
161.760,79.3601,0.016968
161.791,79.3539,0.016968
161.822,79.3477,0.016968
161.853,79.3416,0.016968
161.884,79.3353,0.016912
161.915,79.3291,0.016912
161.946,79.3230,0.016912
161.979,79.3165,0.016912
162.008,79.3106,0.016912
162.039,79.3044,0.016912
162.069,79.2984,0.016912
162.101,79.2920,0.016912
162.133,79.2856,0.016912
162.164,79.2794,0.016799
162.196,79.2731,0.016799
162.228,79.2666,0.016799
162.258,79.2610,0.016799
162.289,79.2558,0.016799
162.320,79.2515,0.016799
162.350,79.2479,0.016799
162.381,79.2449,0.016799
162.413,79.2427,0.016695
162.443,79.2412,0.016695
162.474,79.2404,0.016695
162.505,79.2403,0.016695
162.536,79.2403,0.016695
162.568,79.2403,0.016695
162.600,79.2403,0.016695
162.631,79.2403,0.016573
162.663,79.2403,0.016573
162.694,79.2403,0.016573
162.726,79.2403,0.016573
162.755,79.2403,0.016573
162.787,79.2403,0.016573
162.817,79.2403,0.016573
162.848,79.2403,0.016573
162.880,79.2403,0.016488
162.911,79.2406,0.016488
162.941,79.2414,0.016488
162.973,79.2432,0.016488
163.003,79.2454,0.016488
163.035,79.2486,0.016488
163.067,79.2526,0.016488
163.098,79.2573,0.016488
163.130,79.2625,0.016365
163.161,79.2687,0.016365
163.193,79.2749,0.016365
163.225,79.2814,0.016365
163.254,79.2873,0.016365
163.286,79.2936,0.016365
163.317,79.3000,0.016365
163.349,79.3063,0.016365
163.379,79.3122,0.016262
163.410,79.3184,0.016262
163.441,79.3246,0.016262
163.471,79.3306,0.016262
163.501,79.3367,0.016262
163.533,79.3430,0.016262
163.564,79.3492,0.016262
163.594,79.3553,0.016262
163.626,79.3617,0.016262
163.658,79.3682,0.016262
163.689,79.3743,0.016271
163.720,79.3806,0.016271
163.751,79.3865,0.016271
163.782,79.3927,0.016271
163.813,79.3991,0.016271
163.845,79.4055,0.016271
163.877,79.4118,0.016271
163.909,79.4182,0.016271
163.941,79.4247,0.016318
163.970,79.4306,0.016318
164.002,79.4368,0.016318
164.033,79.4432,0.016318
164.064,79.4493,0.016318
164.096,79.4557,0.016318
164.127,79.4619,0.016318
164.158,79.4681,0.016318
164.189,79.4742,0.016309
164.220,79.4804,0.016309
164.251,79.4865,0.016309
164.282,79.4929,0.016309
164.313,79.4990,0.016309
164.344,79.5053,0.016309
164.375,79.5113,0.016309
164.406,79.5178,0.016233
164.437,79.5238,0.016233
164.468,79.5300,0.016233
164.499,79.5364,0.016233
164.530,79.5423,0.016233
164.561,79.5485,0.016233
164.592,79.5548,0.016233
164.624,79.5614,0.016233
164.654,79.5674,0.016233
164.686,79.5738,0.016215
164.716,79.5796,0.016215
164.747,79.5857,0.016215
164.778,79.5919,0.016215
164.809,79.5982,0.016215
164.841,79.6046,0.016215
164.873,79.6111,0.016215
164.902,79.6170,0.016215
164.933,79.6230,0.016337
164.964,79.6295,0.016337
164.995,79.6353,0.016337
165.025,79.6415,0.016337
165.056,79.6476,0.016337
165.087,79.6539,0.016337
165.118,79.6601,0.016337
165.150,79.6663,0.016337
165.181,79.6728,0.016412
165.213,79.6791,0.016412
165.243,79.6852,0.016412
165.274,79.6914,0.016412
165.305,79.6976,0.016412
165.337,79.7039,0.016412
165.368,79.7102,0.016412
165.399,79.7163,0.016412
165.430,79.7226,0.016375
165.462,79.7288,0.016375
165.494,79.7353,0.016375
165.525,79.7414,0.016375
165.556,79.7477,0.016375
165.586,79.7538,0.016375
165.618,79.7600,0.016375
165.649,79.7663,0.016309
165.679,79.7722,0.016309
165.710,79.7787,0.016309
165.741,79.7846,0.016309
165.773,79.7912,0.016309
165.804,79.7973,0.016309
165.835,79.8036,0.016309
165.866,79.8097,0.016309
165.897,79.8160,0.016309
165.928,79.8220,0.016328
165.960,79.8286,0.016328
165.990,79.8345,0.016328
166.021,79.8408,0.016328
166.053,79.8469,0.016328
166.082,79.8530,0.016328
166.114,79.8592,0.016328
166.145,79.8654,0.016328
166.178,79.8720,0.016394
166.208,79.8780,0.016394
166.239,79.8842,0.016394
166.271,79.8906,0.016394
166.301,79.8966,0.016394
166.332,79.9028,0.016394
166.363,79.9089,0.016394
166.394,79.9154,0.016394
166.426,79.9216,0.016375
166.457,79.9279,0.016375
166.487,79.9338,0.016375
166.518,79.9401,0.016375
166.549,79.9461,0.016375
166.579,79.9525,0.016375
166.610,79.9584,0.016375
166.641,79.9646,0.016384
166.672,79.9707,0.016384
166.703,79.9771,0.016384
166.736,79.9836,0.016384
166.765,79.9894,0.016384
166.794,79.9951,0.016384
166.824,80.0013,0.016384
166.855,80.0074,0.016384
166.886,80.0136,0.016384
166.917,80.0198,0.016422
166.947,80.0259,0.016422
166.978,80.0321,0.016422
167.010,80.0383,0.016422
167.041,80.0446,0.016422
167.073,80.0509,0.016422
167.103,80.0571,0.016422
167.135,80.0635,0.016422
167.166,80.0695,0.016422
167.197,80.0759,0.016422
167.228,80.0822,0.016422
167.260,80.0885,0.016422
167.291,80.0947,0.016422
167.322,80.1009,0.016422
167.353,80.1069,0.016422
167.384,80.1131,0.016460
167.415,80.1194,0.016460
167.447,80.1257,0.016460
167.477,80.1319,0.016460
167.508,80.1380,0.016460
167.540,80.1446,0.016460
167.571,80.1506,0.016460
167.603,80.1571,0.016460
167.634,80.1632,0.016478
167.665,80.1695,0.016478
167.696,80.1756,0.016478
167.728,80.1820,0.016478
167.759,80.1882,0.016478
167.791,80.1945,0.016478
167.822,80.2007,0.016478
167.853,80.2069,0.016478
167.883,80.2132,0.016450
167.914,80.2195,0.016450
167.945,80.2254,0.016450
167.976,80.2318,0.016450
168.007,80.2378,0.016450
168.038,80.2442,0.016450
168.070,80.2505,0.016450
168.101,80.2568,0.016450
168.132,80.2629,0.016403
168.163,80.2692,0.016403
168.194,80.2753,0.016403
168.227,80.2819,0.016403
168.256,80.2877,0.016403
168.287,80.2939,0.016403
168.318,80.3000,0.016403
168.349,80.3062,0.016403
168.381,80.3127,0.016384
168.413,80.3189,0.016384
168.445,80.3254,0.016384
168.476,80.3316,0.016384
168.508,80.3380,0.016384
168.537,80.3440,0.016384
168.568,80.3499,0.016384
168.599,80.3563,0.016384
168.631,80.3625,0.016384
168.661,80.3687,0.016365
168.692,80.3748,0.016365
168.724,80.3813,0.016365
168.755,80.3873,0.016365
168.786,80.3936,0.016365
168.817,80.3999,0.016365
168.849,80.4061,0.016365
168.879,80.4122,0.016309
168.910,80.4183,0.016309
168.941,80.4245,0.016309
168.972,80.4308,0.016309
169.003,80.4371,0.016309
169.034,80.4431,0.016309
169.065,80.4494,0.016309
169.096,80.4556,0.016309
169.127,80.4618,0.016309
169.158,80.4679,0.016290
169.189,80.4743,0.016290
169.220,80.4804,0.016290
169.251,80.4866,0.016290
169.283,80.4929,0.016290
169.314,80.4991,0.016290
169.345,80.5055,0.016290
169.377,80.5119,0.016290
169.409,80.5181,0.016243
169.439,80.5243,0.016243
169.471,80.5305,0.016243
169.502,80.5370,0.016243
169.533,80.5429,0.016243
169.563,80.5490,0.016243
169.595,80.5556,0.016243
169.625,80.5614,0.016167
169.656,80.5677,0.016167
169.687,80.5739,0.016167
169.718,80.5800,0.016167
169.749,80.5862,0.016167
169.780,80.5924,0.016167
169.811,80.5986,0.016167
169.841,80.6047,0.016167
169.873,80.6111,0.016167
169.904,80.6172,0.016064
169.935,80.6235,0.016064
169.967,80.6297,0.016064
169.998,80.6361,0.016064
170.029,80.6421,0.016064
170.060,80.6486,0.016064
170.091,80.6545,0.016064
170.122,80.6610,0.016017
170.154,80.6671,0.016017
170.185,80.6735,0.016017
170.216,80.6795,0.016017
170.248,80.6861,0.016017
170.278,80.6920,0.016017
170.309,80.6981,0.016017
170.340,80.7045,0.016017
170.371,80.7106,0.016017
170.403,80.7169,0.015979
170.434,80.7231,0.015979
170.465,80.7295,0.015979
170.496,80.7358,0.015979
170.527,80.7419,0.015979
170.558,80.7481,0.015979
170.589,80.7541,0.015979
170.620,80.7603,0.015979
170.651,80.7665,0.015932
170.682,80.7727,0.015932
170.713,80.7791,0.015932
170.745,80.7854,0.015932
170.776,80.7915,0.015932
170.807,80.7978,0.015932
170.837,80.8039,0.015932
170.868,80.8101,0.015932
170.900,80.8163,0.015875
170.931,80.8225,0.015875
170.961,80.8288,0.015875
170.992,80.8348,0.015875
171.024,80.8413,0.015875
171.055,80.8475,0.015875
171.087,80.8539,0.015875
171.118,80.8599,0.015875
171.149,80.8661,0.015734
171.179,80.8722,0.015734
171.209,80.8783,0.015734
171.241,80.8845,0.015734
171.272,80.8907,0.015734
171.302,80.8969,0.015734
171.333,80.9030,0.015734
171.365,80.9095,0.015734
171.396,80.9155,0.015546
171.427,80.9217,0.015546
171.458,80.9280,0.015546
171.490,80.9343,0.015546
171.521,80.9408,0.015546
171.552,80.9467,0.015546
171.583,80.9530,0.015546
171.614,80.9593,0.015546
171.645,80.9654,0.015451
171.676,80.9716,0.015451
171.707,80.9778,0.015451
171.738,80.9840,0.015451
171.769,80.9903,0.015451
171.800,80.9964,0.015451
171.831,81.0026,0.015451
171.863,81.0089,0.015451
171.894,81.0153,0.015367
171.926,81.0214,0.015367
171.957,81.0279,0.015367
171.988,81.0341,0.015367
172.019,81.0403,0.015367
172.051,81.0465,0.015367
172.083,81.0529,0.015367
172.114,81.0590,0.015367
172.144,81.0653,0.015244
172.174,81.0713,0.015244
172.205,81.0773,0.015244
172.236,81.0835,0.015244
172.267,81.0897,0.015244
172.298,81.0959,0.015244
172.329,81.1022,0.015244
172.360,81.1084,0.015244
172.391,81.1146,0.015244
172.422,81.1208,0.015169
172.453,81.1271,0.015169
172.485,81.1333,0.015169
172.516,81.1396,0.015169
172.546,81.1458,0.015169
172.577,81.1518,0.015169
172.608,81.1580,0.015169
172.640,81.1644,0.015169
172.671,81.1707,0.015084
172.703,81.1769,0.015084
172.733,81.1830,0.015084
172.764,81.1893,0.015084
172.795,81.1954,0.015084
172.826,81.2017,0.015084
172.857,81.2077,0.015084
172.888,81.2141,0.015084
172.920,81.2202,0.014952
172.951,81.2267,0.014952
172.981,81.2326,0.014952
173.013,81.2392,0.014952
173.044,81.2453,0.014952
173.076,81.2517,0.014952
173.108,81.2579,0.014952
173.139,81.2642,0.014952
173.170,81.2705,0.014830
173.202,81.2768,0.014830
173.233,81.2830,0.014830
173.264,81.2892,0.014830
173.295,81.2954,0.014830
173.325,81.3015,0.014830
173.355,81.3074,0.014830
173.386,81.3136,0.014830
173.417,81.3198,0.014613
173.449,81.3261,0.014613
173.480,81.3322,0.014613
173.511,81.3384,0.014613
173.542,81.3447,0.014613
173.574,81.3511,0.014613
173.605,81.3573,0.014613
173.636,81.3636,0.014613
173.666,81.3695,0.014453
173.698,81.3761,0.014453
173.730,81.3823,0.014453
173.761,81.3886,0.014453
173.792,81.3947,0.014453
173.823,81.4009,0.014453
173.854,81.4072,0.014453
173.885,81.4133,0.014453
173.916,81.4195,0.014349
173.947,81.4259,0.014349
173.979,81.4321,0.014349
174.010,81.4384,0.014349
174.041,81.4446,0.014349
174.072,81.4508,0.014349
174.103,81.4569,0.014349
174.134,81.4632,0.014349
174.166,81.4695,0.014161
174.196,81.4757,0.014161
174.228,81.4819,0.014161
174.259,81.4884,0.014161
174.289,81.4942,0.014161
174.320,81.5005,0.014161
174.352,81.5066,0.014161
174.383,81.5129,0.014161
174.413,81.5190,0.013982
174.444,81.5252,0.013982
174.475,81.5315,0.013982
174.507,81.5377,0.013982
174.538,81.5440,0.013982
174.568,81.5501,0.013982
174.599,81.5563,0.013982
174.630,81.5624,0.013982
174.661,81.5686,0.013784
174.692,81.5748,0.013784
174.723,81.5810,0.013784
174.753,81.5871,0.013784
174.785,81.5933,0.013784
174.816,81.5995,0.013784
174.846,81.6054,0.013784
174.876,81.6118,0.013784
174.907,81.6177,0.013784
174.937,81.6237,0.013539
174.967,81.6300,0.013539
174.998,81.6361,0.013539
175.029,81.6421,0.013539
175.061,81.6485,0.013539
175.091,81.6547,0.013539
175.123,81.6609,0.013539
175.155,81.6673,0.013275
175.187,81.6738,0.013275
175.217,81.6797,0.013275
175.249,81.6861,0.013275
175.280,81.6925,0.013275
175.311,81.6987,0.013275
175.342,81.7048,0.013275
175.373,81.7111,0.013275
175.404,81.7172,0.012945
175.435,81.7234,0.012945
175.466,81.7295,0.012945
175.497,81.7358,0.012945
175.528,81.7419,0.012945
175.559,81.7482,0.012945
175.590,81.7544,0.012945
175.621,81.7607,0.012945
175.652,81.7668,0.012578
175.684,81.7734,0.012578
175.715,81.7793,0.012578
175.747,81.7858,0.012578
175.778,81.7920,0.012578
175.810,81.7984,0.012578
175.842,81.8046,0.012578
175.873,81.8109,0.012578
175.904,81.8171,0.012210
175.936,81.8235,0.012210
175.966,81.8294,0.012210
175.997,81.8357,0.012210
176.027,81.8418,0.012210
176.058,81.8480,0.012210
176.089,81.8542,0.012210
176.119,81.8602,0.012210
176.150,81.8665,0.011683
176.182,81.8727,0.011683
176.213,81.8792,0.011683
176.244,81.8851,0.011683
176.276,81.8916,0.011683
176.306,81.8975,0.011683
176.336,81.9035,0.011683
176.366,81.9095,0.011683
176.398,81.9161,0.010948
176.428,81.9218,0.010948
176.459,81.9280,0.010948
176.490,81.9343,0.010948
176.520,81.9404,0.010948
176.551,81.9466,0.010948
176.582,81.9526,0.010948
176.612,81.9589,0.010948
176.644,81.9651,0.010948
176.674,81.9713,0.009902
176.706,81.9775,0.009902
176.737,81.9838,0.009902
176.767,81.9898,0.009902
176.799,81.9962,0.009902
176.830,82.0024,0.009902
176.862,82.0086,0.009902
176.893,82.0150,0.009902
176.925,82.0213,0.008489
176.956,82.0276,0.008489
176.987,82.0337,0.008489
177.018,82.0399,0.008489
177.049,82.0461,0.008489
177.080,82.0523,0.008489
177.111,82.0585,0.008489
177.142,82.0649,0.006463
177.173,82.0710,0.006463
177.204,82.0771,0.006463
177.235,82.0833,0.006463
177.266,82.0896,0.006463
177.297,82.0957,0.006463
177.328,82.1020,0.006463
177.360,82.1084,0.006463
177.391,82.1147,0.006463
177.423,82.1209,0.003505
177.453,82.1271,0.003505
177.485,82.1335,0.003505
177.517,82.1397,0.003505
177.548,82.1459,0.003505
177.579,82.1521,0.003505
177.609,82.1581,0.003505
177.641,82.1645,0.003505
177.672,82.1706,-0.000556
177.703,82.1771,-0.000556
177.734,82.1830,-0.000556
177.765,82.1893,-0.000556
177.796,82.1955,-0.000556
177.827,82.2017,-0.000556
177.858,82.2078,-0.000556
177.889,82.2143,-0.000556
177.920,82.2200,-0.005728
177.953,82.2253,-0.005728
177.984,82.2295,-0.005728
178.016,82.2332,-0.005728
178.046,82.2361,-0.005728
178.078,82.2382,-0.005728
178.108,82.2396,-0.005728
178.139,82.2402,-0.011033
178.170,82.2403,-0.011033
178.201,82.2403,-0.011033
178.233,82.2403,-0.011033
178.265,82.2403,-0.011033
178.295,82.2403,-0.011033
178.326,82.2403,-0.011033
178.357,82.2403,-0.011033
178.388,82.2403,-0.011033
178.420,82.2403,-0.012587
178.451,82.2403,-0.012587
178.483,82.2403,-0.012587
178.514,82.2403,-0.012587
178.545,82.2403,-0.012587
178.577,82.2403,-0.012587
178.608,82.2403,-0.012587
178.638,82.2403,-0.012587
178.669,82.2403,-0.010354
178.700,82.2403,-0.010354
178.731,82.2403,-0.010354
178.762,82.2403,-0.010354
178.793,82.2403,-0.010354
178.824,82.2403,-0.010354
178.855,82.2403,-0.010354
178.886,82.2403,-0.008187
178.917,82.2403,-0.008187
178.947,82.2403,-0.008187
178.978,82.2403,-0.008187
179.010,82.2403,-0.008187
179.042,82.2403,-0.008187
179.072,82.2403,-0.008187
179.103,82.2403,-0.008187
179.134,82.2403,-0.008187
179.166,82.2403,-0.006520
179.198,82.2403,-0.006520
179.231,82.2403,-0.006520
179.260,82.2403,-0.006520
179.292,82.2403,-0.006520
179.324,82.2403,-0.006520
179.355,82.2403,-0.006520
179.386,82.2403,-0.005229
179.417,82.2403,-0.005229
179.448,82.2403,-0.005229
179.479,82.2403,-0.005229
179.510,82.2403,-0.005229
179.541,82.2403,-0.005229
179.571,82.2403,-0.005229
179.603,82.2403,-0.005229
179.634,82.2403,-0.005229
179.665,82.2403,-0.004211
179.697,82.2403,-0.004211
179.727,82.2403,-0.004211
179.758,82.2403,-0.004211
179.789,82.2403,-0.004211
179.820,82.2403,-0.004211
179.852,82.2403,-0.004211
179.884,82.2403,-0.004211
179.914,82.2403,-0.003307
179.946,82.2403,-0.003307
179.976,82.2403,-0.003307
180.007,82.2403,-0.003307
180.039,82.2403,-0.003307
180.069,82.2403,-0.003307
180.100,82.2403,-0.003307
180.131,82.2403,-0.003307
180.162,82.2403,-0.002506
180.193,82.2403,-0.002506
180.225,82.2403,-0.002506
180.256,82.2403,-0.002506
180.287,82.2403,-0.002506
180.317,82.2403,-0.002506
180.348,82.2403,-0.002506
180.379,82.2403,-0.002506
180.410,82.2403,-0.001743
180.442,82.2403,-0.001743
180.473,82.2403,-0.001743
180.505,82.2403,-0.001743
180.536,82.2403,-0.001743
180.568,82.2403,-0.001743
180.598,82.2403,-0.001743
180.630,82.2403,-0.001121
180.661,82.2403,-0.001121
180.691,82.2403,-0.001121
180.722,82.2403,-0.001121
180.752,82.2403,-0.001121
180.784,82.2403,-0.001121
180.815,82.2403,-0.001121
180.847,82.2403,-0.001121
180.878,82.2403,-0.001121
180.908,82.2403,-0.000594
180.940,82.2403,-0.000594
180.971,82.2403,-0.000594
181.003,82.2403,-0.000594
181.034,82.2403,-0.000594
181.065,82.2403,-0.000594
181.096,82.2403,-0.000594
181.128,82.2403,-0.000594
181.160,82.2403,-0.000132
181.191,82.2403,-0.000132
181.223,82.2403,-0.000132
181.253,82.2403,-0.000132
181.284,82.2403,-0.000132
181.316,82.2403,-0.000132
181.347,82.2403,-0.000132
181.378,82.2403,0.000386
181.409,82.2403,0.000386
181.440,82.2403,0.000386
181.471,82.2403,0.000386
181.502,82.2403,0.000386
181.533,82.2403,0.000386
181.564,82.2403,0.000386
181.595,82.2403,0.000386
181.627,82.2403,0.000386
181.658,82.2403,0.000923
181.690,82.2403,0.000923
181.721,82.2403,0.000923
181.751,82.2403,0.000923
181.782,82.2403,0.000923
181.813,82.2403,0.000923
181.845,82.2403,0.000923
181.876,82.2403,0.000923
181.907,82.2403,0.001338
181.938,82.2403,0.001338
181.969,82.2403,0.001338
182.001,82.2403,0.001338
182.032,82.2403,0.001338
182.061,82.2403,0.001338
182.093,82.2403,0.001338
182.123,82.2403,0.001338
182.155,82.2403,0.001668
182.186,82.2403,0.001668
182.216,82.2403,0.001668
182.248,82.2403,0.001668
182.279,82.2403,0.001668
182.310,82.2403,0.001668
182.340,82.2403,0.001668
182.372,82.2403,0.001668
182.402,82.2403,0.001583
182.434,82.2403,0.001583
182.465,82.2403,0.001583
182.497,82.2403,0.001583
182.528,82.2403,0.001583
182.559,82.2403,0.001583
182.590,82.2403,0.001583
182.622,82.2403,0.001583
182.653,82.2403,0.000933
182.683,82.2403,0.000933
182.714,82.2403,0.000933
182.747,82.2403,0.000933
182.777,82.2403,0.000933
182.809,82.2401,0.000933
182.839,82.2392,0.000933
182.870,82.2376,0.000933
182.901,82.2354,0.000396
182.931,82.2323,0.000396
182.962,82.2287,0.000396
182.993,82.2242,0.000396
183.024,82.2189,0.000396
183.055,82.2129,0.000396
183.086,82.2066,0.000396
183.117,82.2004,0.000396
183.148,82.1943,0.003090
183.179,82.1881,0.003090
183.210,82.1819,0.003090
183.241,82.1758,0.003090
183.271,82.1696,0.003090
183.302,82.1634,0.003090
183.333,82.1573,0.003090
183.363,82.1513,0.003090
183.394,82.1452,0.003090
183.424,82.1390,0.014368
183.455,82.1329,0.014368
183.487,82.1266,0.014368
183.518,82.1203,0.014368
183.549,82.1142,0.014368
183.580,82.1079,0.014368
183.611,82.1018,0.014368
183.641,82.0956,0.014368
183.673,82.0894,0.014368
183.705,82.0829,0.032768
183.735,82.0767,0.032768
183.766,82.0706,0.032768
183.796,82.0646,0.032768
183.828,82.0582,0.032768
183.859,82.0520,0.032768
183.890,82.0458,0.032768
183.921,82.0396,0.054052
183.953,82.0332,0.054052
183.985,82.0270,0.054052
184.016,82.0208,0.054052
184.046,82.0146,0.054052
184.078,82.0083,0.054052
184.108,82.0021,0.054052
184.139,81.9961,0.078633
184.170,81.9899,0.078633
184.201,81.9837,0.078633
184.232,81.9774,0.078633
184.263,81.9713,0.078633
184.295,81.9649,0.078633
184.325,81.9588,0.078633
184.357,81.9526,0.078633
184.386,81.9466,0.106794
184.418,81.9402,0.106794
184.449,81.9341,0.106794
184.481,81.9275,0.106794
184.512,81.9216,0.106794
184.543,81.9152,0.106794
184.574,81.9090,0.106794
184.605,81.9030,0.106794
184.636,81.8968,0.138903
184.668,81.8903,0.138903
184.698,81.8842,0.138903
184.729,81.8779,0.138903
184.760,81.8720,0.138903
184.791,81.8655,0.138903
184.822,81.8596,0.138903
184.853,81.8531,0.138903
184.884,81.8470,0.175496
184.915,81.8408,0.175496
184.946,81.8346,0.175496
184.978,81.8283,0.175496
185.008,81.8224,0.175496
185.040,81.8158,0.175496
185.071,81.8098,0.175496
185.101,81.8036,0.175496
185.133,81.7974,0.216565
185.164,81.7912,0.216565
185.195,81.7850,0.216565
185.226,81.7787,0.216565
185.256,81.7725,0.216565
185.287,81.7665,0.216565
185.318,81.7603,0.216565
185.349,81.7540,0.216565
185.380,81.7477,0.216565
185.411,81.7417,0.216565
185.444,81.7352,0.262165
185.473,81.7292,0.262165
185.504,81.7231,0.262165
185.536,81.7168,0.262165
185.567,81.7105,0.262165
185.598,81.7043,0.262165
185.629,81.6981,0.262165
185.660,81.6919,0.262165
185.691,81.6858,0.312194
185.722,81.6795,0.312194
185.753,81.6733,0.312194
185.784,81.6672,0.312194
185.815,81.6608,0.312194
185.845,81.6547,0.312194
185.876,81.6486,0.312194
185.907,81.6425,0.366340
185.937,81.6363,0.366340
185.968,81.6304,0.366340
185.999,81.6240,0.366340
186.030,81.6180,0.366340
186.062,81.6115,0.366340
186.093,81.6053,0.366340
186.125,81.5989,0.366340
186.156,81.5927,0.424594
186.187,81.5862,0.424594
186.219,81.5801,0.424594
186.250,81.5739,0.424594
186.281,81.5679,0.424594
186.312,81.5615,0.424594
186.343,81.5551,0.424594
186.374,81.5491,0.424594
186.405,81.5429,0.486880
186.436,81.5366,0.486880
186.467,81.5305,0.486880
186.498,81.5243,0.486880
186.528,81.5182,0.486880
186.559,81.5120,0.486880
186.590,81.5058,0.486880
186.622,81.4995,0.486880
186.653,81.4933,0.552973
186.684,81.4870,0.552973
186.716,81.4808,0.552973
186.747,81.4743,0.552973
186.779,81.4681,0.552973
186.810,81.4618,0.552973
186.841,81.4556,0.552973
186.872,81.4495,0.622683
186.903,81.4432,0.622683
186.935,81.4369,0.622683
186.967,81.4306,0.622683
186.998,81.4242,0.622683
187.028,81.4183,0.622683
187.060,81.4120,0.622683
187.090,81.4059,0.622683
187.121,81.3997,0.696058
187.152,81.3935,0.696058
187.183,81.3873,0.696058
187.214,81.3812,0.696058
187.245,81.3749,0.696058
187.276,81.3687,0.696058
187.307,81.3624,0.696058
187.338,81.3563,0.696058
187.369,81.3501,0.696058
187.401,81.3437,0.772647
187.432,81.3375,0.772647
187.463,81.3313,0.772647
187.494,81.3251,0.772647
187.524,81.3191,0.772647
187.556,81.3129,0.772647
187.586,81.3065,0.772647
187.617,81.3003,0.851307
187.648,81.2944,0.851307
187.679,81.2879,0.851307
187.710,81.2819,0.851307
187.741,81.2755,0.851307
187.772,81.2696,0.851307
187.803,81.2633,0.851307
187.834,81.2571,0.851307
187.863,81.2511,0.851307
187.895,81.2449,0.851307
187.926,81.2388,0.931928
187.957,81.2325,0.931928
187.988,81.2263,0.931928
188.019,81.2200,0.931928
188.051,81.2139,0.931928
188.081,81.2077,0.931928
188.113,81.2014,0.931928
188.143,81.1953,0.931928
188.174,81.1891,1.015008
188.207,81.1825,1.015008
188.237,81.1766,1.015008
188.268,81.1704,1.015008
188.299,81.1642,1.015008
188.330,81.1578,1.015008
188.362,81.1516,1.015008
188.394,81.1452,1.015008
188.424,81.1392,1.097089
188.455,81.1329,1.097089
188.487,81.1267,1.097089
188.518,81.1203,1.097089
188.550,81.1139,1.097089
188.582,81.1075,1.097089
188.615,81.1010,1.097089
188.645,81.0948,1.143481
188.675,81.0888,1.143481
188.706,81.0827,1.143481
188.738,81.0765,1.143481
188.768,81.0704,1.143481
188.799,81.0642,1.143481
188.829,81.0580,1.143481
188.860,81.0519,1.143481
188.891,81.0457,1.143481
188.921,81.0398,0.583988
188.952,81.0334,0.583988
188.983,81.0272,0.583988
189.015,81.0209,0.583988
189.047,81.0146,0.583988
189.078,81.0081,0.583988
189.109,81.0022,0.583988
189.140,80.9959,0.583988
189.172,80.9897,0.017769
189.202,80.9836,0.017769
189.233,80.9774,0.017769
189.264,80.9711,0.017769
189.296,80.9649,0.017769
189.327,80.9584,0.017769
189.358,80.9523,0.017769
189.389,80.9461,0.017769
189.419,80.9401,0.017486
189.449,80.9340,0.017486
189.480,80.9280,0.017486
189.511,80.9218,0.017486
189.542,80.9156,0.017486
189.574,80.9090,0.017486
189.605,80.9030,0.017486
189.637,80.8965,0.017486
189.667,80.8906,0.017486
189.698,80.8842,0.017392
189.729,80.8780,0.017392
189.761,80.8716,0.017392
189.792,80.8656,0.017392
189.822,80.8593,0.017392
189.853,80.8532,0.017392
189.885,80.8469,0.017392
189.916,80.8408,0.017355
189.947,80.8344,0.017355
189.978,80.8283,0.017355
190.009,80.8221,0.017355
190.040,80.8159,0.017355
190.071,80.8097,0.017355
190.102,80.8035,0.017355
190.133,80.7973,0.017355
190.164,80.7910,0.017373
190.195,80.7850,0.017373
190.226,80.7784,0.017373
190.257,80.7725,0.017373
190.288,80.7664,0.017373
190.319,80.7601,0.017373
190.350,80.7539,0.017373
190.381,80.7477,0.017373
190.413,80.7414,0.017345
190.443,80.7353,0.017345
190.474,80.7291,0.017345
190.505,80.7228,0.017345
190.537,80.7167,0.017345
190.569,80.7101,0.017345
190.600,80.7039,0.017345
190.632,80.6976,0.017336
190.663,80.6915,0.017336
190.693,80.6852,0.017336
190.724,80.6790,0.017336
190.756,80.6727,0.017336
190.788,80.6663,0.017336
190.818,80.6603,0.017336
190.849,80.6541,0.017336
190.881,80.6477,0.017345
190.912,80.6415,0.017345
190.943,80.6355,0.017345
190.973,80.6292,0.017345
191.004,80.6232,0.017345
191.035,80.6170,0.017345
191.066,80.6108,0.017345
191.097,80.6046,0.017345
191.129,80.5982,0.017345
191.159,80.5922,0.017336
191.191,80.5857,0.017336
191.221,80.5796,0.017336
191.253,80.5734,0.017336
191.284,80.5671,0.017336
191.315,80.5608,0.017336
191.347,80.5546,0.017336
191.378,80.5484,0.017355
191.409,80.5422,0.017355
191.440,80.5359,0.017355
191.470,80.5299,0.017355
191.501,80.5236,0.017355
191.533,80.5175,0.017355
191.564,80.5111,0.017355
191.594,80.5051,0.017355
191.625,80.4989,0.017355
191.656,80.4928,0.017430
191.687,80.4864,0.017430
191.719,80.4803,0.017430
191.751,80.4737,0.017430
191.782,80.4676,0.017430
191.813,80.4612,0.017430
191.844,80.4551,0.017430
191.876,80.4488,0.017364
191.906,80.4427,0.017364
191.937,80.4364,0.017364
191.968,80.4302,0.017364
191.998,80.4242,0.017364
192.029,80.4182,0.017364
192.060,80.4120,0.017364
192.091,80.4058,0.017364
192.122,80.3996,0.017364
192.153,80.3934,0.017317
192.184,80.3873,0.017317
192.215,80.3810,0.017317
192.246,80.3748,0.017317
192.277,80.3686,0.017317
192.308,80.3624,0.017317
192.340,80.3560,0.017317
192.372,80.3496,0.017364
192.402,80.3435,0.017364
192.434,80.3372,0.017364
192.465,80.3310,0.017364
192.496,80.3248,0.017364
192.528,80.3184,0.017364
192.559,80.3122,0.017364
192.590,80.3059,0.017364
192.621,80.2997,0.017383
192.652,80.2934,0.017383
192.683,80.2873,0.017383
192.714,80.2811,0.017383
192.745,80.2749,0.017383
192.776,80.2686,0.017383
192.807,80.2626,0.017383
192.839,80.2562,0.017383
192.868,80.2504,0.017383
192.899,80.2442,0.017392
192.931,80.2377,0.017392
192.962,80.2316,0.017392
192.993,80.2253,0.017392
193.025,80.2191,0.017392
193.056,80.2127,0.017392
193.086,80.2066,0.017392
193.118,80.2005,0.017402
193.149,80.1942,0.017402
193.180,80.1881,0.017402
193.210,80.1819,0.017402
193.241,80.1758,0.017402
193.273,80.1695,0.017402
193.304,80.1632,0.017402
193.335,80.1571,0.017402
193.366,80.1508,0.017402
193.398,80.1443,0.017383
193.428,80.1384,0.017383
193.460,80.1322,0.017383
193.490,80.1258,0.017383
193.523,80.1195,0.017383
193.555,80.1131,0.017383
193.585,80.1069,0.017383
193.617,80.1007,0.017383
193.648,80.0943,0.017364
193.679,80.0880,0.017364
193.711,80.0818,0.017364
193.742,80.0755,0.017364
193.774,80.0693,0.017364
193.805,80.0630,0.017364
193.835,80.0568,0.017364
193.866,80.0506,0.017307
193.898,80.0444,0.017307
193.928,80.0384,0.017307
193.959,80.0321,0.017307
193.990,80.0259,0.017307
194.021,80.0197,0.017307
194.053,80.0133,0.017307
194.084,80.0070,0.017307
194.115,80.0011,0.017307
194.146,79.9946,0.017289
194.177,79.9885,0.017289
194.208,79.9823,0.017289
194.239,79.9761,0.017289
194.270,79.9701,0.017289
194.300,79.9639,0.017289
194.332,79.9575,0.017289
194.363,79.9515,0.017289
194.394,79.9451,0.017251
194.424,79.9389,0.017251
194.455,79.9329,0.017251
194.486,79.9269,0.017251
194.517,79.9206,0.017251
194.548,79.9144,0.017251
194.580,79.9081,0.017251
194.610,79.9020,0.017251
194.642,79.8955,0.017223
194.673,79.8893,0.017223
194.704,79.8831,0.017223
194.734,79.8772,0.017223
194.766,79.8708,0.017223
194.796,79.8648,0.017223
194.828,79.8583,0.017223
194.860,79.8520,0.017223
194.891,79.8459,0.017223
194.922,79.8397,0.017260
194.953,79.8335,0.017260
194.983,79.8273,0.017260
195.015,79.8209,0.017260
195.046,79.8148,0.017260
195.077,79.8085,0.017260
195.109,79.8023,0.017260
195.140,79.7961,0.017260
195.170,79.7895,0.017260
195.202,79.7834,0.017242
195.233,79.7773,0.017242
195.264,79.7713,0.017242
195.295,79.7648,0.017242
195.326,79.7587,0.017242
195.358,79.7524,0.017242
195.389,79.7463,0.017242
195.420,79.7399,0.017232
195.451,79.7338,0.017232
195.483,79.7274,0.017232
195.514,79.7213,0.017232
195.545,79.7148,0.017232
195.576,79.7086,0.017232
195.608,79.7024,0.017232
195.638,79.6965,0.017232
195.668,79.6904,0.017176
195.699,79.6841,0.017176
195.730,79.6781,0.017176
195.760,79.6720,0.017176
195.791,79.6658,0.017176
195.821,79.6598,0.017176
195.852,79.6534,0.017176
195.884,79.6472,0.017176
195.915,79.6410,0.017072
195.947,79.6346,0.017072
195.978,79.6285,0.017072
196.009,79.6221,0.017072
196.041,79.6159,0.017072
196.073,79.6094,0.017072
196.104,79.6033,0.017072
196.135,79.5969,0.017072
196.165,79.5908,0.017081
196.196,79.5848,0.017081
196.226,79.5788,0.017081
196.258,79.5724,0.017081
196.288,79.5662,0.017081
196.321,79.5598,0.017081
196.350,79.5541,0.017081
196.381,79.5479,0.017081
196.412,79.5416,0.017081
196.443,79.5354,0.017081
196.475,79.5290,0.017081
196.506,79.5228,0.017081
196.537,79.5166,0.017081
196.569,79.5103,0.017081
196.600,79.5041,0.017081
196.631,79.4979,0.016997
196.663,79.4915,0.016997
196.693,79.4853,0.016997
196.724,79.4793,0.016997
196.754,79.4732,0.016997
196.785,79.4670,0.016997
196.815,79.4609,0.016997
196.846,79.4547,0.016997
196.876,79.4488,0.016997
196.907,79.4425,0.016997
196.939,79.4363,0.016959
196.969,79.4301,0.016959
197.001,79.4239,0.016959
197.032,79.4174,0.016959
197.064,79.4111,0.016959
197.096,79.4048,0.016959
197.127,79.3987,0.016959
197.158,79.3922,0.016931
197.190,79.3862,0.016931
197.221,79.3797,0.016931
197.252,79.3736,0.016931
197.285,79.3671,0.016931
197.315,79.3609,0.016931
197.347,79.3547,0.016931
197.377,79.3486,0.016931
197.408,79.3424,0.016959
197.439,79.3363,0.016959
197.470,79.3300,0.016959
197.502,79.3235,0.016959
197.532,79.3175,0.016959
197.564,79.3113,0.016959
197.594,79.3051,0.016959
197.626,79.2990,0.016959
197.657,79.2924,0.016959
197.688,79.2863,0.016902
197.719,79.2800,0.016902
197.750,79.2740,0.016902
197.782,79.2675,0.016902
197.814,79.2613,0.016902
197.844,79.2552,0.016902
197.874,79.2492,0.016902
197.905,79.2430,0.016902
197.935,79.2368,0.016770
197.966,79.2308,0.016770
197.998,79.2244,0.016770
198.028,79.2184,0.016770
198.059,79.2122,0.016770
198.090,79.2071,0.016770
198.122,79.2022,0.016770
198.152,79.1986,0.016770
198.184,79.1954,0.016742
198.216,79.1929,0.016742
198.247,79.1913,0.016742
198.279,79.1903,0.016742
198.312,79.1902,0.016742
198.341,79.1902,0.016742
198.373,79.1902,0.016742
198.404,79.1902,0.016601
198.435,79.1902,0.016601
198.467,79.1902,0.016601
198.498,79.1902,0.016601
198.529,79.1902,0.016601
198.560,79.1902,0.016601
198.592,79.1902,0.016601
198.623,79.1902,0.016601
198.654,79.1902,0.016460
198.685,79.1902,0.016460
198.715,79.1902,0.016460
198.746,79.1902,0.016460
198.777,79.1902,0.016460
198.808,79.1903,0.016460
198.839,79.1911,0.016460
198.870,79.1926,0.016460
198.901,79.1947,0.016460
198.931,79.1975,0.016412
198.963,79.2011,0.016412
198.993,79.2055,0.016412
199.025,79.2108,0.016412
199.056,79.2165,0.016412
199.087,79.2228,0.016412
199.118,79.2289,0.016412
199.149,79.2351,0.016281
199.179,79.2412,0.016281
199.210,79.2473,0.016281
199.240,79.2533,0.016281
199.272,79.2598,0.016281
199.303,79.2659,0.016281
199.333,79.2721,0.016281
199.365,79.2783,0.016281
199.397,79.2847,0.016281
199.428,79.2909,0.016158
199.459,79.2972,0.016158
199.490,79.3034,0.016158
199.521,79.3095,0.016158
199.552,79.3158,0.016158
199.583,79.3220,0.016158
199.614,79.3281,0.016158
199.645,79.3342,0.016196
199.675,79.3405,0.016196
199.706,79.3467,0.016196
199.737,79.3527,0.016196
199.768,79.3591,0.016196
199.800,79.3655,0.016196
199.831,79.3718,0.016196
199.863,79.3781,0.016196
199.894,79.3842,0.016196
199.924,79.3901,0.016186
199.955,79.3966,0.016186
199.986,79.4025,0.016186
200.018,79.4091,0.016186
200.049,79.4151,0.016186
200.079,79.4213,0.016186
200.112,79.4277,0.016186
200.142,79.4338,0.016158
200.173,79.4400,0.016158
200.204,79.4461,0.016158
200.235,79.4526,0.016158
200.265,79.4585,0.016158
200.297,79.4647,0.016158
200.328,79.4710,0.016158
200.358,79.4769,0.016158
200.390,79.4833,0.016158
200.421,79.4896,0.016186
200.452,79.4958,0.016186
200.484,79.5020,0.016186
200.515,79.5082,0.016186
200.547,79.5148,0.016186
200.577,79.5206,0.016186
200.609,79.5271,0.016186
200.639,79.5333,0.016205
200.669,79.5391,0.016205
200.700,79.5454,0.016205
200.734,79.5521,0.016205
200.763,79.5579,0.016205
200.794,79.5643,0.016205
200.826,79.5705,0.016205
200.857,79.5767,0.016205
200.887,79.5827,0.016205
200.918,79.5891,0.016224
200.949,79.5951,0.016224
200.979,79.6012,0.016224
201.011,79.6075,0.016224
201.041,79.6136,0.016224
201.072,79.6197,0.016224
201.103,79.6259,0.016224
201.134,79.6322,0.016233
201.165,79.6383,0.016233
201.197,79.6448,0.016233
201.228,79.6508,0.016233
201.258,79.6570,0.016233
201.292,79.6637,0.016233
201.321,79.6696,0.016233
201.352,79.6758,0.016233
201.383,79.6820,0.016337
201.414,79.6883,0.016337
201.445,79.6942,0.016337
201.477,79.7008,0.016337
201.507,79.7066,0.016337
201.538,79.7128,0.016337
201.568,79.7189,0.016337
201.600,79.7252,0.016337
201.631,79.7314,0.016337
201.661,79.7376,0.016365
201.692,79.7438,0.016365
201.723,79.7499,0.016365
201.754,79.7561,0.016365
201.785,79.7624,0.016365
201.816,79.7687,0.016365
201.847,79.7749,0.016365
201.879,79.7811,0.016328
201.909,79.7873,0.016328
201.941,79.7935,0.016328
201.972,79.7998,0.016328
202.003,79.8059,0.016328
202.034,79.8123,0.016328
202.066,79.8184,0.016328
202.097,79.8250,0.016328
202.129,79.8310,0.016346
202.160,79.8375,0.016346
202.190,79.8434,0.016346
202.222,79.8498,0.016346
202.254,79.8562,0.016346
202.283,79.8620,0.016346
202.314,79.8681,0.016346
202.345,79.8743,0.016346
202.376,79.8806,0.016346
202.407,79.8868,0.016328
202.439,79.8930,0.016328
202.469,79.8991,0.016328
202.500,79.9052,0.016328
202.530,79.9113,0.016328
202.561,79.9176,0.016328
202.593,79.9238,0.016328
202.624,79.9301,0.016328
202.655,79.9363,0.016328
202.687,79.9428,0.016365
202.718,79.9490,0.016365
202.750,79.9553,0.016365
202.781,79.9615,0.016365
202.813,79.9678,0.016365
202.844,79.9740,0.016365
202.875,79.9802,0.016365
202.906,79.9866,0.016365
202.937,79.9928,0.016375
202.967,79.9987,0.016375
202.998,80.0050,0.016375
203.029,80.0111,0.016375
203.060,80.0173,0.016375
203.091,80.0235,0.016375
203.123,80.0298,0.016375
203.154,80.0362,0.016375
203.185,80.0422,0.016394
203.215,80.0484,0.016394
203.247,80.0546,0.016394
203.277,80.0607,0.016394
203.308,80.0669,0.016394
203.340,80.0734,0.016394
203.371,80.0795,0.016394
203.401,80.0857,0.016441
203.432,80.0916,0.016441
203.463,80.0979,0.016441
203.496,80.1044,0.016441
203.525,80.1105,0.016441
203.556,80.1168,0.016441
203.587,80.1227,0.016441
203.619,80.1291,0.016441
203.649,80.1351,0.016441
203.680,80.1413,0.016403
203.711,80.1475,0.016403
203.742,80.1537,0.016403
203.773,80.1598,0.016403
203.804,80.1660,0.016403
203.835,80.1722,0.016403
203.865,80.1783,0.016403
203.896,80.1846,0.016375
203.927,80.1907,0.016375
203.958,80.1969,0.016375
203.991,80.2035,0.016375
204.021,80.2094,0.016375
204.053,80.2160,0.016375
204.084,80.2222,0.016375
204.116,80.2284,0.016375
204.147,80.2347,0.016365
204.178,80.2408,0.016365
204.209,80.2471,0.016365
204.241,80.2535,0.016365
204.272,80.2597,0.016365
204.303,80.2659,0.016365
204.333,80.2719,0.016365
204.363,80.2779,0.016365
204.395,80.2843,0.016365
204.426,80.2904,0.016356
204.457,80.2969,0.016356
204.488,80.3029,0.016356
204.519,80.3093,0.016356
204.551,80.3155,0.016356
204.582,80.3219,0.016356
204.612,80.3277,0.016356
204.643,80.3339,0.016356
204.675,80.3402,0.016356
204.705,80.3464,0.016356
204.737,80.3528,0.016356
204.768,80.3589,0.016356
204.801,80.3656,0.016356
204.830,80.3713,0.016356
204.862,80.3777,0.016356
204.893,80.3839,0.016356
204.924,80.3900,0.016328
204.955,80.3963,0.016328
204.986,80.4027,0.016328
205.017,80.4089,0.016328
205.048,80.4151,0.016328
205.080,80.4213,0.016328
205.111,80.4275,0.016328
205.143,80.4338,0.016299
205.173,80.4400,0.016299
205.204,80.4462,0.016299
205.235,80.4524,0.016299
205.267,80.4587,0.016299
205.298,80.4649,0.016299
205.329,80.4711,0.016299
205.361,80.4774,0.016299
205.391,80.4835,0.016252
205.423,80.4898,0.016252
205.453,80.4960,0.016252
205.484,80.5022,0.016252
205.515,80.5083,0.016252
205.546,80.5147,0.016252
205.576,80.5206,0.016252
205.607,80.5267,0.016252
205.638,80.5329,0.016252
205.669,80.5392,0.016243
205.701,80.5457,0.016243
205.732,80.5516,0.016243
205.763,80.5578,0.016243
205.793,80.5640,0.016243
205.825,80.5702,0.016243
205.855,80.5764,0.016243
205.887,80.5826,0.016158
205.918,80.5889,0.016158
205.949,80.5951,0.016158
205.981,80.6013,0.016158
206.011,80.6075,0.016158
206.043,80.6139,0.016158
206.073,80.6201,0.016158
206.105,80.6263,0.016158
206.136,80.6326,0.016054
206.161,80.6376,0.016054
206.197,80.6451,0.016054
206.228,80.6511,0.016054
206.259,80.6570,0.016054
206.289,80.6631,0.016054
206.321,80.6696,0.016054
206.354,80.6760,0.016054
206.384,80.6821,0.016026
206.416,80.6885,0.016026
206.448,80.6947,0.016026
206.480,80.7013,0.016026
206.510,80.7073,0.016026
206.542,80.7137,0.016026
206.573,80.7198,0.016026
206.604,80.7262,0.016026
206.635,80.7323,0.015923
206.666,80.7386,0.015923
206.697,80.7446,0.015923
206.728,80.7509,0.015923
206.759,80.7570,0.015923
206.789,80.7632,0.015923
206.822,80.7695,0.015923
206.851,80.7755,0.015923
206.882,80.7819,0.015847
206.914,80.7880,0.015847
206.944,80.7943,0.015847
206.975,80.8003,0.015847
207.005,80.8065,0.015847
207.037,80.8127,0.015847
207.069,80.8191,0.015847
207.101,80.8255,0.015847
207.133,80.8319,0.015762
207.164,80.8381,0.015762
207.194,80.8442,0.015762
207.224,80.8501,0.015762
207.255,80.8565,0.015762
207.286,80.8625,0.015762
207.317,80.8689,0.015762
207.348,80.8751,0.015762
207.379,80.8810,0.015762
207.410,80.8873,0.015678
207.441,80.8935,0.015678
207.473,80.9000,0.015678
207.504,80.9061,0.015678
207.535,80.9124,0.015678
207.567,80.9186,0.015678
207.598,80.9249,0.015678
207.629,80.9311,0.015678
207.661,80.9377,0.015602
207.693,80.9440,0.015602
207.724,80.9501,0.015602
207.755,80.9563,0.015602
207.785,80.9623,0.015602
207.816,80.9687,0.015602
207.847,80.9748,0.015602
207.878,80.9810,0.015602
207.909,80.9872,0.015508
207.940,80.9934,0.015508
207.971,80.9995,0.015508
208.003,81.0059,0.015508
208.034,81.0120,0.015508
208.065,81.0183,0.015508
208.096,81.0245,0.015508
208.127,81.0307,0.015508
208.158,81.0369,0.015376
208.189,81.0431,0.015376
208.221,81.0494,0.015376
208.251,81.0555,0.015376
208.282,81.0617,0.015376
208.313,81.0679,0.015376
208.344,81.0742,0.015376
208.375,81.0803,0.015376
208.406,81.0865,0.015235
208.437,81.0928,0.015235
208.468,81.0989,0.015235
208.500,81.1053,0.015235
208.530,81.1112,0.015235
208.562,81.1177,0.015235
208.593,81.1239,0.015235
208.624,81.1302,0.015235
208.655,81.1363,0.015131
208.686,81.1426,0.015131
208.717,81.1487,0.015131
208.749,81.1551,0.015131
208.780,81.1613,0.015131
208.812,81.1676,0.015131
208.842,81.1737,0.015131
208.873,81.1800,0.015131
208.905,81.1861,0.014999
208.936,81.1924,0.014999
208.967,81.1986,0.014999
208.998,81.2047,0.014999
209.029,81.2110,0.014999
209.060,81.2172,0.014999
209.091,81.2234,0.014999
209.122,81.2295,0.014999
209.153,81.2358,0.014999
209.184,81.2419,0.014877
209.215,81.2482,0.014877
209.245,81.2543,0.014877
209.276,81.2605,0.014877
209.307,81.2665,0.014877
209.338,81.2729,0.014877
209.369,81.2790,0.014877
209.399,81.2852,0.014717
209.431,81.2915,0.014717
209.463,81.2977,0.014717
209.495,81.3042,0.014717
209.525,81.3103,0.014717
209.556,81.3165,0.014717
209.588,81.3229,0.014717
209.618,81.3290,0.014717
209.649,81.3352,0.014717
209.680,81.3413,0.014585
209.711,81.3475,0.014585
209.742,81.3537,0.014585
209.773,81.3599,0.014585
209.804,81.3659,0.014585
209.835,81.3723,0.014585
209.866,81.3784,0.014585
209.897,81.3848,0.014585
209.928,81.3909,0.014406
209.960,81.3973,0.014406
209.991,81.4035,0.014406
210.022,81.4096,0.014406
210.053,81.4158,0.014406
210.083,81.4219,0.014406
210.116,81.4286,0.014406
210.147,81.4347,0.014227
210.177,81.4407,0.014227
210.209,81.4472,0.014227
210.239,81.4530,0.014227
210.269,81.4592,0.014227
210.300,81.4653,0.014227
210.332,81.4717,0.014227
210.363,81.4777,0.014227
210.395,81.4843,0.014227
210.426,81.4905,0.014038
210.457,81.4968,0.014038
210.489,81.5031,0.014038
210.519,81.5091,0.014038
210.551,81.5155,0.014038
210.580,81.5213,0.014038
210.612,81.5276,0.014038
210.643,81.5340,0.013774
210.676,81.5404,0.013774
210.706,81.5464,0.013774
210.736,81.5527,0.013774
210.767,81.5587,0.013774
210.798,81.5650,0.013774
210.829,81.5711,0.013774
210.860,81.5775,0.013774
210.892,81.5836,0.013774
210.923,81.5899,0.013567
210.954,81.5960,0.013567
210.986,81.6026,0.013567
211.016,81.6085,0.013567
211.048,81.6149,0.013567
211.079,81.6211,0.013567
211.111,81.6274,0.013567
211.140,81.6333,0.013567
211.171,81.6394,0.013303
211.202,81.6456,0.013303
211.233,81.6518,0.013303
211.264,81.6581,0.013303
211.295,81.6642,0.013303
211.326,81.6705,0.013303
211.356,81.6765,0.013303
211.387,81.6828,0.013303
211.419,81.6892,0.013011
211.451,81.6955,0.013011
211.481,81.7014,0.013011
211.513,81.7080,0.013011
211.545,81.7141,0.013011
211.576,81.7205,0.013011
211.608,81.7269,0.013011
211.640,81.7334,0.013011
211.671,81.7395,0.012644
211.703,81.7458,0.012644
211.734,81.7522,0.012644
211.765,81.7584,0.012644
211.795,81.7644,0.012644
211.826,81.7706,0.012644
211.859,81.7772,0.012644
211.890,81.7834,0.012644
211.921,81.7894,0.012154
211.952,81.7958,0.012154
211.984,81.8021,0.012154
212.014,81.8081,0.012154
212.046,81.8143,0.012154
212.077,81.8206,0.012154
212.108,81.8271,0.012154
212.139,81.8330,0.011494
212.171,81.8393,0.011494
212.201,81.8453,0.011494
212.231,81.8514,0.011494
212.262,81.8577,0.011494
212.293,81.8639,0.011494
212.324,81.8701,0.011494
212.356,81.8764,0.011494
212.386,81.8825,0.011494
212.417,81.8887,0.010722
212.449,81.8952,0.010722
212.481,81.9014,0.010722
212.511,81.9076,0.010722
212.543,81.9139,0.010722
212.574,81.9201,0.010722
212.604,81.9260,0.010722
212.636,81.9324,0.009610
212.667,81.9386,0.009610
212.697,81.9448,0.009610
212.728,81.9511,0.009610
212.760,81.9573,0.009610
212.791,81.9636,0.009610
212.822,81.9698,0.009610
212.854,81.9760,0.009610
212.884,81.9821,0.007980
212.916,81.9887,0.007980
212.947,81.9946,0.007980
212.978,82.0009,0.007980
213.008,82.0068,0.007980
213.038,82.0129,0.007980
213.070,82.0192,0.007980
213.102,82.0256,0.007980
213.134,82.0321,0.005625
213.164,82.0382,0.005625
213.196,82.0444,0.005625
213.227,82.0506,0.005625
213.257,82.0566,0.005625
213.289,82.0632,0.005625
213.320,82.0693,0.005625
213.350,82.0754,0.005625
213.384,82.0821,0.002271
213.412,82.0876,0.002271
213.443,82.0938,0.002271
213.474,82.1002,0.002271
213.505,82.1062,0.002271
213.535,82.1123,0.002271
213.566,82.1184,0.002271
213.597,82.1247,0.002271
213.629,82.1310,0.002271
213.659,82.1371,0.002271
213.690,82.1431,-0.002214
213.721,82.1494,-0.002214
213.752,82.1556,-0.002214
213.783,82.1619,-0.002214
213.814,82.1679,-0.002214
213.846,82.1733,-0.002214
213.878,82.1781,-0.002214
213.908,82.1818,-0.002214
213.938,82.1849,-0.007773
213.969,82.1872,-0.007773
214.000,82.1890,-0.007773
214.030,82.1900,-0.007773
214.063,82.1902,-0.007773
214.093,82.1902,-0.007773
214.124,82.1902,-0.007773
214.155,82.1902,-0.011984
214.186,82.1902,-0.011984
214.217,82.1902,-0.011984
214.249,82.1902,-0.011984
214.279,82.1902,-0.011984
214.310,82.1902,-0.011984
214.340,82.1902,-0.011984
214.371,82.1902,-0.011984
214.401,82.1902,-0.011984
214.434,82.1902,-0.011749
214.464,82.1902,-0.011749
