Elapsed Time (s),Position (mm),Force (N)
-0.020,56.6000,-0.029003
0.001,56.6000,-0.031420
0.012,56.6000,-0.031420
0.028,56.6000,-0.027794
0.044,56.6000,-0.021752
0.068,56.6000,-0.021752
0.084,56.6000,-0.035045
0.099,56.6000,-0.035045
0.115,56.6000,-0.027794
0.132,56.6000,-0.030211
0.147,56.6000,-0.030211
0.164,56.6000,-0.024169
0.178,56.6000,-0.021752
0.195,56.6000,-0.029003
0.211,56.6000,-0.027794
0.226,56.6000,-0.029003
0.243,56.6000,-0.027794
0.259,56.6000,-0.027794
0.275,56.6000,-0.025377
0.290,56.6000,-0.021752
0.307,56.6000,-0.027794
0.323,56.6000,-0.024169
0.339,56.6000,-0.024169
0.355,56.6000,-0.027794
0.371,56.6000,-0.026586
0.386,56.6000,-0.026586
0.403,56.6000,-0.026586
0.419,56.6000,-0.026586
0.434,56.6000,-0.024169
0.451,56.6000,-0.026586
0.467,56.6000,-0.022961
0.483,56.6000,-0.027794
0.499,56.6000,-0.024169
0.515,56.6000,-0.022961
0.530,56.6000,-0.022961
0.546,56.6000,-0.027794
0.563,56.6000,-0.027794
0.578,56.6000,-0.021752
0.595,56.6000,-0.024169
0.623,56.6000,-0.022961
0.638,56.6000,-0.020544
0.654,56.6000,-0.016918
0.671,56.6000,-0.022961
0.686,56.6000,-0.024169
0.702,56.6000,-0.025377
0.719,56.6000,-0.022961
0.735,56.6000,-0.022961
0.750,56.6000,-0.026586
0.766,56.6000,-0.024169
0.784,56.6000,-0.027794
0.798,56.6000,-0.024169
0.814,56.6000,-0.025377
0.830,56.6000,-0.022961
0.846,56.6000,-0.020544
0.862,56.6000,-0.020544
0.879,56.6000,-0.020544
0.895,56.6000,-0.019335
0.910,56.6000,-0.019335
0.926,56.6000,-0.025377
0.942,56.6000,-0.024169
0.958,56.6000,-0.025377
0.974,56.6000,-0.024169
0.991,56.6000,-0.021752
1.006,56.6000,-0.021752
1.022,56.6000,-0.030211
1.040,56.6000,-0.026586
1.054,56.6000,-0.024169
1.074,56.6000,-0.024169
1.086,56.6000,-0.019335
1.103,56.6000,-0.021752
1.119,56.6000,-0.021752
1.134,56.6000,-0.014501
1.163,56.6000,-0.014501
1.179,56.6000,-0.020544
1.195,56.6000,-0.019335
1.211,56.6000,-0.021752
1.228,56.6000,-0.025377
1.244,56.6000,-0.027794
1.262,56.6000,-0.027794
1.275,56.6000,-0.022961
1.291,56.6000,-0.024169
1.308,56.6000,-0.018127
1.323,56.6000,-0.015710
1.340,56.6000,-0.018127
1.356,56.6000,-0.020544
1.371,56.6000,-0.018127
1.389,56.6000,-0.018127
1.404,56.6000,-0.022961
1.420,56.6000,-0.021752
1.435,56.6000,-0.021752
1.452,56.6000,-0.018127
1.468,56.6000,-0.018127
1.484,56.6000,-0.024169
1.499,56.6000,-0.022961
1.517,56.6000,-0.027794
1.531,56.6000,-0.022961
1.548,56.6000,-0.022961
1.565,56.6000,-0.018127
1.580,56.6000,-0.020544
1.596,56.6000,-0.021752
1.611,56.6000,-0.025377
1.629,56.6000,-0.025377
1.643,56.6000,-0.021752
1.662,56.6000,-0.019335
1.687,56.6000,-0.014501
1.702,56.6000,-0.015710
1.718,56.6000,-0.015710
1.734,56.6000,-0.019335
1.754,56.6000,-0.016918
1.767,56.6000,-0.016918
1.782,56.6000,-0.018127
1.798,56.6000,-0.018127
1.815,56.6000,-0.021752
1.831,56.6000,-0.016918
1.848,56.6000,-0.016918
1.862,56.6000,-0.018127
1.878,56.6000,-0.021752
1.894,56.6000,-0.024169
1.910,56.6000,-0.024169
1.926,56.6000,-0.014501
1.951,56.6000,-0.018127
1.975,56.6000,-0.021752
1.990,56.6000,-0.019335
2.006,56.6000,-0.016918
2.022,56.6000,-0.016918
2.038,56.6000,-0.020544
2.054,56.6000,-0.015710
2.070,56.6000,-0.016918
2.086,56.6000,-0.021752
2.102,56.6000,-0.019335
2.118,56.6000,-0.016918
2.134,56.6000,-0.018127
2.150,56.6000,-0.015710
2.166,56.6000,-0.013293
2.182,56.6000,-0.018127
2.198,56.6000,-0.018127
2.214,56.6000,-0.019335
2.244,56.6000,-0.019335
2.261,56.6000,-0.019335
2.276,56.6000,-0.012084
2.292,56.6000,-0.012084
2.308,56.6000,-0.020544
2.324,56.6000,-0.020544
2.341,56.6000,-0.013293
2.356,56.6000,-0.015710
2.372,56.6000,-0.016918
2.388,56.6000,-0.016918
2.404,56.6000,-0.018127
2.423,56.6000,-0.020544
2.436,56.6000,-0.020544
2.452,56.6000,-0.022961
2.468,56.6000,-0.016918
2.484,56.6000,-0.014501
2.500,56.6000,-0.015710
2.516,56.6000,-0.015710
2.532,56.6000,-0.018127
2.548,56.6000,-0.015710
2.564,56.6000,-0.016918
2.581,56.6000,-0.015710
2.596,56.6000,-0.020544
2.613,56.6000,-0.021752
2.628,56.6000,-0.021752
2.646,56.6000,-0.022961
2.660,56.6000,-0.013293
2.677,56.6000,-0.013293
2.692,56.6000,-0.012084
2.708,56.6000,-0.012084
2.724,56.6000,-0.022961
2.740,56.6000,-0.022961
2.757,56.6000,-0.019335
2.774,56.6000,-0.022961
2.800,56.6000,-0.022961
2.822,56.6000,-0.016918
2.836,56.6000,-0.016918
2.847,56.6000,-0.019335
2.863,56.6000,-0.018127
2.879,56.6000,-0.018127
2.895,56.6000,-0.010876
2.911,56.6000,-0.010876
2.927,56.6000,-0.021752
2.944,56.6000,-0.020544
2.959,56.6000,-0.012084
2.974,56.6000,-0.016918
2.992,56.6000,-0.016918
3.008,56.6000,-0.020544
3.022,56.6000,-0.015710
3.039,56.6000,-0.021752
3.055,56.6000,-0.015710
3.071,56.6000,-0.016918
3.087,56.6000,-0.016918
3.103,56.6000,-0.020544
3.119,56.6000,-0.018127
3.135,56.6000,-0.014501
3.150,56.6000,-0.016918
3.166,56.6000,-0.014501
3.183,56.6000,-0.022961
3.199,56.6000,-0.012084
3.216,56.6000,-0.016918
3.230,56.6000,-0.019335
3.247,56.6000,-0.016918
3.263,56.6000,-0.018127
3.281,56.6000,-0.018127
3.294,56.6000,-0.024169
3.310,56.6000,-0.024169
3.327,56.6000,-0.021752
3.342,56.6000,-0.015710
3.366,56.6000,-0.018127
3.382,56.6000,-0.024169
3.398,56.6000,-0.024169
3.413,56.6000,-0.016918
3.431,56.6000,-0.020544
3.446,56.6000,-0.016918
3.462,56.6000,-0.010876
3.477,56.6000,-0.013293
3.495,56.6000,-0.019335
3.510,56.6000,-0.015710
3.525,56.6000,-0.016918
3.542,56.6000,-0.015710
3.558,56.6000,-0.019335
3.574,56.6000,-0.016918
3.589,56.6000,-0.024169
3.606,56.6000,-0.018127
3.621,56.6000,-0.016918
3.637,56.6000,-0.013293
3.653,56.6000,-0.012084
3.670,56.6000,-0.019335
3.686,56.6000,-0.022961
3.702,56.6000,-0.018127
3.718,56.6000,-0.016918
3.735,56.6000,-0.019335
3.750,56.6000,-0.016918
3.765,56.6000,-0.013293
3.782,56.6000,-0.016918
3.802,56.6000,-0.016918
3.813,56.6000,-0.014501
3.829,56.6000,-0.012084
3.845,56.6000,-0.013293
3.862,56.6000,-0.013293
3.878,56.6000,-0.015710
3.906,56.6000,-0.015710
3.922,56.6000,-0.019335
3.938,56.6000,-0.015710
3.954,56.6000,-0.016918
3.970,56.6000,-0.018127
3.987,56.6000,-0.016918
4.005,56.6000,-0.013293
4.018,56.6000,-0.014501
4.035,56.6000,-0.025377
4.051,56.6000,-0.018127
4.067,56.6000,-0.018127
4.082,56.6000,-0.019335
4.099,56.6000,-0.019335
4.114,56.6000,-0.019335
4.130,56.6000,-0.019335
4.146,56.6000,-0.020544
4.162,56.6000,-0.020544
4.178,56.6000,-0.020544
4.194,56.6000,-0.020544
4.210,56.6000,-0.020544
4.226,56.6000,-0.018127
4.242,56.6000,-0.019335
4.258,56.6000,-0.020544
4.275,56.6000,-0.022961
4.290,56.6000,-0.020544
4.307,56.6000,-0.018127
4.322,56.6000,-0.014501
4.339,56.6000,-0.014501
4.354,56.6000,-0.016918
4.370,56.6000,-0.018127
4.386,56.6000,-0.014501
4.402,56.6000,-0.012084
4.418,56.6000,-0.016918
4.434,56.6000,-0.010876
4.462,56.6000,-0.015710
4.478,56.6000,-0.019335
4.494,56.6000,-0.020544
4.510,56.6000,-0.013293
4.526,56.6000,-0.015710
4.542,56.6000,-0.013293
4.559,56.6000,-0.013293
4.574,56.6000,-0.024169
4.590,56.6000,-0.024169
4.606,56.6000,-0.027794
4.623,56.6000,-0.018127
4.638,56.6000,-0.020544
4.654,56.6000,-0.014501
4.670,56.6000,-0.016918
4.686,56.6000,-0.021752
4.702,56.6000,-0.016918
4.718,56.6000,-0.021752
4.734,56.6000,-0.018127
4.750,56.6000,-0.019335
4.766,56.6000,-0.016918
4.782,56.6000,-0.019335
4.798,56.6000,-0.020544
4.814,56.6000,-0.013293
4.830,56.6000,-0.015710
4.847,56.6000,-0.015710
4.862,56.6000,-0.016918
4.878,56.6000,-0.016918
4.895,56.6000,-0.010876
4.910,56.6000,-0.020544
4.926,56.6000,-0.020544
4.942,56.6000,-0.021752
4.958,56.6000,-0.021752
4.973,56.6000,-0.015710
4.990,56.6000,-0.022961
5.014,56.6000,-0.022961
5.030,56.6000,-0.015710
5.045,56.6000,-0.018127
5.062,56.6000,-0.020544
5.079,56.6000,-0.018127
5.094,56.6000,-0.015710
5.112,56.6000,-0.016918
5.126,56.6000,-0.014501
5.142,56.6000,-0.009668
5.158,56.6000,-0.009668
5.173,56.6000,-0.020544
5.189,56.6000,-0.020544
5.206,56.6000,-0.010876
5.222,56.6000,-0.012084
5.237,56.6000,-0.012084
5.253,56.6000,-0.013293
5.270,56.6000,-0.013293
5.285,56.6000,-0.018127
5.301,56.6000,-0.009668
5.318,56.6000,-0.009668
5.334,56.6000,-0.015710
5.349,56.6000,-0.009668
5.365,56.6000,-0.013293
5.383,56.6000,-0.015710
5.398,56.6000,-0.015710
5.415,56.6000,-0.018127
5.429,56.6000,-0.015710
5.446,56.6000,-0.019335
5.462,56.6000,-0.019335
5.478,56.6000,-0.015710
5.493,56.6000,-0.016918
5.511,56.6000,-0.016918
5.526,56.6000,-0.018127
5.542,56.6000,-0.021752
5.566,56.6000,-0.012084
5.582,56.6000,-0.019335
5.598,56.6000,-0.015710
5.614,56.6000,-0.020544
5.631,56.6000,-0.016918
5.646,56.6000,-0.016918
5.666,56.6000,-0.014501
5.678,56.6000,-0.015710
5.697,56.6000,-0.013293
5.710,56.6000,-0.013293
5.727,56.6000,-0.018127
5.742,56.6000,-0.018127
5.760,56.6000,-0.019335
5.776,56.6000,-0.022961
5.792,56.6000,-0.022961
5.806,56.6000,-0.022961
5.826,56.6000,-0.018127
5.839,56.6000,-0.018127
5.855,56.6000,-0.018127
5.872,56.6000,-0.018127
5.887,56.6000,-0.019335
5.903,56.6000,-0.014501
5.918,56.6000,-0.012084
5.939,56.6000,-0.018127
5.951,56.6000,-0.012084
5.966,56.6000,-0.019335
5.982,56.6000,-0.018127
6.001,56.6000,-0.012084
6.014,56.6000,-0.015710
6.030,56.6000,-0.015710
6.045,56.6000,-0.016918
6.063,56.6000,-0.013293
6.079,56.6000,-0.018127
6.096,56.6000,-0.016918
6.120,56.6000,-0.021752
6.136,56.6000,-0.020544
6.152,56.6000,-0.018127
6.168,56.6000,-0.016918
6.186,56.6000,-0.019335
6.200,56.6000,-0.019335
6.216,56.6000,-0.013293
6.232,56.6000,-0.016918
6.249,56.6000,-0.018127
6.264,56.6000,-0.012084
6.280,56.6000,-0.013293
6.296,56.6000,-0.018127
6.312,56.6000,-0.018127
6.328,56.6000,-0.018127
6.344,56.6000,-0.020544
6.361,56.6000,-0.019335
6.377,56.6000,-0.012084
6.393,56.6000,-0.010876
6.408,56.6000,-0.019335
6.424,56.6000,-0.015710
6.440,56.6000,-0.013293
6.456,56.6000,-0.016918
6.478,56.6000,-0.014501
6.489,56.6000,-0.015710
6.504,56.6000,-0.013293
6.520,56.6000,-0.012084
6.540,56.6000,-0.012084
6.552,56.6000,-0.018127
6.568,56.6000,-0.012084
6.585,56.6000,-0.014501
6.600,56.6000,-0.015710
6.616,56.6000,-0.018127
6.648,56.6000,-0.018127
6.664,56.6000,-0.014501
6.679,56.6000,-0.016918
6.697,56.6000,-0.014501
6.715,56.6000,-0.018127
6.727,56.6000,-0.020544
6.743,56.6000,-0.016918
6.759,56.6000,-0.018127
6.775,56.6000,-0.018127
6.792,56.6000,-0.021752
6.808,56.6000,-0.018127
6.823,56.6000,-0.015710
6.840,56.6000,-0.013293
6.855,56.6000,-0.015710
6.871,56.6000,-0.015710
6.890,56.6000,-0.015710
6.904,56.6000,-0.018127
6.919,56.6000,-0.018127
6.935,56.6000,-0.016918
6.951,56.6000,-0.015710
6.967,56.6000,-0.020544
6.983,56.6000,-0.018127
6.998,56.6000,-0.013293
7.020,56.6000,-0.015710
7.031,56.6000,-0.012084
7.047,56.6000,-0.019335
7.063,56.6000,-0.015710
7.080,56.6000,-0.014501
7.096,56.6000,-0.015710
7.111,56.6000,-0.016918
7.127,56.6000,-0.012084
7.143,56.6000,-0.014501
7.159,56.6000,-0.020544
7.175,56.6000,-0.014501
7.202,56.6000,-0.016918
7.219,56.6000,-0.021752
7.235,56.6000,-0.020544
7.251,56.6000,-0.019335
7.272,56.6000,-0.018127
7.284,56.6000,-0.020544
7.299,56.6000,-0.020544
7.315,56.6000,-0.016918
7.331,56.6000,-0.016918
7.347,56.6000,-0.013293
7.362,56.6000,-0.014501
7.379,56.6000,-0.014501
7.395,56.6000,-0.015710
7.410,56.6000,-0.014501
7.427,56.6000,-0.013293
7.442,56.6000,-0.018127
7.458,56.6000,-0.015710
7.474,56.6000,-0.014501
7.490,56.6000,-0.014501
7.506,56.6000,-0.014501
7.522,56.6000,-0.019335
7.538,56.6000,-0.015710
7.554,56.6000,-0.015710
7.571,56.6000,-0.014501
7.586,56.6000,-0.018127
7.602,56.6000,-0.020544
7.618,56.6000,-0.020544
7.635,56.6000,-0.014501
7.650,56.6000,-0.014501
7.667,56.6000,-0.018127
7.682,56.6000,-0.015710
7.699,56.6000,-0.019335
7.715,56.6000,-0.020544
7.731,56.6000,-0.015710
7.754,56.6000,-0.010876
7.771,56.6000,-0.010876
7.786,56.6000,-0.013293
7.802,56.6000,-0.010876
7.821,56.6000,-0.010876
7.835,56.6000,-0.016918
7.850,56.6000,-0.012084
7.866,56.6000,-0.013293
7.883,56.6000,-0.015710
7.904,56.6000,-0.020544
7.915,56.6000,-0.019335
7.930,56.6000,-0.016918
7.947,56.6000,-0.012084
7.963,56.6000,-0.016918
7.978,56.6000,-0.016918
7.996,56.6000,-0.010876
8.011,56.6000,-0.020544
8.026,56.6000,-0.018127
8.042,56.6000,-0.019335
8.059,56.6000,-0.018127
8.075,56.6000,-0.015710
8.092,56.6000,-0.015710
8.106,56.6000,-0.015710
8.123,56.6000,-0.015710
8.138,56.6000,-0.018127
8.154,56.6000,-0.019335
8.170,56.6000,-0.015710
8.186,56.6000,-0.010876
8.202,56.6000,-0.012084
8.218,56.6000,-0.016918
8.234,56.6000,-0.016918
8.251,56.6000,-0.016918
8.267,56.6000,-0.015710
8.282,56.6000,-0.014501
8.304,56.6000,-0.016918
8.319,56.6000,-0.014501
8.336,56.6000,-0.010876
8.350,56.6000,-0.020544
8.369,56.6000,-0.016918
8.384,56.6000,-0.018127
8.402,56.6000,-0.015710
8.415,56.6000,-0.016918
8.432,56.6000,-0.010876
8.447,56.6000,-0.010876
8.463,56.6000,-0.019335
8.479,56.6000,-0.019335
8.495,56.6000,-0.015710
8.511,56.6000,-0.020544
8.527,56.6000,-0.020544
8.543,56.6000,-0.018127
8.559,56.6000,-0.018127
8.575,56.6000,-0.016918
8.594,56.6000,-0.019335
8.608,56.6000,-0.015710
8.623,56.6000,-0.013293
8.639,56.6000,-0.018127
8.656,56.6000,-0.015710
8.671,56.6000,-0.014501
8.687,56.6000,-0.016918
8.703,56.6000,-0.018127
8.723,56.6000,-0.014501
8.735,56.6000,-0.007251
8.751,56.6000,-0.009668
8.767,56.6000,-0.012084
8.783,56.6000,-0.016918
8.799,56.6000,-0.016918
8.816,56.6000,-0.007251
8.840,56.6000,-0.012084
8.856,56.6000,-0.019335
8.872,56.6000,-0.016918
8.888,56.6000,-0.016918
8.904,56.6000,-0.015710
8.920,56.6000,-0.016918
8.936,56.6000,-0.015710
8.952,56.6000,-0.020544
8.968,56.6000,-0.020544
8.985,56.6000,-0.018127
9.001,56.6000,-0.008459
9.016,56.6000,-0.015710
9.032,56.6000,-0.019335
9.048,56.6000,-0.016918
9.064,56.6000,-0.015710
9.080,56.6000,-0.015710
9.096,56.6000,-0.013293
9.112,56.6000,-0.012084
9.128,56.6000,-0.018127
9.151,56.6000,-0.019335
9.174,56.6000,-0.018127
9.193,56.6000,-0.014501
9.208,56.6000,-0.014501
9.224,56.6000,-0.015710
9.240,56.6000,-0.013293
9.256,56.6000,-0.021752
9.274,56.6000,-0.015710
9.287,56.6000,-0.015710
9.305,56.6000,-0.015710
9.319,56.6000,-0.020544
9.337,56.6000,-0.020544
9.353,56.6000,-0.016918
9.369,56.6000,-0.019335
9.393,56.6000,-0.013293
9.408,56.6000,-0.012084
9.424,56.6000,-0.021752
9.440,56.6000,-0.021752
9.457,56.6000,-0.020544
9.473,56.6000,-0.015710
9.490,56.6000,-0.009668
9.504,56.6000,-0.020544
9.522,56.6000,-0.020544
9.537,56.6000,-0.020544
9.554,56.6000,-0.016918
9.568,56.6000,-0.016918
9.586,56.6000,-0.014501
9.600,56.6000,-0.014501
9.616,56.6000,-0.016918
9.633,56.6000,-0.015710
9.649,56.6000,-0.015710
9.664,56.6000,-0.022961
9.680,56.6000,-0.022961
9.696,56.6000,-0.016918
9.713,56.6000,-0.019335
9.728,56.6000,-0.016918
9.744,56.6000,-0.022961
9.763,56.6000,-0.027794
9.777,56.6000,-0.013293
9.793,56.6000,-0.009668
9.808,56.6000,-0.010876
9.826,56.6000,-0.013293
9.841,56.6000,-0.014501
9.856,56.6000,-0.019335
9.872,56.6000,-0.018127
9.890,56.6000,-0.014501
9.905,56.6000,-0.013293
9.922,56.6000,-0.016918
9.949,56.6000,-0.018127
9.965,56.6000,-0.018127
9.982,56.6000,-0.016918
9.997,56.6000,-0.018127
10.013,56.6000,-0.019335
10.031,56.6000,-0.014501
10.046,56.6000,-0.013293
10.062,56.6000,-0.018127
10.079,56.6000,-0.014501
10.094,56.6000,-0.013293
10.109,56.6000,-0.010876
10.127,56.6000,-0.015710
10.142,56.6000,-0.015710
10.157,56.6000,-0.014501
10.173,56.6000,-0.012084
10.190,56.6000,-0.012084
10.206,56.6000,-0.021752
10.221,56.6000,-0.019335
10.239,56.6000,-0.014501
10.253,56.6000,-0.007251
10.270,56.6000,-0.008459
10.285,56.6000,-0.009668
10.302,56.6000,-0.018127
10.318,56.6000,-0.018127
10.333,56.6000,-0.020544
10.349,56.6000,-0.016918
10.366,56.6000,-0.015710
10.382,56.6000,-0.015710
10.397,56.6000,-0.015710
10.413,56.6000,-0.019335
10.431,56.6000,-0.019335
10.446,56.6000,-0.014501
10.461,56.6000,-0.013293
10.489,56.6000,-0.018127
10.505,56.6000,-0.010876
10.521,56.6000,-0.009668
10.537,56.6000,-0.010876
10.553,56.6000,-0.014501
10.570,56.6000,-0.018127
10.588,56.6000,-0.015710
10.601,56.6000,-0.013293
10.618,56.6000,-0.013293
10.634,56.6000,-0.012084
10.649,56.6000,-0.012084
10.665,56.6000,-0.016918
10.681,56.6000,-0.012084
10.697,56.6000,-0.010876
10.713,56.6000,-0.014501
10.729,56.6000,-0.014501
10.745,56.6000,-0.012084
10.761,56.6000,-0.012084
10.776,56.6000,-0.014501
10.794,56.6000,-0.014501
10.809,56.6000,-0.021752
10.825,56.6000,-0.020544
10.841,56.6000,-0.018127
10.857,56.6000,-0.016918
10.873,56.6000,-0.015710
10.889,56.6000,-0.015710
10.905,56.6000,-0.021752
10.921,56.6000,-0.014501
10.938,56.6000,-0.014501
10.956,56.6000,-0.013293
10.969,56.6000,-0.010876
10.985,56.6000,-0.013293
11.001,56.6000,-0.016918
11.017,56.6000,-0.018127
11.041,56.6000,-0.019335
11.057,56.6000,-0.013293
11.073,56.6000,-0.013293
11.089,56.6000,-0.015710
11.107,56.5273,-0.016918
11.121,56.4194,-0.025377
11.140,56.2908,-0.025377
11.153,56.2007,0.030211
11.169,56.0864,0.030211
11.185,55.9693,0.035045
11.202,55.8506,0.035045
11.218,55.7263,0.062839
11.233,55.6291,0.077341
11.249,55.5120,0.088217
11.265,55.4005,0.119636
11.282,55.2740,0.126887
11.297,55.1705,0.129304
11.314,55.0418,0.141388
11.330,54.9297,0.157098
11.345,54.8211,0.166766
11.361,54.7124,0.177642
11.377,54.6003,0.171600
11.397,54.4546,0.170391
11.409,54.3688,0.164349
11.425,54.2567,0.164349
11.440,54.1444,0.099093
11.460,54.0015,0.099093
11.472,53.9144,0.021752
11.489,53.8015,0.000000
11.505,53.6858,0.013293
11.521,53.5707,0.006042
11.538,53.4450,0.006042
11.555,53.3271,0.001208
11.579,53.1470,0.002417
11.595,53.0391,0.002417
11.611,52.9263,0.004834
11.626,52.8155,0.008459
11.644,52.6941,0.008459
11.659,52.5833,0.006042
11.674,52.4733,0.002417
11.690,52.3582,0.003625
11.707,52.2361,0.002417
11.722,52.1282,0.008459
11.738,52.0139,0.008459
11.755,51.8975,0.006042
11.771,51.7831,-0.003625
11.787,51.6667,-0.003625
11.802,51.5588,0.004834
11.819,51.4374,0.004834
11.834,51.3302,0.004834
11.850,51.2109,-0.001208
11.866,51.0994,-0.002417
11.889,50.9423,0.003625
11.899,50.8672,0.008459
11.915,50.7542,0.003625
11.930,50.6450,0.004834
11.950,50.5500,-0.014501
11.962,50.5500,-0.085800
11.979,50.5500,0.002417
11.994,50.5500,-0.009668
12.011,50.5500,0.006042
12.027,50.5500,0.003625
12.043,50.5500,-0.004834
12.058,50.5500,0.000000
12.075,50.5500,0.008459
12.090,50.5500,-0.002417
12.106,50.5500,0.000000
12.130,50.5500,0.006042
12.145,50.5500,0.001208
12.162,50.5500,-0.003625
12.177,50.5500,0.002417
12.194,50.5500,0.007251
12.210,50.5500,-0.010876
12.225,50.5500,-0.001208
12.241,50.5500,-0.006042
12.258,50.5500,-0.006042
12.274,50.5500,0.006042
12.289,50.5500,0.006042
12.305,50.5500,0.001208
12.322,50.5500,0.002417
12.337,50.5500,-0.002417
12.353,50.5500,-0.001208
12.369,50.5500,-0.002417
12.386,50.5500,0.002417
12.402,50.5500,0.002417
12.418,50.6012,-0.001208
12.434,50.7134,-0.097884
12.449,50.8242,-0.004834
12.465,50.9363,-0.014501
12.482,51.0564,0.006042
12.497,51.1692,0.001208
12.513,51.2807,0.006042
12.530,51.4065,0.000000
12.545,51.5136,-0.004834
12.562,51.6272,-0.007251
12.577,51.7359,-0.004834
12.594,51.8573,0.000000
12.609,51.9694,-0.001208
12.625,52.0795,-0.004834
12.656,52.3053,-0.001208
12.672,52.4153,-0.008459
12.688,52.5332,0.001208
12.704,52.6425,-0.006042
12.723,52.7840,0.006042
12.737,52.8826,0.001208
12.752,52.9905,0.004834
12.768,53.0998,-0.002417
12.784,53.2191,-0.009668
12.800,53.3319,-0.008459
12.816,53.4434,-0.004834
12.833,53.5656,0.001208
12.848,53.6764,0.001208
12.866,53.8029,-0.003625
12.880,53.9000,-0.003625
12.897,54.0272,-0.007251
12.913,54.1357,-0.001208
12.928,54.2436,-0.001208
12.945,54.3644,-0.001208
12.960,54.4723,-0.001208
12.976,54.5888,-0.008459
12.992,54.6994,-0.013293
13.008,54.8138,-0.004834
13.025,54.9388,-0.010876
13.040,55.0459,-0.006042
13.056,55.1574,-0.009668
13.072,55.2732,-0.013293
13.088,55.3861,-0.010876
13.104,55.5032,-0.014501
13.120,55.6140,-0.018127
13.136,55.7340,-0.018127
13.152,55.8440,-0.021752
13.168,55.9584,-0.024169
13.199,56.1784,-0.029003
13.215,56.2935,-0.037462
13.231,56.4078,-0.041087
13.247,56.5213,-0.045921
13.267,56.5500,-0.016918
13.280,56.5500,-0.050755
13.295,56.5500,-0.047129
13.311,56.5500,-0.036253
13.328,56.5500,-0.055589
13.343,56.5500,-0.043504
13.358,56.5500,-0.043504
13.375,56.5500,-0.036253
13.392,56.5500,-0.043504
13.407,56.5500,-0.033837
13.423,56.5500,-0.038670
13.439,56.5500,-0.037462
13.455,56.5500,-0.029003
13.471,56.5500,-0.030211
13.486,56.5500,-0.033837
13.505,56.5500,-0.035045
13.519,56.5500,-0.031420
13.535,56.5500,-0.033837
13.550,56.5500,-0.031420
13.567,56.5500,-0.020544
13.583,56.5500,-0.032628
13.598,56.5500,-0.032628
13.617,56.5500,-0.036253
13.630,56.5500,-0.026586
13.647,56.5500,-0.027794
13.663,56.5500,-0.020544
13.681,56.5500,-0.020544
13.694,56.5500,-0.030211
13.711,56.5500,-0.033837
13.727,56.5500,-0.029003
13.748,56.5500,-0.024169
13.763,56.5500,-0.022961
13.779,56.5500,-0.025377
13.795,56.5500,-0.021752
13.811,56.5500,-0.035045
13.829,56.5500,-0.035045
13.843,56.5500,-0.027794
13.859,56.5500,-0.027794
13.876,56.5500,-0.029003
13.892,56.5500,-0.026586
13.907,56.5500,-0.026586
13.923,56.5500,-0.029003
13.942,56.5500,-0.029003
13.956,56.5500,-0.030211
13.972,56.5500,-0.025377
13.987,56.5500,-0.025377
14.004,56.5500,-0.019335
14.020,56.5500,-0.019335
14.035,56.5500,-0.020544
14.051,56.5500,-0.025377
14.071,56.5500,-0.025377
14.083,56.5500,-0.027794
14.099,56.5500,-0.027794
14.115,56.5500,-0.020544
14.131,56.5500,-0.018127
14.147,56.5500,-0.019335
14.163,56.5500,-0.021752
14.179,56.5500,-0.020544
14.196,56.5500,-0.022961
14.211,56.5500,-0.018127
14.227,56.5500,-0.016918
14.247,56.5500,-0.021752
14.260,56.5500,-0.016918
14.275,56.5500,-0.027794
14.291,56.5500,-0.030211
14.314,56.5500,-0.025377
14.329,56.5500,-0.025377
14.346,56.5500,-0.022961
14.361,56.5500,-0.020544
14.377,56.5500,-0.020544
14.393,56.5500,-0.022961
14.410,56.5500,-0.022961
14.425,56.5500,-0.024169
14.441,56.5500,-0.019335
14.457,56.5500,-0.018127
14.473,56.5500,-0.020544
14.489,56.5500,-0.020544
14.506,56.5500,-0.025377
14.522,56.5500,-0.025377
14.538,56.5500,-0.026586
14.553,56.5500,-0.020544
14.570,56.5500,-0.020544
14.585,56.5500,-0.021752
14.601,56.5500,-0.021752
14.617,56.5500,-0.021752
14.634,56.5500,-0.024169
14.649,56.5500,-0.024169
14.666,56.5500,-0.026586
14.681,56.5500,-0.021752
14.698,56.5500,-0.019335
14.712,56.5500,-0.020544
14.729,56.5500,-0.022961
14.745,56.5500,-0.022961
14.761,56.5500,-0.022961
14.778,56.5500,-0.016918
14.795,56.5500,-0.026586
14.810,56.5500,-0.022961
14.825,56.5500,-0.021752
14.841,56.5500,-0.015710
14.857,56.5500,-0.014501
14.874,56.5500,-0.021752
14.889,56.5500,-0.021752
14.905,56.5500,-0.025377
14.921,56.5500,-0.022961
14.937,56.5500,-0.022961
14.953,56.5500,-0.021752
14.969,56.5500,-0.019335
14.985,56.5500,-0.024169
15.002,56.5500,-0.015710
15.018,56.5500,-0.015710
15.033,56.5500,-0.016918
15.049,56.5500,-0.013293
15.071,56.5500,-0.015710
15.081,56.5500,-0.015710
15.098,56.5500,-0.021752
15.113,56.5500,-0.024169
15.129,56.5500,-0.024169
15.145,56.5500,-0.014501
15.164,56.5500,-0.019335
15.177,56.5500,-0.020544
15.196,56.5500,-0.021752
15.209,56.5500,-0.021752
15.225,56.5500,-0.014501
15.241,56.5500,-0.025377
15.257,56.5500,-0.021752
15.274,56.5500,-0.015710
15.289,56.5500,-0.015710
15.305,56.5500,-0.021752
15.321,56.5500,-0.021752
15.337,56.5500,-0.020544
15.352,56.5500,-0.025377
15.369,56.5500,-0.029003
15.385,56.5500,-0.018127
15.401,56.5500,-0.025377
15.417,56.5500,-0.018127
15.433,56.5500,-0.018127
15.449,56.5500,-0.022961
15.465,56.5500,-0.018127
15.481,56.5500,-0.021752
15.497,56.5500,-0.021752
15.513,56.5500,-0.020544
15.529,56.5500,-0.019335
15.545,56.5500,-0.018127
15.561,56.5500,-0.024169
15.577,56.5500,-0.027794
15.593,56.5500,-0.021752
15.609,56.5500,-0.021752
15.626,56.5500,-0.019335
15.641,56.5500,-0.015710
15.658,56.5500,-0.015710
15.672,56.5500,-0.018127
15.689,56.5500,-0.022961
15.705,56.5500,-0.018127
15.721,56.5500,-0.019335
15.737,56.5500,-0.016918
15.753,56.5500,-0.024169
15.769,56.5500,-0.016918
15.784,56.5500,-0.024169
15.803,56.5500,-0.020544
15.817,56.5500,-0.020544
15.833,56.5500,-0.018127
15.849,56.5500,-0.021752
15.866,56.5500,-0.018127
15.881,56.5500,-0.018127
15.897,56.5500,-0.014501
15.912,56.5500,-0.018127
15.932,56.5500,-0.018127
15.945,56.5500,-0.014501
15.961,56.5500,-0.014501
15.976,56.5500,-0.010876
16.000,56.5500,-0.010876
16.016,56.5500,-0.019335
16.032,56.5500,-0.022961
16.047,56.5500,-0.022961
16.071,56.5500,-0.013293
16.094,56.5500,-0.012084
16.112,56.5500,-0.025377
16.128,56.5500,-0.025377
16.143,56.5500,-0.022961
16.160,56.5500,-0.016918
16.175,56.5500,-0.022961
16.194,56.5500,-0.018127
16.208,56.5500,-0.016918
16.223,56.5500,-0.022961
16.239,56.5500,-0.022961
16.256,56.5500,-0.020544
16.272,56.5500,-0.021752
16.288,56.5500,-0.021752
16.303,56.5500,-0.016918
16.319,56.5500,-0.018127
16.336,56.5500,-0.018127
16.351,56.5500,-0.019335
16.370,56.5500,-0.018127
16.383,56.5500,-0.015710
16.400,56.5500,-0.016918
16.415,56.5500,-0.021752
16.434,56.5500,-0.016918
16.448,56.5500,-0.021752
16.463,56.5500,-0.020544
16.479,56.5500,-0.026586
16.496,56.5500,-0.021752
16.511,56.5500,-0.022961
16.529,56.5500,-0.018127
16.552,56.5500,-0.019335
16.568,56.5500,-0.020544
16.584,56.5500,-0.016918
16.600,56.5500,-0.016918
16.618,56.5500,-0.016918
16.633,56.5500,-0.015710
16.649,56.5500,-0.014501
16.664,56.5500,-0.013293
16.682,56.5500,-0.014501
16.698,56.5500,-0.015710
16.713,56.5500,-0.020544
16.728,56.5500,-0.020544
16.745,56.5500,-0.019335
16.761,56.5500,-0.019335
16.777,56.5500,-0.019335
16.792,56.5500,-0.016918
16.808,56.5500,-0.016918
16.824,56.5500,-0.018127
16.840,56.5500,-0.018127
16.856,56.5500,-0.024169
16.873,56.5500,-0.020544
16.889,56.5500,-0.013293
16.904,56.5500,-0.014501
16.924,56.5500,-0.013293
16.936,56.5500,-0.025377
16.952,56.5500,-0.025377
16.968,56.5500,-0.016918
16.985,56.5500,-0.018127
17.001,56.5500,-0.012084
17.016,56.5500,-0.020544
17.032,56.5500,-0.016918
17.048,56.5500,-0.016918
17.064,56.5500,-0.016918
17.080,56.5500,-0.016918
17.104,56.5500,-0.016918
17.119,56.5500,-0.022961
17.135,56.5500,-0.020544
17.151,56.5500,-0.016918
17.167,56.5500,-0.013293
17.183,56.5500,-0.016918
17.199,56.5500,-0.022961
17.215,56.5500,-0.020544
17.231,56.5500,-0.014501
17.248,56.5500,-0.013293
17.263,56.5500,-0.016918
17.279,56.5500,-0.016918
17.295,56.5500,-0.014501
17.311,56.5500,-0.014501
17.327,56.5500,-0.019335
17.343,56.5500,-0.014501
17.364,56.5500,-0.015710
17.375,56.5500,-0.016918
17.391,56.5500,-0.018127
17.407,56.5500,-0.015710
17.426,56.5500,-0.021752
17.440,56.5500,-0.018127
17.455,56.5500,-0.015710
17.471,56.5500,-0.016918
17.487,56.5500,-0.016918
17.503,56.5500,-0.012084
17.518,56.5500,-0.018127
17.539,56.5500,-0.018127
17.551,56.5500,-0.021752
17.566,56.5500,-0.021752
17.583,56.5500,-0.010876
17.600,56.5500,-0.010876
17.615,56.5500,-0.016918
17.631,56.5500,-0.020544
17.663,56.5500,-0.022961
17.680,56.5500,-0.015710
17.695,56.5500,-0.018127
17.711,56.5500,-0.016918
17.729,56.5500,-0.015710
17.742,56.5500,-0.019335
17.758,56.5500,-0.020544
17.774,56.5500,-0.019335
17.795,56.5500,-0.016918
17.807,56.5500,-0.016918
17.823,56.5500,-0.016918
17.838,56.5500,-0.015710
17.857,56.5500,-0.018127
17.870,56.5500,-0.018127
17.886,56.5500,-0.019335
17.902,56.5500,-0.016918
17.918,56.5500,-0.016918
17.934,56.5500,-0.019335
17.950,56.5500,-0.014501
17.966,56.5500,-0.013293
17.984,56.5500,-0.015710
17.998,56.5500,-0.016918
18.014,56.5500,-0.022961
18.030,56.5500,-0.020544
18.048,56.5500,-0.010876
18.063,56.5500,-0.010876
18.078,56.5500,-0.010876
18.094,56.5500,-0.016918
18.112,56.5500,-0.020544
18.125,56.5500,-0.024169
18.141,56.5500,-0.021752
18.158,56.5500,-0.022961
18.174,56.5500,-0.009668
18.190,56.5500,-0.019335
18.219,56.5500,-0.019335
18.235,56.5500,-0.021752
18.250,56.5500,-0.021752
18.266,56.5500,-0.015710
18.284,56.5500,-0.012084
18.299,56.5500,-0.021752
18.315,56.5500,-0.020544
18.331,56.5500,-0.025377
18.346,56.5500,-0.013293
18.363,56.5500,-0.021752
18.379,56.5500,-0.018127
18.395,56.5500,-0.016918
18.411,56.5500,-0.013293
18.427,56.5500,-0.013293
18.442,56.5500,-0.015710
18.459,56.5500,-0.020544
18.475,56.5500,-0.020544
18.491,56.5500,-0.020544
18.506,56.5500,-0.022961
18.523,56.5500,-0.015710
18.539,56.5500,-0.024169
18.557,56.5500,-0.021752
18.570,56.5500,-0.019335
18.587,56.5500,-0.010876
18.603,56.5500,-0.018127
18.619,56.5500,-0.018127
18.635,56.5500,-0.015710
18.650,56.5500,-0.015710
18.666,56.5500,-0.014501
18.682,56.5500,-0.015710
18.698,56.5500,-0.015710
18.714,56.5500,-0.018127
18.731,56.5500,-0.013293
18.746,56.5500,-0.013293
18.770,56.5500,-0.013293
18.785,56.5500,-0.014501
18.800,56.5500,-0.014501
18.816,56.5500,-0.016918
18.833,56.5500,-0.016918
18.849,56.5500,-0.016918
18.866,56.5500,-0.022961
18.881,56.5500,-0.016918
18.897,56.5500,-0.016918
18.912,56.5500,-0.015710
18.928,56.5500,-0.016918
18.945,56.5500,-0.014501
18.960,56.5500,-0.015710
18.976,56.5500,-0.015710
18.995,56.5500,-0.013293
19.009,56.5500,-0.019335
19.024,56.5500,-0.016918
19.040,56.5500,-0.019335
19.057,56.5500,-0.018127
19.073,56.5500,-0.018127
19.090,56.5500,-0.012084
19.104,56.5500,-0.015710
19.121,56.5500,-0.015710
19.137,56.5500,-0.024169
19.155,56.5500,-0.016918
19.168,56.5500,-0.021752
19.185,56.5500,-0.012084
19.200,56.5500,-0.012084
19.216,56.5500,-0.016918
19.232,56.5500,-0.018127
19.249,56.5500,-0.018127
19.265,56.5500,-0.018127
19.280,56.5500,-0.020544
19.311,56.5500,-0.018127
19.331,56.5500,-0.018127
19.342,56.5500,-0.015710
19.358,56.5500,-0.010876
19.374,56.5500,-0.015710
19.390,56.5500,-0.018127
19.406,56.5500,-0.020544
19.422,56.5500,-0.018127
19.438,56.5500,-0.009668
19.455,56.5500,-0.018127
19.469,56.5500,-0.016918
19.487,56.5500,-0.016918
19.502,56.5500,-0.020544
19.518,56.5500,-0.016918
19.534,56.5500,-0.012084
19.558,56.5500,-0.012084
19.580,56.5500,-0.014501
19.599,56.5500,-0.014501
19.614,56.5500,-0.009668
19.631,56.5500,-0.018127
19.646,56.5500,-0.020544
19.662,56.5500,-0.016918
19.679,56.5500,-0.016918
19.694,56.5500,-0.019335
19.710,56.5500,-0.019335
19.726,56.5500,-0.019335
19.743,56.5500,-0.020544
19.759,56.5500,-0.015710
19.775,56.5500,-0.014501
19.789,56.5500,-0.016918
19.806,56.5500,-0.018127
19.822,56.5500,-0.016918
19.838,56.5500,-0.020544
19.862,56.5500,-0.014501
19.878,56.5500,-0.008459
19.893,56.5500,-0.016918
19.909,56.5500,-0.015710
19.925,56.5500,-0.013293
19.941,56.5500,-0.020544
19.960,56.5500,-0.020544
19.973,56.5500,-0.012084
19.990,56.5500,-0.012084
20.006,56.5500,-0.015710
20.023,56.5500,-0.014501
20.037,56.5500,-0.016918
20.053,56.5500,-0.019335
20.069,56.5500,-0.019335
20.085,56.5500,-0.020544
20.101,56.5500,-0.015710
20.118,56.5500,-0.015710
20.132,56.5500,-0.015710
20.149,56.5500,-0.016918
20.172,56.5500,-0.014501
20.197,56.5500,-0.015710
20.214,56.5500,-0.016918
20.229,56.5500,-0.016918
20.245,56.5500,-0.015710
20.261,56.5500,-0.014501
20.277,56.5500,-0.020544
20.293,56.5500,-0.014501
20.309,56.5500,-0.014501
20.325,56.5500,-0.013293
20.341,56.5500,-0.012084
20.357,56.5500,-0.010876
20.373,56.5500,-0.021752
20.400,56.5500,-0.018127
20.416,56.5500,-0.013293
20.432,56.5500,-0.016918
20.447,56.5500,-0.015710
20.466,56.5500,-0.016918
20.480,56.5500,-0.010876
20.495,56.5500,-0.010876
20.512,56.5500,-0.014501
20.528,56.5500,-0.016918
20.544,56.5500,-0.014501
20.562,56.5500,-0.014501
20.575,56.5500,-0.016918
20.592,56.5500,-0.014501
20.608,56.5500,-0.015710
20.623,56.5500,-0.020544
20.640,56.5500,-0.018127
20.656,56.5500,-0.019335
20.671,56.5500,-0.021752
20.687,56.5500,-0.012084
20.704,56.5500,-0.013293
20.720,56.5500,-0.019335
20.735,56.5500,-0.016918
20.751,56.5500,-0.018127
20.768,56.5500,-0.018127
20.784,56.5500,-0.016918
20.799,56.5500,-0.015710
20.816,56.5500,-0.016918
20.832,56.5500,-0.015710
20.848,56.5500,-0.016918
20.863,56.5500,-0.018127
20.879,56.5500,-0.014501
20.895,56.5500,-0.019335
20.911,56.5500,-0.016918
20.927,56.5500,-0.018127
20.950,56.5500,-0.018127
20.966,56.5500,-0.015710
20.981,56.5500,-0.013293
20.998,56.5500,-0.013293
21.014,56.5500,-0.015710
21.029,56.5500,-0.010876
21.045,56.5500,-0.014501
21.061,56.5500,-0.016918
21.078,56.5500,-0.019335
21.094,56.5500,-0.018127
21.109,56.5500,-0.013293
21.126,56.5500,-0.015710
21.141,56.5500,-0.013293
21.160,56.5500,-0.013293
21.174,56.5500,-0.010876
21.190,56.5500,-0.015710
21.205,56.5500,-0.019335
21.221,56.5500,-0.016918
21.239,56.5500,-0.016918
21.253,56.5500,-0.018127
21.270,56.5500,-0.025377
21.285,56.5500,-0.018127
21.301,56.5500,-0.014501
21.317,56.5500,-0.018127
21.333,56.5500,-0.015710
21.350,56.5500,-0.015710
21.366,56.5500,-0.016918
21.381,56.5500,-0.018127
21.397,56.5500,-0.015710
21.416,56.5500,-0.020544
21.429,56.5500,-0.020544
21.445,56.5500,-0.020544
21.461,56.5500,-0.014501
21.484,56.5500,-0.016918
21.498,56.5500,-0.015710
21.513,56.5500,-0.016918
21.530,56.5500,-0.018127
21.546,56.5500,-0.019335
21.562,56.5500,-0.018127
21.578,56.5500,-0.014501
21.594,56.5500,-0.013293
21.610,56.5500,-0.013293
21.626,56.5500,-0.014501
21.642,56.5500,-0.018127
21.661,56.5500,-0.018127
21.674,56.5500,-0.024169
21.690,56.5500,-0.024169
21.706,56.5500,-0.015710
21.722,56.5500,-0.015710
21.738,56.5500,-0.015710
21.754,56.5500,-0.018127
21.770,56.5500,-0.016918
21.787,56.5500,-0.016918
21.802,56.5500,-0.014501
21.819,56.5500,-0.013293
21.834,56.5500,-0.013293
21.850,56.5500,-0.013293
21.866,56.5500,-0.018127
21.882,56.5500,-0.019335
21.899,56.5500,-0.019335
21.914,56.5500,-0.013293
21.931,56.5500,-0.008459
21.946,56.5500,-0.016918
21.962,56.5500,-0.018127
21.978,56.5500,-0.012084
21.994,56.5500,-0.020544
22.017,56.5500,-0.020544
22.033,56.5500,-0.013293
22.049,56.5500,-0.018127
22.065,56.5500,-0.016918
22.081,56.5500,-0.016918
22.097,56.5500,-0.015710
22.113,56.5500,-0.019335
22.129,56.5500,-0.021752
22.147,56.5500,-0.020544
22.161,56.5500,-0.014501
22.177,56.5500,-0.016918
22.193,56.5500,-0.013293
22.209,56.5500,-0.013293
22.225,56.5500,-0.019335
22.241,56.5500,-0.019335
22.257,56.5500,-0.018127
22.273,56.5500,-0.015710
22.289,56.5500,-0.008459
22.305,56.5500,-0.020544
22.323,56.5500,-0.020544
22.337,56.5500,-0.013293
22.353,56.5500,-0.020544
22.368,56.5500,-0.019335
22.386,56.5500,-0.016918
22.401,56.5500,-0.014501
22.417,56.5500,-0.018127
22.432,56.5500,-0.015710
22.448,56.5500,-0.026586
22.464,56.5500,-0.024169
22.481,56.5500,-0.019335
22.496,56.5500,-0.014501
22.513,56.5500,-0.012084
22.528,56.5500,-0.015710
22.545,56.5500,-0.018127
22.573,56.5500,-0.014501
22.589,56.5500,-0.010876
22.604,56.5500,-0.010876
22.620,56.5500,-0.013293
22.638,56.5500,-0.022961
22.653,56.5500,-0.019335
22.668,56.5500,-0.020544
22.684,56.5500,-0.015710
22.702,56.5500,-0.012084
22.717,56.5500,-0.012084
22.733,56.5500,-0.013293
22.748,56.5500,-0.013293
22.765,56.5500,-0.016918
22.780,56.5500,-0.016918
22.796,56.5500,-0.013293
22.813,56.5500,-0.015710
22.830,56.5500,-0.020544
22.845,56.5500,-0.016918
22.862,56.5500,-0.014501
22.878,56.5500,-0.010876
22.899,56.5500,-0.012084
22.923,56.5500,-0.020544
22.947,56.5500,-0.019335
22.958,56.5500,-0.016918
22.973,56.5500,-0.014501
22.988,56.5500,-0.013293
23.005,56.5500,-0.014501
23.021,56.5500,-0.022961
23.037,56.5500,-0.020544
23.052,56.5500,-0.019335
23.068,56.5500,-0.016918
23.085,56.5500,-0.013293
23.101,56.5500,-0.013293
23.128,56.5500,-0.015710
23.145,56.5500,-0.015710
23.160,56.5500,-0.015710
23.176,56.5500,-0.020544
23.193,56.5500,-0.014501
23.209,56.5500,-0.014501
23.224,56.5500,-0.012084
23.240,56.5500,-0.016918
23.257,56.5500,-0.016918
23.273,56.5500,-0.013293
23.289,56.5500,-0.013293
23.305,56.5500,-0.012084
23.321,56.5500,-0.013293
23.336,56.5500,-0.013293
23.352,56.5500,-0.015710
23.368,56.5500,-0.015710
23.384,56.5500,-0.019335
23.400,56.5500,-0.019335
23.416,56.5500,-0.019335
23.433,56.5500,-0.018127
23.449,56.5500,-0.015710
23.464,56.5500,-0.016918
23.480,56.5500,-0.014501
23.503,56.5500,-0.016918
23.513,56.5500,-0.015710
23.528,56.5500,-0.012084
23.544,56.5500,-0.014501
23.560,56.5500,-0.014501
23.576,56.5500,-0.021752
23.592,56.5500,-0.018127
23.608,56.5500,-0.016918
23.624,56.5500,-0.019335
23.641,56.5500,-0.016918
23.657,56.5500,-0.012084
23.685,56.5500,-0.016918
23.701,56.5500,-0.014501
23.717,56.5500,-0.018127
23.733,56.5500,-0.015710
23.750,56.5500,-0.021752
23.765,56.5500,-0.015710
23.783,56.5500,-0.015710
23.797,56.5500,-0.015710
23.814,56.5500,-0.016918
23.830,56.5500,-0.016918
23.845,56.5500,-0.012084
23.861,56.5500,-0.018127
23.877,56.5500,-0.010876
23.893,56.5500,-0.020544
23.909,56.5500,-0.020544
23.925,56.5500,-0.014501
23.941,56.5500,-0.014501
23.957,56.5500,-0.021752
23.973,56.5500,-0.016918
23.990,56.5500,-0.018127
24.006,56.5500,-0.013293
24.021,56.5500,-0.010876
24.037,56.5500,-0.013293
24.054,56.5500,-0.013293
24.069,56.5500,-0.018127
24.086,56.5500,-0.019335
24.101,56.5500,-0.010876
24.118,56.5500,-0.010876
24.134,56.5500,-0.010876
24.152,56.5500,-0.013293
24.165,56.5500,-0.018127
24.182,56.5500,-0.019335
24.197,56.5500,-0.022961
24.213,56.5500,-0.013293
24.237,56.5500,-0.016918
24.256,56.5500,-0.020544
24.269,56.5500,-0.015710
24.285,56.5500,-0.018127
24.301,56.5500,-0.010876
24.317,56.5500,-0.010876
24.333,56.5500,-0.013293
24.349,56.5500,-0.013293
24.365,56.5500,-0.018127
24.381,56.5500,-0.014501
24.397,56.5500,-0.014501
24.412,56.5500,-0.014501
24.430,56.5500,-0.018127
24.445,56.5500,-0.014501
24.461,56.5500,-0.008459
24.477,56.5500,-0.008459
24.492,56.5500,-0.019335
24.509,56.5500,-0.016918
24.525,56.5500,-0.016918
24.542,56.5500,-0.015710
24.557,56.5500,-0.020544
24.573,56.5500,-0.013293
24.589,56.5500,-0.013293
24.606,56.5500,-0.014501
24.620,56.5500,-0.014501
24.638,56.5500,-0.021752
24.652,56.5500,-0.019335
24.669,56.5012,-0.002417
24.686,56.3834,0.088217
24.701,56.2735,0.000000
24.717,56.1556,0.018127
24.734,56.0370,0.009668
24.751,55.9062,0.047129
24.776,55.7217,0.051963
24.792,55.6155,0.068882
24.807,55.5033,0.089425
24.823,55.3876,0.090634
24.840,55.2640,0.117219
24.856,55.1462,0.125679
24.871,55.0369,0.146222
24.888,54.9147,0.146222
24.905,54.7969,0.157098
24.919,54.6876,0.158307
24.935,54.5770,0.163140
24.952,54.4548,0.171600
24.967,54.3412,0.166766
24.983,54.2306,0.149848
25.000,54.1113,0.134138
25.015,53.9986,0.055589
25.032,53.8829,0.009668
25.047,53.7686,0.002417
25.066,53.6327,0.001208
25.079,53.5372,0.001208
25.096,53.4179,0.000000
25.111,53.3050,0.002417
25.131,53.1633,0.002417
25.144,53.0715,0.007251
25.159,52.9580,0.007251
25.175,52.8430,0.004834
25.195,52.6977,-0.002417
25.207,52.6116,0.002417
25.224,52.4944,0.003625
25.239,52.3802,0.004834
25.256,52.2609,0.000000
25.272,52.1459,0.002417
25.288,52.0251,0.000000
25.315,51.8306,0.001208
25.332,51.7106,-0.002417
25.348,51.5964,0.002417
25.363,51.4842,0.007251
25.380,51.3570,0.007251
25.396,51.2492,0.008459
25.415,51.1125,0.004834
25.428,51.0149,0.003625
25.444,50.9021,0.002417
25.459,50.7864,0.002417
25.475,50.6750,0.001208
25.492,50.5521,-0.001208
25.508,50.4999,-0.048338
25.524,50.4999,0.000000
25.542,50.4999,0.000000
25.555,50.4999,-0.004834
25.572,50.4999,-0.006042
25.587,50.4999,0.006042
25.603,50.4999,0.001208
25.627,50.4999,0.004834
25.638,50.4999,-0.006042
25.652,50.4999,-0.007251
25.667,50.4999,-0.004834
25.684,50.4999,0.007251
25.699,50.4999,0.006042
25.715,50.4999,0.003625
25.732,50.5170,-0.008459
25.748,50.6288,-0.103926
25.764,50.7467,0.007251
25.779,50.8537,0.007251
25.798,50.9940,-0.014501
25.811,51.0880,-0.006042
25.827,51.2016,-0.006042
25.854,51.3968,-0.008459
25.870,51.5133,-0.003625
25.886,51.6290,-0.004834
25.902,51.7432,-0.002417
25.920,51.8799,-0.002417
25.934,51.9796,-0.002417
25.950,52.0968,-0.002417
25.966,52.2110,-0.004834
25.983,52.3275,-0.006042
25.998,52.4374,-0.009668
26.014,52.5546,-0.006042
26.030,52.6673,-0.006042
26.046,52.7845,0.000000
26.062,52.9038,-0.002417
26.078,53.0152,-0.007251
26.103,53.2025,-0.007251
26.124,53.3558,0.004834
26.142,53.4809,0.000000
26.158,53.5987,0.002417
26.175,53.7180,-0.006042
26.190,53.8243,-0.006042
26.206,53.9451,-0.008459
26.222,54.0644,-0.008459
26.238,54.1715,-0.003625
26.254,54.2908,-0.003625
26.270,54.4035,-0.008459
26.288,54.5373,-0.006042
26.302,54.6342,-0.007251
26.319,54.7578,-0.007251
26.334,54.8649,-0.004834
26.351,54.9900,-0.006042
26.367,55.1086,-0.008459
26.384,55.2286,-0.013293
26.408,55.4051,-0.008459
26.424,55.5201,-0.013293
26.440,55.6322,-0.016918
26.456,55.7472,-0.018127
26.473,55.8701,-0.018127
26.488,55.9858,-0.020544
26.507,56.1159,-0.022961
26.520,56.2099,-0.030211
26.537,56.3386,-0.033837
26.552,56.4428,-0.049546
26.568,56.4999,-0.049546
26.584,56.4999,-0.056797
26.600,56.4999,-0.056797
26.616,56.4999,-0.036253
26.632,56.4999,-0.033837
26.655,56.4999,-0.044713
26.681,56.4999,-0.035045
26.697,56.4999,-0.032628
26.713,56.4999,-0.036253
26.728,56.4999,-0.030211
26.744,56.4999,-0.037462
26.760,56.4999,-0.032628
26.777,56.4999,-0.036253
26.792,56.4999,-0.036253
26.808,56.4999,-0.035045
26.824,56.4999,-0.031420
26.840,56.4999,-0.037462
26.856,56.4999,-0.032628
26.873,56.4999,-0.031420
26.888,56.4999,-0.032628
26.904,56.4999,-0.029003
26.920,56.4999,-0.029003
26.937,56.4999,-0.030211
26.962,56.4999,-0.024169
26.979,56.4999,-0.026586
26.993,56.4999,-0.029003
27.009,56.4999,-0.029003
27.029,56.4999,-0.029003
27.041,56.4999,-0.026586
27.057,56.4999,-0.025377
27.074,56.4999,-0.025377
27.090,56.4999,-0.025377
27.106,56.4999,-0.021752
27.123,56.4999,-0.026586
27.137,56.4999,-0.031420
27.154,56.4999,-0.027794
27.170,56.4999,-0.027794
27.185,56.4999,-0.027794
27.202,56.4999,-0.022961
27.218,56.4999,-0.027794
27.234,56.4999,-0.031420
27.249,56.4999,-0.029003
27.266,56.4999,-0.021752
27.282,56.4999,-0.025377
27.297,56.4999,-0.025377
27.314,56.4999,-0.021752
27.330,56.4999,-0.027794
27.345,56.4999,-0.029003
27.361,56.4999,-0.029003
27.379,56.4999,-0.029003
27.393,56.4999,-0.026586
27.409,56.4999,-0.024169
27.425,56.4999,-0.019335
27.446,56.4999,-0.025377
27.458,56.4999,-0.025377
27.474,56.4999,-0.025377
27.492,56.4999,-0.024169
27.517,56.4999,-0.024169
27.532,56.4999,-0.024169
27.547,56.4999,-0.025377
27.563,56.4999,-0.021752
27.580,56.4999,-0.024169
27.596,56.4999,-0.024169
27.612,56.4999,-0.024169
27.627,56.4999,-0.024169
27.644,56.4999,-0.025377
27.660,56.4999,-0.025377
27.675,56.4999,-0.025377
27.692,56.4999,-0.020544
27.708,56.4999,-0.016918
27.723,56.4999,-0.024169
27.742,56.4999,-0.024169
27.756,56.4999,-0.019335
27.772,56.4999,-0.019335
27.787,56.4999,-0.019335
27.804,56.4999,-0.022961
27.820,56.4999,-0.022961
27.836,56.4999,-0.027794
27.851,56.4999,-0.031420
27.868,56.4999,-0.031420
27.884,56.4999,-0.022961
27.899,56.4999,-0.022961
27.915,56.4999,-0.019335
27.932,56.4999,-0.025377
27.947,56.4999,-0.019335
27.964,56.4999,-0.019335
27.981,56.4999,-0.015710
27.995,56.4999,-0.025377
28.011,56.4999,-0.019335
28.027,56.4999,-0.019335
28.048,56.4999,-0.019335
28.064,56.4999,-0.031420
28.080,56.4999,-0.022961
28.096,56.4999,-0.029003
28.113,56.4999,-0.019335
28.128,56.4999,-0.016918
28.146,56.4999,-0.021752
28.160,56.4999,-0.021752
28.177,56.4999,-0.021752
28.192,56.4999,-0.024169
28.208,56.4999,-0.024169
28.223,56.4999,-0.021752
28.240,56.4999,-0.018127
28.256,56.4999,-0.021752
28.272,56.4999,-0.029003
28.288,56.4999,-0.024169
28.305,56.4999,-0.021752
28.321,56.4999,-0.018127
28.336,56.4999,-0.022961
28.352,56.4999,-0.016918
28.368,56.4999,-0.021752
28.384,56.4999,-0.018127
28.400,56.4999,-0.020544
28.417,56.4999,-0.020544
28.432,56.4999,-0.022961
28.448,56.4999,-0.022961
28.464,56.4999,-0.021752
28.481,56.4999,-0.021752
28.496,56.4999,-0.021752
28.513,56.4999,-0.020544
28.528,56.4999,-0.019335
28.545,56.4999,-0.021752
28.560,56.4999,-0.015710
28.576,56.4999,-0.018127
28.599,56.4999,-0.015710
28.614,56.4999,-0.014501
28.631,56.4999,-0.016918
28.647,56.4999,-0.020544
28.664,56.4999,-0.025377
28.679,56.4999,-0.016918
28.698,56.4999,-0.016918
28.711,56.4999,-0.021752
28.729,56.4999,-0.021752
28.744,56.4999,-0.026586
28.760,56.4999,-0.024169
28.775,56.4999,-0.026586
28.792,56.4999,-0.029003
28.807,56.4999,-0.018127
28.823,56.4999,-0.015710
28.839,56.4999,-0.015710
28.855,56.4999,-0.015710
28.871,56.4999,-0.019335
28.886,56.4999,-0.022961
28.904,56.4999,-0.020544
28.919,56.4999,-0.015710
28.934,56.4999,-0.022961
28.951,56.4999,-0.018127
28.973,56.4999,-0.022961
28.984,56.4999,-0.020544
28.999,56.4999,-0.020544
29.015,56.4999,-0.020544
29.031,56.4999,-0.018127
29.047,56.4999,-0.016918
29.063,56.4999,-0.014501
29.079,56.4999,-0.018127
29.096,56.4999,-0.021752
29.110,56.4999,-0.019335
29.127,56.4999,-0.019335
29.154,56.4999,-0.016918
29.171,56.4999,-0.021752
29.186,56.4999,-0.016918
29.202,56.4999,-0.013293
29.219,56.4999,-0.025377
29.234,56.4999,-0.027794
29.250,56.4999,-0.018127
29.267,56.4999,-0.018127
29.283,56.4999,-0.018127
29.299,56.4999,-0.020544
29.316,56.4999,-0.020544
29.331,56.4999,-0.016918
29.347,56.4999,-0.016918
29.362,56.4999,-0.019335
29.378,56.4999,-0.019335
29.395,56.4999,-0.022961
29.410,56.4999,-0.022961
29.426,56.4999,-0.022961
29.442,56.4999,-0.015710
29.461,56.4999,-0.018127
29.474,56.4999,-0.016918
29.490,56.4999,-0.021752
29.506,56.4999,-0.019335
29.523,56.4999,-0.016918
29.539,56.4999,-0.016918
29.555,56.4999,-0.016918
29.570,56.4999,-0.025377
29.587,56.4999,-0.021752
29.603,56.4999,-0.022961
29.618,56.4999,-0.018127
29.634,56.4999,-0.019335
29.651,56.4999,-0.019335
29.668,56.4999,-0.021752
29.684,56.4999,-0.021752
29.708,56.4999,-0.019335
29.724,56.4999,-0.013293
29.741,56.4999,-0.013293
29.756,56.4999,-0.021752
29.772,56.4999,-0.016918
29.789,56.4999,-0.010876
29.804,56.4999,-0.021752
29.821,56.4999,-0.021752
29.837,56.4999,-0.016918
29.854,56.4999,-0.014501
29.868,56.4999,-0.015710
29.885,56.4999,-0.020544
29.900,56.4999,-0.015710
29.916,56.4999,-0.018127
29.933,56.4999,-0.021752
29.949,56.4999,-0.012084
29.965,56.4999,-0.016918
29.981,56.4999,-0.016918
29.996,56.4999,-0.015710
30.012,56.4999,-0.018127
30.028,56.4999,-0.020544
30.044,56.4999,-0.019335
30.061,56.4999,-0.021752
30.076,56.4999,-0.013293
30.092,56.4999,-0.016918
30.108,56.4999,-0.018127
30.124,56.4999,-0.016918
30.140,56.4999,-0.016918
30.156,56.4999,-0.020544
30.172,56.4999,-0.019335
30.188,56.4999,-0.018127
30.204,56.4999,-0.018127
30.223,56.4999,-0.015710
30.247,56.4999,-0.024169
30.263,56.4999,-0.021752
30.279,56.4999,-0.024169
30.295,56.4999,-0.018127
30.312,56.4999,-0.018127
30.329,56.4999,-0.018127
30.346,56.4999,-0.012084
30.359,56.4999,-0.019335
30.375,56.4999,-0.021752
30.391,56.4999,-0.021752
30.407,56.4999,-0.019335
30.423,56.4999,-0.016918
30.439,56.4999,-0.016918
30.455,56.4999,-0.015710
30.471,56.4999,-0.021752
30.487,56.4999,-0.021752
30.503,56.4999,-0.018127
30.519,56.4999,-0.020544
30.535,56.4999,-0.019335
30.555,56.4999,-0.024169
30.570,56.4999,-0.015710
30.583,56.4999,-0.018127
30.599,56.4999,-0.020544
30.615,56.4999,-0.020544
30.631,56.4999,-0.020544
30.647,56.4999,-0.016918
30.663,56.4999,-0.014501
30.680,56.4999,-0.014501
30.695,56.4999,-0.016918
30.711,56.4999,-0.024169
30.727,56.4999,-0.014501
30.744,56.4999,-0.019335
30.759,56.4999,-0.019335
30.775,56.4999,-0.019335
30.800,56.4999,-0.019335
30.815,56.4999,-0.018127
30.831,56.4999,-0.024169
30.847,56.4999,-0.019335
30.863,56.4999,-0.018127
30.879,56.4999,-0.015710
30.895,56.4999,-0.015710
30.911,56.4999,-0.012084
30.930,56.4999,-0.015710
30.943,56.4999,-0.016918
30.959,56.4999,-0.014501
30.975,56.4999,-0.016918
30.991,56.4999,-0.015710
31.007,56.4999,-0.013293
31.022,56.4999,-0.020544
31.039,56.4999,-0.019335
31.055,56.4999,-0.021752
31.070,56.4999,-0.015710
31.087,56.4999,-0.014501
31.102,56.4999,-0.016918
31.118,56.4999,-0.014501
31.134,56.4999,-0.016918
31.150,56.4999,-0.019335
31.168,56.4999,-0.016918
31.182,56.4999,-0.019335
31.199,56.4999,-0.020544
31.215,56.4999,-0.018127
31.231,56.4999,-0.016918
31.246,56.4999,-0.019335
31.263,56.4999,-0.015710
31.279,56.4999,-0.021752
31.295,56.4999,-0.019335
31.311,56.4999,-0.013293
31.327,56.4999,-0.015710
31.354,56.4999,-0.019335
31.370,56.4999,-0.014501
31.386,56.4999,-0.015710
31.403,56.4999,-0.016918
31.422,56.4999,-0.016918
31.435,56.4999,-0.014501
31.451,56.4999,-0.019335
31.469,56.4999,-0.018127
31.483,56.4999,-0.009668
31.499,56.4999,-0.014501
31.514,56.4999,-0.021752
31.531,56.4999,-0.018127
31.547,56.4999,-0.016918
31.563,56.4999,-0.014501
31.581,56.4999,-0.014501
31.594,56.4999,-0.009668
31.610,56.4999,-0.022961
31.627,56.4999,-0.022961
31.642,56.4999,-0.012084
31.659,56.4999,-0.012084
31.675,56.4999,-0.024169
31.691,56.4999,-0.024169
31.706,56.4999,-0.019335
31.725,56.4999,-0.019335
31.740,56.4999,-0.021752
31.755,56.4999,-0.021752
31.770,56.4999,-0.016918
31.787,56.4999,-0.021752
31.803,56.4999,-0.024169
31.819,56.4999,-0.013293
31.834,56.4999,-0.012084
31.852,56.4999,-0.021752
31.867,56.4999,-0.021752
31.882,56.4999,-0.020544
31.898,56.4999,-0.016918
31.914,56.4999,-0.016918
31.931,56.4999,-0.016918
31.946,56.4999,-0.010876
31.962,56.4999,-0.019335
31.978,56.4999,-0.019335
31.995,56.4999,-0.019335
32.010,56.4999,-0.013293
32.027,56.4999,-0.015710
32.043,56.4999,-0.014501
32.059,56.4999,-0.013293
32.074,56.4999,-0.021752
32.093,56.4999,-0.021752
32.106,56.4999,-0.018127
32.122,56.4999,-0.019335
32.138,56.4999,-0.016918
32.158,56.4999,-0.016918
32.170,56.4999,-0.013293
32.186,56.4999,-0.016918
32.202,56.4999,-0.018127
32.219,56.4999,-0.019335
32.234,56.4999,-0.021752
32.250,56.4999,-0.015710
32.266,56.4999,-0.015710
32.283,56.4999,-0.015710
32.298,56.4999,-0.012084
32.315,56.4999,-0.020544
32.330,56.4999,-0.016918
32.350,56.4999,-0.016918
32.362,56.4999,-0.025377
32.378,56.4999,-0.016918
32.394,56.4999,-0.018127
32.411,56.4999,-0.018127
32.426,56.4999,-0.024169
32.442,56.4999,-0.015710
32.466,56.4999,-0.012084
32.481,56.4999,-0.018127
32.497,56.4999,-0.019335
32.513,56.4999,-0.009668
32.529,56.4999,-0.015710
32.545,56.4999,-0.014501
32.564,56.4999,-0.016918
32.577,56.4999,-0.016918
32.594,56.4999,-0.018127
32.609,56.4999,-0.018127
32.625,56.4999,-0.016918
32.641,56.4999,-0.014501
32.657,56.4999,-0.014501
32.673,56.4999,-0.019335
32.689,56.4999,-0.015710
32.705,56.4999,-0.016918
32.721,56.4999,-0.019335
32.737,56.4999,-0.015710
32.753,56.4999,-0.013293
32.771,56.4999,-0.020544
32.785,56.4999,-0.021752
32.802,56.4999,-0.019335
32.817,56.4999,-0.010876
32.835,56.4999,-0.018127
32.849,56.4999,-0.016918
32.865,56.4999,-0.016918
32.881,56.4999,-0.018127
32.898,56.4999,-0.018127
32.914,56.4999,-0.018127
32.929,56.4999,-0.018127
32.945,56.4999,-0.012084
32.961,56.4999,-0.015710
32.977,56.4999,-0.013293
32.993,56.4999,-0.015710
33.015,56.4999,-0.018127
33.031,56.4999,-0.024169
33.047,56.4999,-0.013293
33.063,56.4999,-0.016918
33.080,56.4999,-0.018127
33.095,56.4999,-0.018127
33.111,56.4999,-0.018127
33.127,56.4999,-0.018127
33.144,56.4999,-0.022961
33.159,56.4999,-0.020544
33.177,56.4999,-0.012084
33.191,56.4999,-0.014501
33.214,56.4999,-0.014501
33.227,56.4999,-0.015710
33.239,56.4999,-0.014501
33.254,56.4999,-0.012084
33.270,56.4999,-0.022961
33.287,56.4999,-0.018127
33.302,56.4999,-0.014501
33.319,56.4999,-0.014501
33.334,56.4999,-0.013293
33.350,56.4999,-0.010876
33.366,56.4999,-0.014501
33.385,56.4999,-0.012084
33.398,56.4999,-0.014501
33.414,56.4999,-0.010876
33.430,56.4999,-0.015710
33.448,56.4999,-0.016918
33.463,56.4999,-0.018127
33.478,56.4999,-0.018127
33.494,56.4999,-0.019335
33.510,56.4999,-0.019335
33.527,56.4999,-0.019335
33.542,56.4999,-0.016918
33.569,56.4999,-0.018127
33.585,56.4999,-0.018127
33.601,56.4999,-0.016918
33.617,56.4999,-0.018127
33.635,56.4999,-0.010876
33.649,56.4999,-0.010876
33.665,56.4999,-0.013293
33.682,56.4999,-0.019335
33.698,56.4999,-0.018127
33.713,56.4999,-0.014501
33.729,56.4999,-0.015710
33.745,56.4999,-0.018127
33.761,56.4999,-0.019335
33.778,56.4999,-0.018127
33.796,56.4999,-0.019335
33.809,56.4999,-0.018127
33.826,56.4999,-0.008459
33.842,56.4999,-0.014501
33.857,56.4999,-0.015710
33.873,56.4999,-0.019335
33.889,56.4999,-0.018127
33.905,56.4999,-0.014501
33.921,56.4999,-0.019335
33.937,56.4999,-0.014501
33.953,56.4999,-0.020544
33.970,56.4999,-0.020544
33.985,56.4999,-0.015710
34.006,56.4999,-0.015710
34.017,56.4999,-0.015710
34.033,56.4999,-0.015710
34.049,56.4999,-0.019335
34.068,56.4999,-0.019335
34.082,56.4999,-0.019335
34.098,56.4999,-0.020544
34.113,56.4999,-0.012084
34.135,56.4999,-0.015710
34.152,56.4999,-0.016918
34.168,56.4999,-0.015710
34.183,56.4999,-0.019335
34.205,56.4999,-0.014501
34.219,56.4999,-0.015710
34.232,56.4999,-0.015710
34.248,56.4999,-0.014501
34.264,56.4999,-0.010876
34.280,56.4999,-0.016918
34.295,56.4999,-0.014501
34.311,56.4999,-0.018127
34.328,56.4999,-0.014501
34.344,56.4999,-0.016918
34.359,56.4999,-0.018127
34.376,56.4999,-0.020544
34.391,56.4999,-0.016918
34.407,56.4999,-0.019335
34.423,56.4999,-0.020544
34.439,56.4999,-0.013293
34.455,56.4999,-0.010876
34.471,56.4999,-0.016918
34.487,56.4999,-0.016918
34.504,56.4999,-0.015710
34.520,56.4999,-0.015710
34.538,56.4999,-0.015710
34.551,56.4999,-0.014501
34.570,56.4999,-0.014501
34.583,56.4999,-0.015710
34.599,56.4999,-0.015710
34.615,56.4999,-0.015710
34.631,56.4999,-0.015710
34.647,56.4999,-0.014501
34.663,56.4999,-0.013293
34.686,56.4999,-0.014501
34.702,56.4999,-0.014501
34.717,56.4999,-0.019335
34.734,56.4999,-0.019335
34.751,56.4999,-0.021752
34.766,56.4999,-0.014501
34.782,56.4999,-0.018127
34.799,56.4999,-0.018127
34.814,56.4999,-0.015710
34.830,56.4999,-0.015710
34.846,56.4999,-0.019335
34.862,56.4999,-0.018127
34.878,56.4999,-0.015710
34.894,56.4999,-0.015710
34.910,56.4999,-0.013293
34.928,56.4999,-0.007251
34.942,56.4999,-0.020544
34.958,56.4999,-0.020544
34.974,56.4999,-0.019335
34.993,56.4999,-0.019335
35.006,56.4999,-0.016918
35.022,56.4999,-0.016918
35.037,56.4999,-0.013293
35.057,56.4999,-0.016918
35.070,56.4999,-0.016918
35.086,56.4999,-0.016918
35.102,56.4999,-0.012084
35.119,56.4999,-0.012084
35.134,56.4999,-0.015710
35.150,56.4999,-0.015710
35.166,56.4999,-0.018127
35.185,56.4999,-0.016918
35.199,56.4999,-0.020544
35.214,56.4999,-0.025377
35.230,56.4999,-0.025377
35.246,56.4999,-0.015710
35.262,56.4999,-0.021752
35.278,56.4999,-0.015710
35.294,56.4999,-0.020544
35.315,56.4999,-0.020544
35.328,56.4999,-0.014501
35.342,56.4999,-0.018127
35.358,56.4999,-0.014501
35.375,56.4999,-0.010876
35.390,56.4999,-0.010876
35.408,56.4999,-0.019335
35.423,56.4999,-0.020544
35.438,56.4999,-0.013293
35.454,56.4999,-0.016918
35.470,56.4999,-0.016918
35.488,56.4999,-0.015710
35.502,56.4999,-0.010876
35.518,56.4999,-0.014501
35.533,56.4999,-0.018127
35.551,56.4999,-0.016918
35.566,56.4999,-0.019335
35.586,56.4999,-0.016918
35.598,56.4999,-0.016918
35.614,56.4999,-0.013293
35.630,56.4999,-0.015710
35.647,56.4999,-0.015710
35.662,56.4999,-0.016918
35.679,56.4999,-0.016918
35.693,56.4999,-0.016918
35.709,56.4999,-0.016918
35.725,56.4999,-0.015710
35.741,56.4999,-0.014501
35.758,56.4999,-0.015710
35.774,56.4999,-0.015710
35.795,56.4999,-0.019335
35.812,56.4999,-0.015710
35.827,56.4999,-0.016918
35.843,56.4999,-0.013293
35.860,56.4999,-0.016918
35.876,56.4999,-0.015710
35.892,56.4999,-0.021752
35.907,56.4999,-0.021752
35.924,56.4999,-0.014501
35.940,56.4999,-0.014501
35.955,56.4999,-0.014501
35.972,56.4999,-0.019335
35.988,56.4999,-0.019335
36.003,56.4999,-0.014501
36.019,56.4999,-0.014501
36.037,56.4999,-0.009668
36.052,56.4999,-0.009668
36.068,56.4999,-0.010876
36.083,56.4999,-0.015710
36.105,56.4999,-0.014501
36.116,56.4999,-0.016918
36.131,56.4999,-0.016918
36.147,56.4999,-0.009668
36.165,56.4999,-0.013293
36.179,56.4999,-0.012084
36.198,56.4999,-0.014501
36.211,56.4999,-0.013293
36.228,56.4999,-0.015710
36.244,56.4999,-0.014501
36.259,56.4999,-0.012084
36.276,56.4999,-0.008459
36.292,56.4999,-0.014501
36.308,56.4999,-0.012084
36.323,56.4999,-0.019335
36.346,56.4999,-0.018127
36.362,56.4999,-0.018127
36.377,56.4999,-0.015710
36.393,56.4999,-0.012084
36.415,56.4999,-0.014501
36.426,56.4999,-0.014501
36.442,56.4999,-0.021752
36.457,56.4999,-0.021752
36.473,56.4999,-0.019335
36.489,56.4999,-0.013293
36.505,56.4999,-0.010876
36.525,56.4999,-0.016918
36.539,56.4999,-0.016918
36.554,56.4999,-0.016918
36.570,56.4999,-0.014501
36.585,56.4999,-0.015710
36.602,56.4999,-0.013293
36.617,56.4999,-0.009668
36.635,56.4999,-0.013293
36.649,56.4999,-0.015710
36.666,56.4999,-0.013293
36.682,56.4999,-0.013293
36.698,56.4999,-0.021752
36.714,56.4999,-0.014501
36.730,56.4999,-0.014501
36.745,56.4999,-0.014501
36.761,56.4999,-0.018127
36.778,56.4999,-0.016918
36.793,56.4999,-0.018127
36.810,56.4999,-0.019335
36.825,56.4999,-0.019335
36.842,56.4999,-0.016918
36.857,56.4999,-0.012084
36.873,56.4999,-0.013293
36.889,56.4999,-0.015710
36.905,56.4999,-0.016918
36.921,56.4999,-0.015710
36.937,56.4999,-0.015710
36.953,56.4999,-0.010876
36.974,56.4999,-0.016918
36.989,56.4999,-0.013293
37.001,56.4999,-0.009668
37.017,56.4999,-0.009668
37.033,56.4999,-0.020544
37.050,56.4999,-0.019335
37.065,56.4999,-0.012084
37.081,56.4999,-0.007251
37.097,56.4999,-0.014501
37.115,56.4999,-0.015710
37.131,56.4999,-0.015710
37.145,56.4999,-0.021752
37.161,56.4999,-0.019335
37.177,56.4999,-0.014501
37.193,56.4999,-0.015710
37.211,56.4999,-0.019335
37.225,56.4999,-0.022961
37.241,56.4999,-0.024169
37.257,56.4999,-0.020544
37.273,56.4999,-0.020544
37.289,56.4999,-0.018127
37.305,56.4999,-0.012084
37.321,56.4999,-0.018127
37.338,56.4999,-0.018127
37.353,56.4999,-0.016918
37.369,56.4999,-0.016918
37.385,56.4999,-0.012084
37.401,56.4999,-0.015710
37.417,56.4999,-0.015710
37.433,56.4999,-0.015710
37.461,56.4999,-0.016918
37.477,56.4999,-0.016918
37.493,56.4999,-0.012084
37.509,56.4999,-0.012084
37.525,56.4999,-0.015710
37.542,56.4999,-0.015710
37.557,56.4999,-0.019335
37.573,56.4999,-0.014501
37.590,56.4999,-0.016918
37.605,56.4999,-0.020544
37.622,56.4999,-0.015710
37.637,56.4999,-0.010876
37.653,56.4999,-0.015710
37.670,56.4999,-0.016918
37.685,56.4999,-0.014501
37.701,56.4999,-0.012084
37.718,56.4999,-0.010876
37.735,56.4999,-0.016918
37.750,56.4999,-0.019335
37.765,56.4999,-0.013293
37.781,56.4999,-0.010876
37.796,56.4999,-0.016918
37.814,56.4999,-0.020544
37.829,56.4999,-0.015710
37.844,56.4999,-0.014501
37.861,56.4999,-0.014501
37.877,56.4999,-0.014501
37.893,56.4999,-0.016918
37.909,56.4999,-0.016918
37.925,56.4999,-0.015710
37.941,56.4999,-0.012084
37.957,56.4999,-0.013293
37.974,56.4999,-0.019335
37.998,56.4999,-0.019335
38.015,56.4999,-0.007251
38.030,56.4999,-0.010876
38.046,56.4999,-0.012084
38.065,56.4999,-0.015710
38.078,56.4999,-0.013293
38.094,56.4999,-0.015710
38.111,56.4999,-0.014501
38.126,56.4999,-0.013293
38.142,56.4999,-0.018127
38.158,56.4999,-0.016918
38.174,56.4999,-0.020544
38.190,56.4999,-0.018127
38.207,56.4999,-0.018127
38.223,56.4999,-0.012084
38.238,56.4999,-0.015710
38.255,56.4999,-0.014501
38.271,56.4999,-0.008459
38.287,56.4999,-0.013293
38.302,56.4999,-0.022961
38.319,56.4999,-0.022961
38.335,56.4999,-0.016918
38.350,56.4999,-0.016918
38.367,56.4999,-0.016918
38.382,56.4999,-0.014501
38.399,56.4999,-0.009668
38.414,56.4999,-0.019335
38.431,56.4999,-0.009668
38.447,56.4999,-0.016918
38.462,56.4999,-0.013293
38.478,56.4999,-0.016918
38.496,56.4999,-0.014501
38.511,56.4999,-0.015710
38.526,56.4999,-0.016918
38.542,56.4999,-0.014501
38.564,56.4999,-0.016918
38.580,56.4999,-0.015710
38.597,56.4999,-0.016918
38.612,56.4999,-0.019335
38.628,56.4999,-0.019335
38.644,56.4999,-0.012084
38.660,56.4999,-0.010876
38.677,56.4999,-0.012084
38.693,56.4999,-0.015710
38.708,56.4999,-0.015710
38.724,56.4999,-0.016918
38.740,56.4541,-0.016918
38.757,56.3405,0.025377
38.772,56.2291,0.008459
38.788,56.1128,0.022961
38.805,55.9905,0.032628
38.821,55.8755,0.044713
38.838,55.7483,0.050755
38.853,55.6449,0.062839
38.870,55.5242,0.077341
38.884,55.4178,0.091842
38.900,55.3035,0.112386
38.918,55.1770,0.117219
38.933,55.0636,0.128095
38.948,54.9535,0.142597
38.964,54.8408,0.160724
38.980,54.7200,0.159515
38.996,54.6043,0.166766
39.012,54.4944,0.164349
39.032,54.3519,0.169183
39.044,54.2630,0.158307
39.060,54.1452,0.154681
39.077,54.0251,0.106343
39.099,53.8609,0.020544
39.115,53.7510,0.004834
39.130,53.6396,0.004834
39.146,53.5254,0.006042
39.164,53.3946,0.002417
39.178,53.2947,0.008459
39.194,53.1754,0.012084
39.210,53.0626,0.006042
39.229,52.9253,0.009668
39.242,52.8290,0.002417
39.258,52.7155,0.003625
39.274,52.5991,0.004834
39.290,52.4762,0.003625
39.306,52.3612,0.002417
39.322,52.2498,0.003625
39.338,52.1370,0.002417
39.354,52.0177,0.008459
39.370,51.8998,0.008459
39.386,51.7906,0.000000
39.402,51.6749,0.000000
39.418,51.5527,0.001208
39.434,51.4421,0.002417
39.450,51.3271,-0.001208
39.468,51.1955,-0.001208
39.482,51.0928,-0.001208
39.498,50.9743,-0.001208
39.514,50.8621,0.004834
39.531,50.7428,-0.002417
39.546,50.6292,0.007251
39.562,50.5136,0.000000
39.579,50.4499,-0.027794
39.594,50.4499,-0.083383
39.613,50.4499,0.003625
39.637,50.4499,0.014501
39.653,50.4499,-0.004834
39.669,50.4499,-0.006042
39.685,50.4499,0.003625
39.702,50.4499,0.007251
39.717,50.4499,0.002417
39.733,50.4499,0.008459
39.749,50.4499,0.002417
39.766,50.4499,0.001208
39.782,50.4499,0.009668
39.799,50.4499,0.009668
39.813,50.4499,0.000000
39.829,50.4499,0.000000
39.845,50.4499,-0.006042
39.861,50.4499,-0.001208
39.876,50.4499,-0.001208
39.893,50.4499,0.004834
39.909,50.4499,0.004834
39.925,50.4499,-0.002417
39.940,50.4499,-0.002417
39.957,50.4499,-0.002417
39.973,50.4499,-0.002417
39.988,50.4499,-0.002417
40.005,50.5181,-0.083383
40.021,50.6331,0.013293
40.039,50.7618,0.013293
40.053,50.8673,-0.001208
40.069,50.9831,0.000000
40.085,51.0973,-0.006042
40.101,51.2073,-0.001208
40.118,51.3323,-0.007251
40.132,51.4393,0.001208
40.149,51.5573,0.000000
40.177,51.7612,0.000000
40.192,51.8726,-0.003625
40.208,51.9875,0.006042
40.224,52.1025,0.003625
40.241,52.2225,0.000000
40.257,52.3383,-0.008459
40.273,52.4525,0.002417
40.290,52.5769,0.006042
40.305,52.6883,-0.003625
40.320,52.7989,-0.008459
40.337,52.9167,0.004834
40.353,53.0345,0.002417
40.368,53.1431,0.002417
40.384,53.2603,-0.002417
40.400,53.3745,-0.009668
40.416,53.4923,-0.006042
40.432,53.6080,-0.003625
40.448,53.7215,-0.006042
40.473,53.9067,-0.006042
40.495,54.0578,-0.004834
40.512,54.1902,-0.004834
40.529,54.3065,0.000000
40.545,54.4186,0.002417
40.560,54.5315,0.000000
40.576,54.6515,-0.002417
40.593,54.7773,-0.008459
40.611,54.9075,-0.012084
40.625,54.9986,-0.014501
40.642,55.1201,-0.012084
40.657,55.2285,-0.012084
40.673,55.3493,-0.008459
40.699,55.5388,-0.015710
40.714,55.6429,-0.015710
40.730,55.7608,-0.022961
40.746,55.8758,-0.022961
40.764,56.0051,-0.024169
40.778,56.1057,-0.025377
40.794,56.2222,-0.026586
40.810,56.3378,-0.033837
40.827,56.4477,-0.038670
40.842,56.4499,0.026586
40.859,56.4499,-0.021752
40.874,56.4499,-0.047129
40.891,56.4499,-0.047129
40.907,56.4499,-0.044713
40.923,56.4499,-0.044713
40.938,56.4499,-0.044713
40.954,56.4499,-0.043504
40.970,56.4499,-0.037462
40.986,56.4499,-0.042296
41.002,56.4499,-0.044713
41.018,56.4499,-0.041087
41.035,56.4499,-0.035045
