Elapsed Time (s),Position (mm),Force (N)
-0.010,68.1515,-0.195144
0.098,68.1515,-0.195144
0.207,68.1515,-0.195144
0.316,68.1515,-0.190355
0.424,68.1515,-0.190355
0.534,68.1515,-0.186811
0.643,68.1515,-0.186811
0.753,68.1515,-0.183899
0.861,68.1515,-0.183899
0.970,68.1515,-0.181562
1.080,68.1515,-0.181562
1.190,68.1515,-0.181562
1.300,68.1515,-0.179592
1.409,68.1515,-0.179592
1.516,68.1515,-0.177820
1.625,68.1515,-0.177820
1.737,68.1515,-0.177820
1.846,68.1515,-0.176283
1.957,68.1515,-0.176283
2.065,68.1515,-0.174917
2.176,68.1515,-0.174917
2.285,68.1515,-0.173625
2.394,68.1515,-0.173625
2.504,68.1515,-0.172438
2.615,68.1515,-0.172438
2.725,68.1515,-0.171401
2.833,68.1515,-0.171401
2.942,68.1515,-0.171401
3.051,68.1515,-0.170449
3.162,68.1515,-0.170449
3.270,68.1515,-0.169459
3.377,68.1515,-0.169459
3.487,68.1515,-0.166801
3.597,68.1515,-0.166801
3.706,68.1515,-0.166801
3.816,68.1515,-0.161495
3.925,68.1515,-0.161495
4.034,68.1484,-0.157517
4.144,68.1364,-0.157517
4.253,68.1162,-0.153860
4.364,68.0941,-0.153860
4.473,68.0721,-0.134453
4.584,68.0498,-0.134453
4.693,68.0281,-0.134453
4.803,68.0061,-0.103547
4.911,67.9844,-0.103547
5.020,67.9627,-0.078476
5.130,67.9408,-0.078476
5.239,67.9190,-0.059248
5.348,67.8970,-0.059248
5.458,67.8752,-0.043300
5.565,67.8537,-0.043300
5.674,67.8319,-0.043300
5.784,67.8099,-0.029511
5.895,67.7879,-0.029511
6.002,67.7664,-0.017117
6.111,67.7446,-0.017117
6.220,67.7226,-0.005674
6.331,67.7005,-0.005674
6.439,67.6788,-0.005674
6.548,67.6571,0.004684
6.659,67.6349,0.004684
6.768,67.6131,0.014713
6.876,67.5915,0.014713
6.986,67.5696,0.024779
7.094,67.5479,0.024779
7.204,67.5260,0.024779
7.313,67.5040,0.034761
7.422,67.4824,0.034761
7.531,67.4604,0.044903
7.641,67.4386,0.044903
7.751,67.4163,0.055431
7.861,67.3946,0.055431
7.967,67.3733,0.066364
8.077,67.3513,0.066364
8.187,67.3293,0.066364
8.295,67.3076,0.077741
8.405,67.2858,0.077741
8.515,67.2636,0.090041
8.623,67.2423,0.090041
8.732,67.2202,0.103689
8.840,67.1988,0.103689
8.950,67.1767,0.118694
9.058,67.1551,0.118694
9.167,67.1333,0.118694
9.275,67.1117,0.118694
9.385,67.0899,0.135566
9.495,67.0678,0.154586
9.604,67.0460,0.154586
9.712,67.0242,0.175859
9.822,67.0022,0.175859
9.932,66.9803,0.175859
10.041,66.9585,0.199894
10.150,66.9368,0.199894
10.259,66.9150,0.227049
10.369,66.8929,0.227049
10.479,66.8711,0.257785
10.586,66.8495,0.257785
10.696,66.8275,0.257785
10.804,66.8058,0.292678
10.913,66.7841,0.292678
11.022,66.7623,0.332340
11.132,66.7404,0.332340
11.242,66.7184,0.376969
11.351,66.6965,0.376969
11.459,66.6749,0.376969
11.568,66.6532,0.426990
11.677,66.6313,0.426990
11.787,66.6094,0.483165
11.897,66.5874,0.483165
12.004,66.5660,0.546541
12.114,66.5439,0.546541
12.224,66.5221,0.617939
12.333,66.5001,0.617939
12.442,66.4783,0.617939
12.550,66.4568,0.697480
12.660,66.4346,0.697480
12.769,66.4131,0.784523
12.878,66.3911,0.784523
12.987,66.3694,0.868419
13.095,66.3477,0.868419
13.205,66.3256,0.931776
13.315,66.3037,0.931776
13.425,66.2817,0.931776
13.535,66.2598,0.975001
13.645,66.2376,0.975001
13.754,66.2160,1.015399
13.863,66.1942,1.015399
13.973,66.1722,1.060273
14.084,66.1499,1.060273
14.195,66.1277,1.060273
14.306,66.1056,1.096957
14.415,66.0839,1.096957
14.525,66.0617,1.003815
14.633,66.0402,1.003815
14.742,66.0183,0.713597
14.851,65.9966,0.713597
14.959,65.9750,0.713597
15.069,65.9528,0.295873
15.178,65.9312,0.295873
15.288,65.9090,0.041104
15.398,65.8871,0.041104
15.507,65.8653,0.017135
15.615,65.8437,0.017135
15.725,65.8218,0.013054
15.833,65.8001,0.013054
15.942,65.7783,0.013054
16.051,65.7566,0.012338
16.160,65.7349,0.012338
16.266,65.7136,0.012027
16.375,65.6919,0.012027
16.484,65.6698,0.011819
16.594,65.6480,0.011819
16.703,65.6263,0.011819
16.813,65.6043,0.011612
16.923,65.5820,0.011612
17.034,65.5600,0.011461
17.142,65.5382,0.011461
17.252,65.5164,0.011348
17.361,65.4945,0.011348
17.471,65.4727,0.011254
17.578,65.4511,0.011254
17.687,65.4294,0.011254
17.795,65.4079,0.011235
17.905,65.3858,0.011235
18.013,65.3642,0.011179
18.122,65.3424,0.011179
18.232,65.3203,0.011131
18.342,65.2985,0.011131
18.451,65.2766,0.011131
18.561,65.2547,0.011103
18.670,65.2326,0.011103
18.777,65.2114,0.011084
18.886,65.1897,0.011084
18.996,65.1676,0.011037
19.105,65.1459,0.011037
19.215,65.1240,0.011028
19.325,65.1082,0.011028
19.433,65.1018,0.011028
19.541,65.1015,0.010849
19.650,65.1015,0.010849
19.760,65.1015,0.010566
19.870,65.1015,0.010566
19.979,65.1015,0.010500
20.087,65.1041,0.010500
20.196,65.1153,0.010500
20.305,65.1351,0.010340
20.414,65.1570,0.010340
20.524,65.1789,0.010038
20.632,65.2007,0.010038
20.742,65.2224,0.009765
20.851,65.2443,0.009765
20.960,65.2661,0.009765
21.070,65.2880,0.009567
21.178,65.3096,0.009567
21.288,65.3316,0.009463
21.397,65.3535,0.009463
21.505,65.3750,0.009331
21.613,65.3967,0.009331
21.723,65.4188,0.009199
21.832,65.4405,0.009199
21.940,65.4621,0.009199
22.050,65.4840,0.009086
22.158,65.5057,0.009086
22.267,65.5274,0.009030
22.374,65.5487,0.009030
22.483,65.5708,0.008907
22.592,65.5924,0.008907
22.701,65.6142,0.008907
22.811,65.6363,0.008737
22.920,65.6580,0.008737
23.030,65.6801,0.008643
23.139,65.7019,0.008643
23.250,65.7241,0.008558
23.361,65.7462,0.008558
23.470,65.7680,0.008407
23.581,65.7901,0.008407
23.688,65.8117,0.008407
23.798,65.8336,0.008228
23.908,65.8558,0.008228
24.017,65.8775,0.008115
24.125,65.8991,0.008115
24.236,65.9213,0.007927
24.344,65.9429,0.007927
24.452,65.9646,0.007927
24.561,65.9863,0.007738
24.671,66.0081,0.007738
24.779,66.0298,0.007644
24.888,66.0518,0.007644
24.997,66.0734,0.007503
25.105,66.0951,0.007503
25.216,66.1173,0.007239
25.327,66.1395,0.007239
25.435,66.1612,0.007239
25.545,66.1831,0.006956
25.654,66.2047,0.006956
25.763,66.2268,0.006720
25.872,66.2485,0.006720
25.981,66.2704,0.006485
26.092,66.2924,0.006485
26.199,66.3138,0.006485
26.306,66.3353,0.006183
26.414,66.3568,0.006183
26.524,66.3787,0.005787
26.632,66.4004,0.005787
26.741,66.4224,0.005382
26.850,66.4439,0.005382
26.958,66.4656,0.004929
27.068,66.4876,0.004929
27.178,66.5097,0.004929
27.288,66.5316,0.004439
27.396,66.5532,0.004439
27.505,66.5750,0.003883
27.613,66.5966,0.003883
27.723,66.6187,0.003233
27.832,66.6404,0.003233
27.940,66.6620,0.003233
28.050,66.6841,0.002441
28.161,66.7061,0.002441
28.270,66.7281,0.001423
28.378,66.7497,0.001423
28.486,66.7712,0.000273
28.595,66.7931,0.000273
28.705,66.8150,-0.001084
28.815,66.8371,-0.001084
28.925,66.8591,-0.001084
29.033,66.8806,-0.002762
29.143,66.9026,-0.002762
29.253,66.9245,-0.004713
29.362,66.9465,-0.004713
29.472,66.9683,-0.006937
29.582,66.9904,-0.006937
29.692,67.0123,-0.006937
29.800,67.0339,-0.009482
29.911,67.0562,-0.009482
30.021,67.0781,-0.012479
30.131,67.1003,-0.012479
30.239,67.1217,-0.016023
30.348,67.1437,-0.016023
30.456,67.1653,-0.016023
30.566,67.1872,-0.019878
30.677,67.2094,-0.019878
30.788,67.2317,-0.023922
30.897,67.2533,-0.023922
31.007,67.2754,-0.028201
31.115,67.2970,-0.028201
31.224,67.3188,-0.028201
31.333,67.3406,-0.032546
31.442,67.3622,-0.032546
31.550,67.3842,-0.036948
31.659,67.4059,-0.036948
31.768,67.4276,-0.041509
31.877,67.4495,-0.041509
31.986,67.4712,-0.046194
32.096,67.4932,-0.046194
32.206,67.5151,-0.051095
32.316,67.5373,-0.051095
32.426,67.5592,-0.051095
32.536,67.5811,-0.056317
32.645,67.6031,-0.056317
32.754,67.6248,-0.061868
32.862,67.6464,-0.061868
32.970,67.6679,-0.068033
33.080,67.6899,-0.068033
33.189,67.7118,-0.068033
33.297,67.7333,-0.074913
33.408,67.7555,-0.074913
33.517,67.7774,-0.074913
33.625,67.7990,-0.082821
33.734,67.8209,-0.091879
33.843,67.8427,-0.091879
33.952,67.8643,-0.091879
34.061,67.8862,-0.102209
34.170,67.9079,-0.102209
34.277,67.9296,-0.114283
34.388,67.9516,-0.114283
34.498,67.9735,-0.128440
34.606,67.9952,-0.128440
34.718,68.0176,-0.128440
34.827,68.0395,-0.145311
34.937,68.0613,-0.145311
35.045,68.0824,-0.165246
35.154,68.0966,-0.165246
35.263,68.1015,-0.186981
35.372,68.1015,-0.186981
35.481,68.1015,-0.198094
35.592,68.1015,-0.198094
35.700,68.1015,-0.198094
35.809,68.1015,-0.195511
35.920,68.1015,-0.195511
36.030,68.1015,-0.190808
36.139,68.1015,-0.190808
36.247,68.1015,-0.187339
36.355,68.1015,-0.187339
36.465,68.1015,-0.184559
36.576,68.1015,-0.184559
36.686,68.1015,-0.184559
36.797,68.1015,-0.182250
36.906,68.1015,-0.182250
37.016,68.1015,-0.180289
37.126,68.1015,-0.180289
37.236,68.1015,-0.178517
37.345,68.1015,-0.178517
37.456,68.1015,-0.178517
37.567,68.1015,-0.176943
37.675,68.1015,-0.176943
37.784,68.1015,-0.175548
37.895,68.1015,-0.175548
38.003,68.1015,-0.174304
38.111,68.1015,-0.174304
38.221,68.1015,-0.173126
38.329,68.1015,-0.173126
38.437,68.1015,-0.173126
38.546,68.1015,-0.172061
38.657,68.1015,-0.172061
38.766,68.1015,-0.171080
38.874,68.1015,-0.171080
38.983,68.1015,-0.169997
39.093,68.1015,-0.169997
39.201,68.1015,-0.169997
39.312,68.1015,-0.167386
39.420,68.1015,-0.167386
39.529,68.1015,-0.162117
39.639,68.1015,-0.162117
39.748,68.1015,-0.158083
39.859,68.0967,-0.158083
39.967,68.0830,-0.158083
40.078,68.0616,-0.156188
40.187,68.0398,-0.156188
40.295,68.0179,-0.140457
40.404,67.9963,-0.140457
40.514,67.9743,-0.110296
40.624,67.9523,-0.110296
40.732,67.9306,-0.083471
40.841,67.9090,-0.083471
40.950,67.8872,-0.083471
41.058,67.8654,-0.063103
41.169,67.8434,-0.063103
41.279,67.8212,-0.046609
41.389,67.7995,-0.046609
41.500,67.7772,-0.032461
41.608,67.7555,-0.032461
41.716,67.7339,-0.019633
41.823,67.7126,-0.019633
41.934,67.6904,-0.019633
42.041,67.6688,-0.007974
42.151,67.6470,-0.007974
42.259,67.6253,0.002639
42.370,67.6031,0.002639
42.479,67.5815,0.012696
42.587,67.5597,0.012696
42.696,67.5381,0.012696
42.805,67.5161,0.022706
42.915,67.4943,0.022706
43.025,67.4723,0.032659
43.134,67.4504,0.032659
43.243,67.4286,0.042669
43.354,67.4064,0.042669
43.462,67.3849,0.053093
43.570,67.3632,0.053093
43.680,67.3413,0.053093
43.790,67.3191,0.063895
43.900,67.2972,0.063895
44.008,67.2758,0.075177
44.115,67.2541,0.075177
44.225,67.2322,0.087364
44.333,67.2105,0.087364
44.442,67.1887,0.087364
44.552,67.1669,0.100673
44.661,67.1449,0.100673
44.770,67.1232,0.115301
44.878,67.1016,0.115301
44.987,67.0799,0.131711
45.095,67.0582,0.131711
45.204,67.0365,0.131711
45.312,67.0148,0.150052
45.422,66.9929,0.150052
45.532,66.9709,0.170242
45.642,66.9488,0.170242
45.752,66.9268,0.192599
45.862,66.9049,0.192599
45.971,66.8831,0.217699
46.080,66.8613,0.217699
46.188,66.8396,0.217699
46.299,66.8174,0.246220
46.408,66.7957,0.246220
46.517,66.7738,0.278671
46.626,66.7519,0.278671
46.735,66.7302,0.315515
46.844,66.7084,0.315515
46.952,66.6869,0.315515
47.060,66.6652,0.356874
47.170,66.6434,0.356874
47.279,66.6215,0.403115
47.388,66.5996,0.403115
47.499,66.5775,0.455040
47.608,66.5557,0.455040
47.716,66.5340,0.509952
47.825,66.5122,0.509952
47.933,66.4907,0.509952
48.042,66.4687,0.563196
48.153,66.4465,0.563196
48.263,66.4245,0.614536
48.372,66.4029,0.614536
48.480,66.3813,0.668016
48.587,66.3597,0.668016
48.697,66.3379,0.668016
48.805,66.3161,0.718527
48.912,66.2949,0.718527
49.022,66.2729,0.718527
49.130,66.2511,0.766266
49.240,66.2294,0.813111
49.349,66.2073,0.813111
49.460,66.1854,0.818398
49.568,66.1637,0.818398
49.676,66.1421,0.818398
49.783,66.1206,0.677300
49.892,66.0989,0.677300
50.001,66.0771,0.477840
50.110,66.0551,0.477840
50.219,66.0336,0.244683
50.329,66.0115,0.244683
50.437,65.9899,0.244683
50.548,65.9677,0.055836
50.656,65.9461,0.055836
50.764,65.9245,0.020340
50.874,65.9026,0.020340
50.982,65.8809,0.014355
51.090,65.8592,0.014355
51.199,65.8376,0.014355
51.308,65.8156,0.013092
51.418,65.7936,0.013092
51.525,65.7722,0.012470
51.634,65.7503,0.012470
51.744,65.7285,0.012470
51.853,65.7066,0.012055
51.962,65.6848,0.011753
52.071,65.6631,0.011753
52.180,65.6413,0.011753
52.289,65.6196,0.011537
52.399,65.5976,0.011537
52.509,65.5754,0.011386
52.615,65.5543,0.011386
52.724,65.5322,0.011245
52.833,65.5107,0.011245
52.945,65.4882,0.011245
53.054,65.4664,0.011235
53.163,65.4447,0.011235
53.273,65.4227,0.011207
53.381,65.4010,0.011207
53.491,65.3791,0.011094
53.602,65.3569,0.011094
53.710,65.3352,0.011094
53.819,65.3132,0.011065
53.929,65.2915,0.011065
54.039,65.2696,0.011037
54.146,65.2481,0.011037
54.254,65.2263,0.011009
54.363,65.2046,0.011009
54.472,65.1829,0.011018
54.581,65.1612,0.011018
54.690,65.1392,0.011018
54.799,65.1176,0.011028
54.908,65.0956,0.011028
55.017,65.0741,0.010971
55.127,65.0582,0.010971
55.236,65.0518,0.010820
55.344,65.0515,0.010820
55.454,65.0515,0.010820
55.563,65.0515,0.010632
55.672,65.0515,0.010632
55.781,65.0560,0.010481
55.890,65.0695,0.010481
55.999,65.0907,0.010208
56.110,65.1129,0.010208
56.218,65.1344,0.009887
56.326,65.1560,0.009887
56.436,65.1780,0.009887
56.545,65.2000,0.009699
56.655,65.2217,0.009699
56.763,65.2433,0.009567
56.872,65.2653,0.009567
56.982,65.2872,0.009444
57.092,65.3093,0.009444
57.201,65.3310,0.009444
57.311,65.3530,0.009284
57.419,65.3745,0.009284
57.527,65.3961,0.009152
57.635,65.4178,0.009152
57.746,65.4400,0.009152
57.854,65.4616,0.009039
57.963,65.4834,0.008935
58.072,65.5052,0.008935
58.180,65.5267,0.008935
58.289,65.5486,0.008813
58.398,65.5704,0.008813
58.506,65.5920,0.008737
58.614,65.6136,0.008737
58.723,65.6352,0.008605
58.833,65.6575,0.008605
58.943,65.6793,0.008605
59.052,65.7012,0.008455
59.161,65.7231,0.008455
59.270,65.7447,0.008351
59.380,65.7668,0.008351
59.489,65.7885,0.008247
59.597,65.8103,0.008247
59.707,65.8320,0.008247
59.816,65.8540,0.008049
59.923,65.8755,0.008049
60.032,65.8971,0.007880
60.141,65.9190,0.007880
60.251,65.9409,0.007767
60.359,65.9625,0.007767
60.468,65.9846,0.007559
60.577,66.0063,0.007559
60.688,66.0286,0.007559
60.796,66.0498,0.007352
60.904,66.0715,0.007352
61.013,66.0935,0.007144
61.122,66.1150,0.007144
61.231,66.1370,0.007144
61.340,66.1587,0.006899
61.450,66.1806,0.006899
61.561,66.2030,0.006683
61.669,66.2244,0.006683
61.780,66.2467,0.006409
61.889,66.2685,0.006409
61.996,66.2898,0.006108
62.105,66.3117,0.006108
62.215,66.3338,0.005787
62.327,66.3563,0.005787
62.436,66.3780,0.005787
62.545,66.3998,0.005363
62.654,66.4215,0.005363
62.764,66.4434,0.004882
62.874,66.4654,0.004882
62.984,66.4876,0.004326
63.093,66.5093,0.004326
63.202,66.5310,0.004326
63.311,66.5528,0.003685
63.420,66.5747,0.003685
63.530,66.5969,0.002941
63.638,66.6182,0.002941
63.747,66.6400,0.002064
63.856,66.6620,0.002064
63.963,66.6833,0.002064
64.072,66.7050,0.001037
64.182,66.7271,0.001037
64.293,66.7494,-0.000141
64.401,66.7710,-0.000141
64.510,66.7926,-0.001546
64.619,66.8147,-0.001546
64.728,66.8362,-0.003337
64.837,66.8581,-0.003337
64.946,66.8799,-0.003337
65.056,66.9020,-0.005401
65.166,66.9240,-0.005401
65.276,66.9457,-0.007719
65.385,66.9677,-0.007719
65.495,66.9898,-0.010443
65.606,67.0120,-0.010443
65.717,67.0340,-0.010443
65.824,67.0554,-0.013686
65.933,67.0773,-0.013686
66.044,67.0994,-0.017230
66.150,67.1207,-0.017230
66.258,67.1423,-0.021047
66.368,67.1643,-0.021047
66.476,67.1860,-0.025232
66.584,67.2076,-0.025232
66.696,67.2299,-0.025232
66.805,67.2516,-0.029539
66.912,67.2732,-0.029539
67.021,67.2947,-0.033894
67.130,67.3166,-0.033894
67.240,67.3388,-0.038352
67.348,67.3604,-0.038352
67.457,67.3822,-0.042933
67.567,67.4040,-0.042933
67.675,67.4257,-0.042933
67.784,67.4475,-0.047655
67.895,67.4695,-0.047655
68.001,67.4910,-0.052669
68.111,67.5128,-0.052669
68.220,67.5346,-0.052669
68.328,67.5564,-0.058051
68.436,67.5779,-0.058051
68.545,67.5998,-0.063753
68.655,67.6217,-0.063753
68.764,67.6436,-0.070125
68.874,67.6655,-0.070125
68.983,67.6873,-0.077317
69.094,67.7094,-0.077317
69.202,67.7311,-0.077317
69.312,67.7533,-0.085507
69.421,67.7748,-0.085507
69.529,67.7964,-0.094914
69.638,67.8185,-0.094914
69.747,67.8401,-0.105810
69.857,67.8622,-0.105810
69.968,67.8842,-0.118638
70.077,67.9061,-0.118638
70.187,67.9280,-0.118638
70.295,67.9496,-0.133756
70.403,67.9713,-0.133756
70.512,67.9930,-0.151570
70.622,68.0151,-0.151570
70.732,68.0357,-0.151570
70.841,68.0481,-0.172551
70.948,68.0515,-0.172551
71.058,68.0515,-0.192382
71.166,68.0515,-0.192382
71.277,68.0515,-0.198621
71.386,68.0515,-0.198621
71.495,68.0515,-0.194003
71.606,68.0515,-0.194003
71.716,68.0515,-0.189828
71.825,68.0515,-0.189828
71.935,68.0515,-0.189828
72.043,68.0515,-0.186604
72.152,68.0515,-0.186604
72.262,68.0515,-0.183984
72.370,68.0515,-0.183984
72.480,68.0515,-0.181825
72.589,68.0515,-0.181825
72.700,68.0515,-0.181825
72.808,68.0515,-0.179997
72.918,68.0515,-0.179997
73.027,68.0515,-0.178291
73.136,68.0515,-0.178291
73.245,68.0515,-0.176745
73.354,68.0515,-0.176745
73.464,68.0515,-0.176745
73.572,68.0515,-0.175454
73.681,68.0515,-0.175454
73.791,68.0515,-0.174219
73.901,68.0515,-0.174219
74.008,68.0515,-0.173088
74.118,68.0515,-0.173088
74.227,68.0515,-0.172098
74.337,68.0515,-0.172098
74.447,68.0515,-0.172098
74.558,68.0515,-0.171146
74.668,68.0515,-0.171146
74.779,68.0515,-0.170317
74.889,68.0515,-0.170317
74.999,68.0515,-0.168366
75.107,68.0515,-0.168366
75.216,68.0515,-0.163239
75.326,68.0515,-0.163239
75.435,68.0515,-0.163239
75.544,68.0508,-0.158667
75.652,68.0427,-0.158667
75.762,68.0251,-0.156603
75.871,68.0035,-0.156603
75.980,67.9816,-0.140957
76.090,67.9598,-0.140957
76.198,67.9382,-0.140957
76.309,67.9159,-0.110786
76.418,67.8942,-0.110786
76.527,67.8722,-0.083792
76.635,67.8506,-0.083792
76.744,67.8289,-0.063254
76.853,67.8071,-0.063254
76.961,67.7854,-0.046618
77.070,67.7637,-0.046618
77.178,67.7420,-0.046618
77.288,67.7201,-0.032348
77.395,67.6987,-0.032348
77.505,67.6765,-0.019680
77.614,67.6548,-0.019680
77.723,67.6332,-0.008200
77.832,67.6111,-0.008200
77.942,67.5893,-0.008200
78.052,67.5671,0.002460
78.161,67.5455,0.002460
78.270,67.5236,0.012536
78.379,67.5020,0.012536
78.489,67.4800,0.022640
78.597,67.4581,0.022640
78.706,67.4364,0.032678
78.817,67.4143,0.032678
78.924,67.3928,0.032678
79.033,67.3710,0.042659
79.144,67.3489,0.042659
79.252,67.3274,0.053018
79.361,67.3054,0.053018
79.471,67.2835,0.063923
79.580,67.2616,0.063923
79.688,67.2399,0.063923
79.798,67.2181,0.075281
79.908,67.1960,0.075281
80.018,67.1742,0.087270
80.128,67.1521,0.087270
80.238,67.1300,0.100550
80.348,67.1081,0.100550
80.457,67.0861,0.100550
80.566,67.0646,0.115178
80.674,67.0427,0.115178
80.784,67.0209,0.131475
80.894,66.9987,0.131475
81.006,66.9766,0.149770
81.116,66.9545,0.149770
81.227,66.9323,0.170110
81.337,66.9101,0.170110
81.448,66.8881,0.170110
81.557,66.8662,0.192995
81.667,66.8442,0.192995
81.778,66.8222,0.219018
81.886,66.8006,0.219018
81.996,66.7787,0.248472
82.105,66.7566,0.248472
82.216,66.7344,0.281867
82.324,66.7130,0.281867
82.432,66.6911,0.281867
82.541,66.6695,0.319568
82.650,66.6477,0.319568
82.758,66.6259,0.361973
82.868,66.6042,0.361973
82.976,66.5825,0.409816
83.087,66.5603,0.409816
83.195,66.5387,0.409816
83.306,66.5164,0.463287
83.416,66.4944,0.463287
83.525,66.4727,0.523006
83.633,66.4511,0.523006
83.743,66.4292,0.589163
83.853,66.4070,0.589163
83.962,66.3853,0.589163
84.071,66.3636,0.661145
84.180,66.3416,0.661145
84.288,66.3200,0.733023
84.399,66.2980,0.733023
84.508,66.2761,0.796522
84.617,66.2544,0.796522
84.726,66.2324,0.845666
84.837,66.2104,0.845666
84.946,66.1886,0.845666
85.055,66.1669,0.882170
85.162,66.1453,0.882170
85.271,66.1235,0.914028
85.380,66.1016,0.914028
85.490,66.0798,0.911983
85.598,66.0582,0.911983
85.707,66.0364,0.911983
85.817,66.0145,0.735511
85.925,65.9926,0.735511
86.035,65.9707,0.454936
86.144,65.9487,0.454936
86.255,65.9269,0.190638
86.364,65.9047,0.190638
86.472,65.8832,0.033573
86.582,65.8613,0.033573
86.692,65.8393,0.033573
86.800,65.8177,0.016636
86.908,65.7960,0.016636
87.017,65.7745,0.013488
87.127,65.7525,0.013488
87.237,65.7304,0.012658
87.345,65.7086,0.012658
87.454,65.6869,0.012658
87.564,65.6648,0.012225
87.673,65.6431,0.012225
87.782,65.6213,0.011980
87.891,65.5995,0.011980
88.000,65.5778,0.011753
88.108,65.5559,0.011753
88.218,65.5341,0.011537
88.330,65.5117,0.011537
88.438,65.4902,0.011537
88.550,65.4679,0.011461
88.659,65.4461,0.011461
88.766,65.4245,0.011376
88.874,65.4029,0.011376
88.982,65.3812,0.011376
89.092,65.3594,0.011263
89.200,65.3378,0.011263
89.310,65.3158,0.011188
89.418,65.2939,0.011188
89.528,65.2720,0.011160
89.640,65.2498,0.011160
89.750,65.2276,0.011141
89.860,65.2058,0.011141
89.970,65.1837,0.011141
90.079,65.1619,0.011141
90.189,65.1401,0.011141
90.298,65.1180,0.011150
90.409,65.0961,0.011150
90.518,65.0740,0.011150
90.630,65.0518,0.011150
90.738,65.0302,0.011150
90.849,65.0117,0.011150
90.957,65.0028,0.011018
91.067,65.0016,0.011018
91.177,65.0016,0.011018
91.285,65.0016,0.010745
91.394,65.0016,0.010745
91.502,65.0016,0.010575
91.611,65.0016,0.010575
91.720,65.0047,0.010500
91.830,65.0166,0.010500
91.939,65.0368,0.010500
92.047,65.0585,0.010198
92.156,65.0801,0.010198
92.266,65.1024,0.009868
92.375,65.1240,0.009868
92.484,65.1459,0.009727
92.593,65.1677,0.009727
92.703,65.1896,0.009727
92.814,65.2118,0.009595
92.922,65.2334,0.009595
93.031,65.2552,0.009501
93.140,65.2770,0.009501
93.249,65.2988,0.009331
93.358,65.3205,0.009331
93.466,65.3422,0.009209
93.576,65.3643,0.009209
93.687,65.3864,0.009209
93.799,65.4088,0.009190
93.908,65.4305,0.009190
94.016,65.4523,0.009048
94.125,65.4741,0.009048
94.235,65.4959,0.008869
94.344,65.5180,0.008869
94.455,65.5399,0.008794
94.564,65.5619,0.008794
94.674,65.5838,0.008794
94.782,65.6053,0.008728
94.891,65.6272,0.008728
95.001,65.6491,0.008568
95.111,65.6712,0.008568
95.218,65.6925,0.008436
95.327,65.7143,0.008436
95.438,65.7366,0.008436
95.547,65.7585,0.008304
95.656,65.7803,0.008304
95.765,65.8020,0.008096
95.874,65.8238,0.008096
95.983,65.8457,0.007964
96.093,65.8676,0.007964
96.201,65.8892,0.007964
96.309,65.9109,0.007814
96.418,65.9326,0.007814
96.527,65.9543,0.007606
96.637,65.9764,0.007606
96.746,65.9982,0.007418
96.853,66.0197,0.007418
96.964,66.0421,0.007418
97.071,66.0631,0.007144
97.182,66.0854,0.007144
97.292,66.1073,0.006937
97.401,66.1292,0.006937
97.512,66.1512,0.006730
97.622,66.1734,0.006730
97.731,66.1952,0.006400
97.841,66.2171,0.006400
97.948,66.2386,0.006400
98.056,66.2601,0.006089
98.167,66.2825,0.006089
98.278,66.3044,0.005740
98.388,66.3265,0.005740
98.498,66.3484,0.005354
98.607,66.3703,0.005354
98.716,66.3921,0.004873
98.824,66.4137,0.004873
98.933,66.4355,0.004873
99.042,66.4573,0.004326
99.151,66.4792,0.004326
99.260,66.5010,0.003695
99.369,66.5227,0.003695
99.479,66.5447,0.002894
99.589,66.5669,0.002894
99.698,66.5886,0.002894
99.807,66.6104,0.002045
99.916,66.6322,0.002045
100.024,66.6538,0.001018
100.133,66.6757,0.001018
100.242,66.6973,-0.000320
100.352,66.7193,-0.000320
100.462,66.7414,-0.001866
100.571,66.7631,-0.001866
100.678,66.7846,-0.001866
100.788,66.8066,-0.003685
100.899,66.8287,-0.003685
101.008,66.8507,-0.005834
101.118,66.8724,-0.005834
101.226,66.8941,-0.008285
101.335,66.9159,-0.008285
101.444,66.9377,-0.008285
101.554,66.9598,-0.011075
101.662,66.9813,-0.011075
101.771,67.0033,-0.014204
101.880,67.0249,-0.014204
101.989,67.0468,-0.017795
102.097,67.0684,-0.017795
102.207,67.0904,-0.017795
102.316,67.1121,-0.021773
102.427,67.1343,-0.021773
102.537,67.1563,-0.025844
102.646,67.1782,-0.025844
102.754,67.1997,-0.030180
102.865,67.2219,-0.030180
102.975,67.2439,-0.034714
103.085,67.2660,-0.034714
103.194,67.2879,-0.034714
103.304,67.3098,-0.039247
103.414,67.3316,-0.039247
103.520,67.3529,-0.043772
103.630,67.3750,-0.043772
103.738,67.3967,-0.048560
103.847,67.4184,-0.048560
103.956,67.4400,-0.048560
104.065,67.4619,-0.053612
104.174,67.4836,-0.053612
104.283,67.5056,-0.058937
104.392,67.5273,-0.058937
104.501,67.5491,-0.064687
104.610,67.5708,-0.064687
104.720,67.5930,-0.071199
104.831,67.6151,-0.071199
104.939,67.6367,-0.071199
105.047,67.6585,-0.078712
105.156,67.6801,-0.078712
105.264,67.7017,-0.087072
105.373,67.7235,-0.087072
105.482,67.7453,-0.096648
105.591,67.7672,-0.096648
105.700,67.7889,-0.096648
105.808,67.8107,-0.107864
105.918,67.8325,-0.107864
106.028,67.8545,-0.121022
106.137,67.8763,-0.121022
106.246,67.8980,-0.136518
106.355,67.9198,-0.136518
106.464,67.9417,-0.154765
106.575,67.9639,-0.154765
106.682,67.9843,-0.154765
106.792,67.9975,-0.176359
106.900,68.0016,-0.176359
107.008,68.0016,-0.194616
107.116,68.0016,-0.194616
107.227,68.0016,-0.198367
107.336,68.0016,-0.198367
107.445,68.0016,-0.198367
107.553,68.0016,-0.193334
107.662,68.0016,-0.193334
107.771,68.0016,-0.189356
107.878,68.0016,-0.189356
107.988,68.0016,-0.186265
108.097,68.0016,-0.186265
108.205,68.0016,-0.183701
108.318,68.0016,-0.183701
108.428,68.0016,-0.183701
108.538,68.0016,-0.181609
108.650,68.0016,-0.181609
108.759,68.0016,-0.181609
108.866,68.0016,-0.179733
108.975,68.0016,-0.178093
109.086,68.0016,-0.178093
109.196,68.0016,-0.178093
109.305,68.0016,-0.176660
109.417,68.0016,-0.176660
109.524,68.0016,-0.175312
109.633,68.0016,-0.175312
109.742,68.0016,-0.174163
109.852,68.0016,-0.174163
109.962,68.0016,-0.174163
110.072,68.0016,-0.173098
110.183,68.0016,-0.173098
110.292,68.0016,-0.172164
110.401,68.0016,-0.172164
110.510,68.0016,-0.171222
110.618,68.0016,-0.171222
110.725,68.0016,-0.170157
110.834,68.0016,-0.170157
110.943,68.0016,-0.170157
111.054,68.0016,-0.166943
111.164,68.0016,-0.166943
111.274,68.0016,-0.161495
111.384,68.0016,-0.161495
111.492,68.0012,-0.158318
111.600,67.9944,-0.158318
111.708,67.9786,-0.155877
111.820,67.9564,-0.155877
111.928,67.9347,-0.155877
112.038,67.9129,-0.137601
112.146,67.8910,-0.137601
112.254,67.8695,-0.106479
112.362,67.8479,-0.106479
112.472,67.8261,-0.106479
112.582,67.8041,-0.080587
112.690,67.7825,-0.080587
112.800,67.7603,-0.060558
112.908,67.7387,-0.060558
113.020,67.7164,-0.044252
113.129,67.6947,-0.044252
113.238,67.6728,-0.030491
113.348,67.6508,-0.030491
113.459,67.6286,-0.017965
113.567,67.6070,-0.017965
113.677,67.5850,-0.017965
113.787,67.5631,-0.006466
113.897,67.5411,-0.006466
114.004,67.5196,0.004091
114.111,67.4981,0.004091
114.221,67.4762,0.004091
114.330,67.4546,0.014223
114.438,67.4329,0.014223
114.547,67.4111,0.024233
114.655,67.3895,0.024233
114.764,67.3675,0.034186
114.874,67.3458,0.034186
114.984,67.3238,0.044290
115.092,67.3019,0.044290
115.201,67.2802,0.044290
115.310,67.2583,0.054790
115.420,67.2366,0.054790
115.530,67.2145,0.065714
115.639,67.1925,0.065714
115.746,67.1711,0.077024
115.855,67.1495,0.077024
115.964,67.1278,0.077024
116.072,67.1061,0.089296
116.181,67.0842,0.089296
116.290,67.0624,0.102737
116.400,67.0405,0.102737
116.508,67.0188,0.117563
116.618,66.9967,0.117563
116.729,66.9748,0.134105
116.836,66.9532,0.134105
116.947,66.9311,0.134105
117.055,66.9094,0.152560
117.165,66.8876,0.152560
117.274,66.8655,0.152560
117.381,66.8440,0.173173
117.490,66.8226,0.196604
117.598,66.8008,0.196604
117.708,66.7789,0.196604
117.816,66.7574,0.223514
117.924,66.7355,0.223514
118.033,66.7138,0.253901
118.144,66.6917,0.253901
118.251,66.6703,0.253901
118.361,66.6482,0.288389
118.470,66.6265,0.327665
118.580,66.6046,0.327665
118.689,66.5827,0.327665
118.799,66.5607,0.372332
118.909,66.5386,0.372332
119.018,66.5169,0.422692
119.128,66.4948,0.422692
119.236,66.4733,0.479301
119.344,66.4516,0.479301
119.452,66.4302,0.479301
119.562,66.4081,0.542809
119.671,66.3864,0.542809
119.782,66.3639,0.613848
119.892,66.3421,0.613848
120.001,66.3204,0.693267
120.111,66.2982,0.693267
120.221,66.2763,0.781215
120.332,66.2541,0.781215
120.441,66.2324,0.781215
120.552,66.2102,0.877882
120.661,66.1882,0.877882
120.772,66.1663,0.982975
120.880,66.1444,0.982975
120.987,66.1232,0.982975
121.096,66.1014,1.096382
121.204,66.0796,1.096382
121.314,66.0576,1.218478
121.424,66.0358,1.218478
121.534,66.0137,1.348860
121.642,65.9920,1.348860
121.753,65.9699,1.483181
121.862,65.9481,1.483181
121.970,65.9265,1.472559
122.078,65.9051,1.472559
122.187,65.8831,1.472559
122.295,65.8615,1.358002
122.405,65.8396,1.358002
122.514,65.8177,1.288971
122.623,65.7960,1.288971
122.733,65.7740,1.050433
122.842,65.7521,1.050433
122.952,65.7301,1.050433
123.061,65.7084,0.454879
123.170,65.6864,0.454879
123.278,65.6650,0.043790
123.388,65.6429,0.043790
123.496,65.6214,0.017842
123.605,65.5993,0.017842
123.714,65.5778,0.013139
123.823,65.5559,0.013139
123.932,65.5341,0.013139
124.043,65.5119,0.012338
124.152,65.4902,0.012338
124.261,65.4684,0.012074
124.370,65.4465,0.012074
124.478,65.4248,0.011951
124.587,65.4030,0.011951
124.697,65.3812,0.011951
124.804,65.3597,0.011744
124.914,65.3379,0.011744
125.024,65.3158,0.011584
125.132,65.2941,0.011584
125.240,65.2725,0.011537
125.350,65.2506,0.011537
125.460,65.2286,0.011537
125.570,65.2064,0.011452
125.679,65.1849,0.011452
125.788,65.1628,0.011414
125.896,65.1413,0.011414
126.005,65.1196,0.011386
126.114,65.0975,0.011386
126.222,65.0761,0.011386
126.333,65.0539,0.011329
126.441,65.0324,0.011329
126.549,65.0106,0.011339
126.660,64.9885,0.011339
126.769,64.9681,0.011367
126.879,64.9552,0.011367
126.987,64.9514,0.011113
127.097,64.9514,0.011113
127.206,64.9514,0.011113
127.314,64.9514,0.010783
127.423,64.9514,0.010783
127.532,64.9559,0.010717
127.641,64.9693,0.010717
127.750,64.9903,0.010434
127.859,65.0121,0.010434
127.969,65.0340,0.010076
128.077,65.0556,0.010076
128.187,65.0777,0.010076
128.296,65.0995,0.009916
128.406,65.1215,0.009916
128.516,65.1434,0.009774
128.625,65.1653,0.009774
128.732,65.1867,0.009680
128.841,65.2085,0.009680
128.950,65.2303,0.009680
129.059,65.2521,0.009633
129.169,65.2742,0.009633
129.278,65.2959,0.009491
129.387,65.3176,0.009491
129.496,65.3395,0.009284
129.604,65.3611,0.009284
129.714,65.3832,0.009133
129.823,65.4050,0.009133
129.932,65.4267,0.009133
130.042,65.4487,0.009039
130.151,65.4705,0.009039
130.260,65.4922,0.008945
130.369,65.5140,0.008945
130.478,65.5360,0.008794
130.587,65.5578,0.008794
130.696,65.5795,0.008794
130.805,65.6013,0.008662
130.914,65.6232,0.008662
131.023,65.6450,0.008521
131.133,65.6671,0.008521
131.240,65.6883,0.008389
131.348,65.7100,0.008389
131.457,65.7316,0.008389
131.566,65.7535,0.008181
131.676,65.7756,0.008181
131.784,65.7972,0.007993
131.894,65.8190,0.007993
132.003,65.8409,0.007842
132.111,65.8624,0.007842
132.220,65.8844,0.007635
132.329,65.9061,0.007635
132.439,65.9280,0.007635
132.548,65.9500,0.007484
132.658,65.9720,0.007484
132.767,65.9936,0.007352
132.877,66.0157,0.007352
132.984,66.0373,0.007107
133.093,66.0590,0.007107
133.203,66.0811,0.006824
133.312,66.1028,0.006824
133.421,66.1245,0.006824
133.531,66.1464,0.006522
133.639,66.1680,0.006522
133.748,66.1901,0.006240
133.858,66.2119,0.006240
133.969,66.2340,0.005853
134.078,66.2558,0.005853
134.185,66.2773,0.005853
134.294,66.2991,0.005429
134.403,66.3209,0.005429
134.512,66.3426,0.004986
134.621,66.3646,0.004986
134.731,66.3864,0.004373
134.841,66.4085,0.004373
134.949,66.4299,0.004373
135.058,66.4519,0.003732
135.169,66.4742,0.003732
135.278,66.4958,0.003026
135.386,66.5174,0.003026
135.493,66.5389,0.002111
135.604,66.5611,0.002111
135.713,66.5829,0.002111
135.823,66.6048,0.001018
135.932,66.6265,0.001018
136.040,66.6482,-0.000264
136.149,66.6702,-0.000264
136.259,66.6921,-0.001885
136.367,66.7137,-0.001885
136.474,66.7350,-0.003704
136.583,66.7569,-0.003704
136.692,66.7787,-0.003704
136.802,66.8008,-0.005806
136.911,66.8226,-0.005806
137.020,66.8442,-0.008200
137.129,66.8660,-0.008200
137.237,66.8877,-0.010981
137.347,66.9098,-0.010981
137.457,66.9316,-0.010981
137.567,66.9536,-0.014176
137.677,66.9758,-0.014176
137.784,66.9970,-0.017757
137.893,67.0189,-0.017757
138.003,67.0409,-0.021603
138.113,67.0629,-0.021603
138.223,67.0849,-0.025581
138.332,67.1066,-0.025581
138.441,67.1283,-0.025581
138.548,67.1499,-0.029907
138.657,67.1715,-0.029907
138.768,67.1940,-0.034318
138.875,67.2152,-0.034318
138.984,67.2371,-0.038786
139.093,67.2590,-0.038786
139.205,67.2812,-0.038786
139.314,67.3031,-0.043366
139.423,67.3249,-0.043366
139.532,67.3468,-0.048098
139.640,67.3682,-0.048098
139.749,67.3901,-0.053140
139.858,67.4118,-0.053140
139.967,67.4339,-0.058447
140.078,67.4557,-0.058447
140.186,67.4774,-0.058447
140.294,67.4993,-0.064159
140.404,67.5210,-0.064159
140.513,67.5428,-0.070615
140.621,67.5644,-0.070615
140.730,67.5862,-0.077957
140.837,67.6077,-0.077957
140.947,67.6297,-0.077957
141.057,67.6517,-0.086252
141.167,67.6738,-0.086252
141.275,67.6953,-0.095649
141.384,67.7169,-0.095649
141.492,67.7386,-0.106582
141.604,67.7609,-0.106582
141.712,67.7828,-0.119420
141.822,67.8047,-0.119420
141.931,67.8264,-0.119420
142.041,67.8485,-0.134727
142.150,67.8703,-0.134727
142.260,67.8922,-0.152833
142.369,67.9140,-0.152833
142.477,67.9345,-0.152833
142.585,67.9475,-0.173965
142.694,67.9514,-0.173965
142.803,67.9514,-0.193749
142.913,67.9514,-0.193749
143.021,67.9514,-0.199866
143.130,67.9514,-0.199866
143.239,67.9514,-0.195162
143.348,67.9514,-0.195162
143.458,67.9514,-0.190827
143.568,67.9514,-0.190827
143.676,67.9514,-0.190827
143.786,67.9514,-0.187537
143.894,67.9514,-0.187537
144.004,67.9514,-0.184898
144.114,67.9514,-0.184898
144.222,67.9514,-0.182561
144.332,67.9514,-0.182561
144.440,67.9514,-0.182561
144.548,67.9514,-0.180553
144.656,67.9514,-0.180553
144.767,67.9514,-0.178856
144.876,67.9514,-0.178856
144.985,67.9514,-0.177386
145.093,67.9514,-0.177386
145.202,67.9514,-0.177386
145.312,67.9514,-0.176095
145.422,67.9514,-0.176095
145.532,67.9514,-0.174917
145.639,67.9514,-0.174917
145.749,67.9514,-0.173814
145.858,67.9514,-0.173814
145.968,67.9514,-0.172824
146.078,67.9514,-0.172824
146.189,67.9514,-0.172824
146.299,67.9514,-0.171900
146.407,67.9514,-0.171900
146.518,67.9514,-0.170920
146.627,67.9514,-0.170920
146.737,67.9514,-0.168470
146.847,67.9514,-0.168470
146.958,67.9514,-0.163314
147.068,67.9514,-0.163314
147.178,67.9514,-0.163314
147.288,67.9503,-0.159186
147.397,67.9412,-0.159186
147.504,67.9235,-0.156773
147.615,67.9012,-0.156773
147.723,67.8796,-0.156773
147.833,67.8577,-0.139732
147.942,67.8357,-0.139732
148.050,67.8143,-0.108911
148.160,67.7922,-0.108911
148.267,67.7709,-0.082312
148.377,67.7489,-0.082312
148.485,67.7272,-0.061981
148.593,67.7056,-0.061981
148.701,67.6842,-0.061981
148.811,67.6622,-0.045704
148.919,67.6406,-0.045704
149.028,67.6187,-0.031848
149.139,67.5966,-0.031848
149.247,67.5750,-0.019152
149.357,67.5528,-0.019152
149.467,67.5308,-0.007550
149.576,67.5092,-0.007550
149.686,67.4871,-0.007550
149.793,67.4656,0.003082
149.902,67.4439,0.003082
150.011,67.4220,0.013158
150.120,67.4004,0.013158
150.230,67.3785,0.023186
150.339,67.3565,0.023186
150.446,67.3351,0.023186
150.556,67.3131,0.033159
150.666,67.2911,0.033159
150.775,67.2694,0.043215
150.883,67.2476,0.043215
150.993,67.2257,0.053640
151.102,67.2040,0.053640
151.213,67.1816,0.064441
151.324,67.1594,0.064441
151.435,67.1374,0.064441
151.545,67.1153,0.075771
151.654,67.0936,0.075771
151.762,67.0720,0.087930
151.871,67.0502,0.087930
151.982,67.0278,0.101153
152.091,67.0060,0.101153
152.201,66.9842,0.101153
152.310,66.9622,0.115659
152.421,66.9400,0.115659
152.531,66.9181,0.131927
152.640,66.8965,0.131927
152.750,66.8743,0.150147
152.858,66.8526,0.150147
152.967,66.8310,0.170449
153.075,66.8093,0.170449
153.183,66.7876,0.170449
153.293,66.7659,0.193579
153.402,66.7440,0.193579
153.510,66.7223,0.220036
153.619,66.7005,0.220036
153.728,66.6786,0.249915
153.837,66.6569,0.249915
153.947,66.6349,0.249915
154.057,66.6130,0.283903
154.165,66.5912,0.283903
154.273,66.5697,0.322980
154.383,66.5479,0.322980
154.491,66.5262,0.367308
154.600,66.5043,0.367308
154.709,66.4825,0.367308
154.819,66.4607,0.417149
154.927,66.4390,0.417149
155.034,66.4175,0.473183
155.142,66.3959,0.473183
155.251,66.3741,0.535881
155.358,66.3528,0.535881
155.468,66.3307,0.606195
155.578,66.3089,0.606195
155.685,66.2872,0.606195
155.794,66.2655,0.684699
155.902,66.2439,0.684699
156.012,66.2219,0.771846
156.121,66.2002,0.771846
156.230,66.1784,0.771846
156.338,66.1567,0.867231
156.448,66.1349,0.867231
156.556,66.1132,0.970618
156.666,66.0911,0.970618
156.775,66.0693,1.079322
156.884,66.0474,1.079322
156.992,66.0260,1.159862
157.101,66.0043,1.159862
157.210,65.9825,1.159862
157.319,65.9605,1.183830
157.428,65.9387,1.183830
157.538,65.9167,1.193067
157.647,65.8949,1.193067
157.755,65.8733,1.211805
157.863,65.8516,1.211805
157.973,65.8298,1.059858
158.083,65.8077,1.059858
158.193,65.7856,1.059858
158.302,65.7639,0.673624
158.411,65.7423,0.673624
158.520,65.7204,0.244665
158.630,65.6983,0.244665
158.739,65.6766,0.029502
158.847,65.6549,0.029502
158.956,65.6332,0.029502
159.064,65.6115,0.015005
159.173,65.5897,0.015005
159.283,65.5677,0.012847
159.391,65.5461,0.012847
159.500,65.5243,0.012300
159.610,65.5025,0.012300
159.719,65.4805,0.012055
159.828,65.4588,0.012055
159.937,65.4370,0.012055
160.046,65.4152,0.011848
160.156,65.3932,0.011848
160.263,65.3718,0.011848
160.372,65.3501,0.011678
160.480,65.3285,0.011631
160.590,65.3063,0.011631
160.701,65.2842,0.011631
160.811,65.2622,0.011584
160.920,65.2404,0.011584
161.030,65.2183,0.011490
161.141,65.1963,0.011490
161.251,65.1741,0.011433
161.362,65.1521,0.011433
161.472,65.1302,0.011433
161.582,65.1080,0.011376
161.691,65.0861,0.011376
161.801,65.0642,0.011320
161.911,65.0421,0.011320
162.021,65.0203,0.011339
162.131,64.9981,0.011339
162.240,64.9764,0.011339
162.348,64.9548,0.011348
162.455,64.9335,0.011348
162.564,64.9141,0.011348
162.675,64.9034,0.011348
162.785,64.9015,0.011179
162.894,64.9015,0.011179
163.001,64.9015,0.010915
163.110,64.9015,0.010915
163.219,64.9015,0.010745
163.328,64.9044,0.010745
163.439,64.9162,0.010745
163.546,64.9361,0.010509
163.656,64.9580,0.010509
163.764,64.9795,0.010245
163.872,65.0014,0.010245
163.981,65.0230,0.010038
164.090,65.0448,0.010038
164.200,65.0668,0.010038
164.308,65.0884,0.009850
164.417,65.1103,0.009850
164.525,65.1318,0.009699
164.632,65.1532,0.009699
164.743,65.1754,0.009595
164.852,65.1971,0.009595
164.962,65.2191,0.009473
165.072,65.2412,0.009473
165.180,65.2627,0.009473
165.288,65.2846,0.009350
165.396,65.3062,0.009350
165.507,65.3282,0.009246
165.618,65.3504,0.009246
165.727,65.3723,0.009114
165.835,65.3938,0.009114
165.945,65.4159,0.009114
166.053,65.4376,0.009030
166.163,65.4593,0.009030
166.272,65.4813,0.008954
166.382,65.5032,0.008954
166.490,65.5247,0.008775
166.599,65.5468,0.008775
166.708,65.5683,0.008587
166.816,65.5899,0.008587
166.927,65.6122,0.008587
167.036,65.6339,0.008464
167.143,65.6555,0.008464
167.252,65.6772,0.008332
167.362,65.6991,0.008332
167.470,65.7208,0.008172
167.580,65.7430,0.008172
167.689,65.7645,0.008172
167.796,65.7860,0.008040
167.905,65.8078,0.008040
168.016,65.8302,0.007946
168.125,65.8519,0.007946
168.234,65.8736,0.007710
168.342,65.8951,0.007710
168.451,65.9170,0.007710
168.561,65.9390,0.007390
168.671,65.9610,0.007390
168.781,65.9829,0.007182
168.890,66.0049,0.007182
168.999,66.0265,0.006918
169.107,66.0482,0.006918
169.217,66.0701,0.006626
169.325,66.0920,0.006626
169.435,66.1138,0.006626
169.544,66.1356,0.006409
169.653,66.1573,0.006409
169.763,66.1794,0.006023
169.874,66.2017,0.006023
169.983,66.2234,0.006023
170.093,66.2456,0.005533
170.203,66.2675,0.005533
170.312,66.2893,0.005156
170.422,66.3111,0.005156
170.532,66.3332,0.004722
170.642,66.3551,0.004722
170.752,66.3772,0.004091
170.861,66.3992,0.004091
170.971,66.4210,0.003355
171.081,66.4428,0.003355
171.190,66.4648,0.003355
171.300,66.4869,0.002507
171.408,66.5084,0.002507
171.515,66.5299,0.001461
171.623,66.5513,0.001461
171.731,66.5729,0.000245
171.840,66.5948,0.000245
171.951,66.6170,0.000245
172.062,66.6392,-0.001272
172.170,66.6607,-0.001272
172.278,66.6823,-0.003110
172.387,66.7043,-0.003110
172.497,66.7262,-0.003110
172.607,66.7482,-0.005241
172.716,66.7700,-0.007559
172.826,66.7921,-0.007559
172.936,66.8139,-0.007559
173.045,66.8359,-0.010217
173.154,66.8576,-0.010217
173.262,66.8793,-0.013393
173.370,66.9007,-0.013393
173.479,66.9224,-0.016824
173.588,66.9444,-0.016824
173.698,66.9665,-0.016824
173.807,66.9883,-0.020623
173.916,67.0100,-0.020623
174.025,67.0317,-0.024713
174.134,67.0535,-0.024713
174.244,67.0756,-0.028861
174.354,67.0975,-0.028861
174.462,67.1191,-0.028861
174.571,67.1411,-0.033206
174.681,67.1629,-0.033206
174.789,67.1845,-0.037636
174.899,67.2064,-0.037636
175.008,67.2283,-0.042160
175.118,67.2505,-0.042160
175.226,67.2719,-0.046835
175.334,67.2935,-0.046835
175.443,67.3155,-0.046835
175.553,67.3375,-0.051783
175.663,67.3594,-0.051783
175.772,67.3812,-0.057033
175.882,67.4031,-0.057033
175.992,67.4252,-0.062613
176.101,67.4468,-0.062613
176.210,67.4686,-0.068815
176.320,67.4906,-0.068815
176.429,67.5125,-0.068815
176.539,67.5346,-0.075827
176.647,67.5562,-0.075827
176.756,67.5780,-0.083839
176.865,67.5997,-0.083839
176.975,67.6219,-0.092972
177.085,67.6439,-0.092972
177.193,67.6655,-0.092972
177.304,67.6874,-0.103510
177.413,67.7092,-0.103510
177.522,67.7313,-0.115857
177.632,67.7533,-0.115857
177.741,67.7751,-0.130466
177.852,67.7972,-0.130466
177.961,67.8190,-0.130466
178.071,67.8409,-0.147847
178.179,67.8625,-0.147847
178.288,67.8835,-0.168291
178.397,67.8970,-0.168291
178.507,67.9015,-0.190073
178.616,67.9015,-0.190073
178.727,67.9015,-0.200403
178.837,67.9015,-0.200403
178.946,67.9015,-0.200403
179.056,67.9015,-0.197236
179.167,67.9015,-0.197236
179.277,67.9015,-0.192542
179.387,67.9015,-0.192542
179.497,67.9015,-0.189102
179.607,67.9015,-0.189102
179.716,67.9015,-0.186284
179.827,67.9015,-0.186284
179.936,67.9015,-0.186284
180.045,67.9015,-0.183918
180.153,67.9015,-0.183918
180.263,67.9015,-0.181986
180.372,67.9015,-0.181986
180.482,67.9015,-0.180242
180.593,67.9015,-0.180242
180.702,67.9015,-0.180242
180.813,67.9015,-0.178743
180.924,67.9015,-0.178743
181.034,67.9015,-0.177414
181.143,67.9015,-0.177414
181.252,67.9015,-0.176132
181.359,67.9015,-0.176132
181.470,67.9015,-0.174973
181.579,67.9015,-0.174973
181.688,67.9015,-0.174973
181.796,67.9015,-0.173974
181.905,67.9015,-0.173974
182.014,67.9015,-0.172984
182.123,67.9015,-0.172984
182.232,67.9015,-0.172032
182.340,67.9015,-0.172032
182.448,67.9015,-0.172032
182.560,67.9015,-0.170930
182.671,67.9015,-0.170930
182.780,67.9015,-0.167084
182.890,67.9015,-0.167084
182.999,67.9015,-0.161683
183.109,67.9015,-0.161683
183.218,67.8968,-0.159223
183.327,67.8832,-0.159223
183.436,67.8620,-0.159223
183.546,67.8402,-0.150976
183.654,67.8186,-0.150976
183.761,67.7970,-0.125509
183.869,67.7755,-0.125509
183.980,67.7533,-0.095008
184.088,67.7317,-0.095008
184.197,67.7100,-0.095008
184.306,67.6881,-0.071916
184.415,67.6664,-0.071916
184.524,67.6444,-0.053885
184.633,67.6228,-0.053885
184.742,67.6011,-0.038786
184.850,67.5793,-0.038786
184.959,67.5577,-0.025515
185.067,67.5358,-0.025515
185.174,67.5144,-0.025515
185.284,67.4926,-0.013365
185.394,67.4704,-0.013365
185.503,67.4488,-0.002168
185.611,67.4272,-0.002168
185.719,67.4056,0.007964
185.827,67.3840,0.007964
185.936,67.3620,0.007964
186.046,67.3403,0.017927
186.153,67.3187,0.017927
186.262,67.2969,0.027946
186.372,67.2749,0.027946
186.480,67.2534,0.037984
186.589,67.2316,0.037984
186.698,67.2097,0.037984
186.806,67.1881,0.048211
186.917,67.1660,0.048211
187.025,67.1444,0.058767
187.134,67.1226,0.058767
187.243,67.1008,0.069805
187.353,67.0788,0.069805
187.461,67.0570,0.081454
187.571,67.0353,0.081454
187.681,67.0132,0.081454
187.790,66.9914,0.094094
187.898,66.9698,0.094094
188.007,66.9479,0.107789
188.116,66.9261,0.107789
188.227,66.9039,0.122983
188.336,66.8821,0.122983
188.445,66.8604,0.122983
188.555,66.8382,0.140033
188.664,66.8166,0.140033
188.773,66.7946,0.159195
188.884,66.7726,0.159195
188.992,66.7509,0.180836
189.102,66.7290,0.180836
189.211,66.7072,0.205455
189.320,66.6853,0.205455
189.430,66.6633,0.205455
189.539,66.6416,0.233458
189.647,66.6201,0.233458
189.755,66.5984,0.265382
189.864,66.5765,0.265382
189.972,66.5551,0.301952
190.082,66.5329,0.301952
190.192,66.5109,0.301952
190.302,66.4890,0.343565
190.410,66.4673,0.343565
190.518,66.4458,0.390664
190.626,66.4242,0.390664
190.736,66.4021,0.443182
190.846,66.3802,0.443182
190.955,66.3585,0.443182
191.064,66.3365,0.502233
191.175,66.3142,0.502233
191.283,66.2928,0.568672
191.391,66.2712,0.568672
191.498,66.2497,0.642831
191.607,66.2279,0.642831
191.716,66.2062,0.725511
191.826,66.1841,0.725511
191.936,66.1622,0.725511
192.046,66.1403,0.816664
192.155,66.1181,0.816664
192.263,66.0968,0.916432
192.373,66.0749,0.916432
192.482,66.0528,1.024645
192.592,66.0312,1.024645
192.702,66.0091,1.024645
192.811,65.9873,1.141605
192.922,65.9648,1.141605
193.032,65.9429,1.267151
193.143,65.9209,1.267151
193.251,65.8991,1.401388
193.361,65.8773,1.401388
193.471,65.8553,1.544277
193.580,65.8335,1.544277
193.690,65.8114,1.544277
193.799,65.7896,1.589509
193.908,65.7679,1.589509
194.018,65.7457,1.481494
194.128,65.7239,1.481494
194.237,65.7020,1.356296
194.346,65.6802,1.356296
194.457,65.6579,1.075288
194.567,65.6361,1.075288
194.676,65.6142,1.075288
194.787,65.5919,0.446453
194.897,65.5701,0.446453
195.005,65.5484,0.036787
195.113,65.5267,0.036787
195.222,65.5051,0.016966
195.331,65.4834,0.016966
195.439,65.4616,0.016966
195.550,65.4395,0.013111
195.662,65.4169,0.013111
195.770,65.3955,0.012394
195.879,65.3736,0.012394
195.988,65.3518,0.012149
196.099,65.3296,0.012149
196.208,65.3078,0.012149
196.318,65.2858,0.011951
196.428,65.2640,0.011951
196.538,65.2418,0.011829
196.647,65.2201,0.011829
196.754,65.1986,0.011735
196.865,65.1765,0.011735
196.974,65.1546,0.011622
197.083,65.1326,0.011622
197.191,65.1112,0.011622
197.301,65.0892,0.011565
197.411,65.0674,0.011565
197.520,65.0453,0.011546
197.629,65.0238,0.011546
197.736,65.0023,0.011518
197.844,64.9806,0.011518
197.954,64.9584,0.011424
198.063,64.9367,0.011424
198.172,64.9150,0.011424
198.283,64.8930,0.011376
198.392,64.8715,0.011376
198.501,64.8571,0.011358
198.609,64.8516,0.011358
198.718,64.8515,0.011113
198.827,64.8515,0.011113
198.936,64.8515,0.011113
199.045,64.8519,0.010849
199.154,64.8589,0.010849
199.264,64.8753,0.010660
199.374,64.8970,0.010660
199.484,64.9191,0.010359
199.594,64.9412,0.010359
199.701,64.9625,0.010359
199.810,64.9843,0.010113
199.918,65.0060,0.010113
200.029,65.0281,0.009953
200.136,65.0495,0.009953
200.245,65.0713,0.009802
200.355,65.0933,0.009802
200.464,65.1150,0.009680
200.573,65.1371,0.009680
200.684,65.1591,0.009680
200.794,65.1810,0.009539
200.901,65.2026,0.009539
201.009,65.2240,0.009407
201.118,65.2461,0.009407
201.230,65.2682,0.009407
201.337,65.2898,0.009312
201.448,65.3119,0.009312
201.557,65.3337,0.009190
201.664,65.3551,0.009190
201.773,65.3770,0.009077
201.883,65.3990,0.009077
201.993,65.4209,0.008945
202.104,65.4431,0.008945
202.212,65.4647,0.008803
202.321,65.4866,0.008803
202.430,65.5083,0.008803
202.540,65.5304,0.008681
202.650,65.5522,0.008681
202.758,65.5740,0.008521
202.870,65.5962,0.008521
202.980,65.6182,0.008379
203.089,65.6401,0.008379
203.197,65.6616,0.008379
203.306,65.6833,0.008238
203.414,65.7051,0.008238
203.522,65.7268,0.008115
203.630,65.7482,0.008115
203.740,65.7702,0.007964
203.849,65.7920,0.007964
203.958,65.8139,0.007701
204.066,65.8355,0.007701
204.176,65.8574,0.007701
204.285,65.8793,0.007408
204.393,65.9010,0.007408
204.504,65.9232,0.007248
204.614,65.9450,0.007248
204.722,65.9667,0.007060
204.830,65.9883,0.007060
204.940,66.0102,0.007060
205.052,66.0326,0.006749
205.158,66.0539,0.006749
205.268,66.0758,0.006456
205.377,66.0978,0.006456
205.486,66.1195,0.006098
205.593,66.1411,0.006098
205.702,66.1628,0.006098
205.810,66.1842,0.005712
205.920,66.2063,0.005712
206.030,66.2283,0.005222
206.139,66.2500,0.005222
206.248,66.2720,0.004628
206.357,66.2936,0.004628
206.467,66.3157,0.004062
206.576,66.3374,0.004062
206.684,66.3591,0.004062
206.793,66.3808,0.003374
206.902,66.4025,0.003374
207.010,66.4243,0.002526
207.119,66.4459,0.002526
207.227,66.4675,0.002526
207.335,66.4892,0.001470
207.444,66.5110,0.001470
207.554,66.5332,0.000245
207.663,66.5548,0.000245
207.773,66.5768,-0.001254
207.882,66.5987,-0.001254
207.990,66.6202,-0.003063
208.100,66.6423,-0.003063
208.208,66.6637,-0.003063
208.316,66.6854,-0.005165
208.424,66.7070,-0.005165
208.535,66.7291,-0.007550
208.644,66.7509,-0.007550
208.752,66.7727,-0.010236
208.862,66.7946,-0.010236
208.971,66.8164,-0.013365
209.080,66.8385,-0.013365
209.190,66.8602,-0.013365
209.300,66.8824,-0.016862
209.409,66.9041,-0.016862
209.518,66.9259,-0.020632
209.627,66.9476,-0.020632
209.736,66.9694,-0.024572
209.844,66.9911,-0.024572
209.954,67.0130,-0.024572
210.064,67.0350,-0.028729
210.174,67.0569,-0.028729
210.283,67.0788,-0.033102
210.391,67.1004,-0.033102
210.502,67.1225,-0.037523
210.610,67.1442,-0.037523
210.719,67.1661,-0.042056
210.829,67.1880,-0.042056
210.937,67.2095,-0.042056
211.047,67.2315,-0.046759
211.156,67.2537,-0.046759
211.264,67.2750,-0.051651
211.372,67.2966,-0.051651
211.482,67.3187,-0.056826
211.592,67.3406,-0.056826
211.701,67.3623,-0.056826
211.810,67.3843,-0.062500
211.920,67.4061,-0.062500
212.029,67.4279,-0.068711
212.139,67.4501,-0.068711
212.247,67.4716,-0.075601
212.356,67.4934,-0.075601
212.464,67.5150,-0.083584
212.573,67.5371,-0.083584
212.683,67.5587,-0.083584
212.791,67.5804,-0.092642
212.900,67.6022,-0.092642
213.008,67.6238,-0.103152
213.116,67.6454,-0.103152
213.225,67.6672,-0.115395
213.335,67.6891,-0.115395
213.443,67.7108,-0.115395
213.552,67.7328,-0.129599
213.663,67.7547,-0.129599
213.771,67.7763,-0.146810
213.882,67.7985,-0.146810
213.990,67.8202,-0.167065
214.100,67.8393,-0.167065
214.208,67.8496,-0.167065
214.316,67.8515,-0.189177
214.425,67.8515,-0.189177
214.535,67.8515,-0.200902
214.643,67.8515,-0.200902
