Elapsed Time (s),Position (mm),Force (N)
-0.012,70.6514,-0.119118
0.097,70.6514,-0.119118
0.205,70.6514,-0.120805
0.315,70.6514,-0.120805
0.426,70.6514,-0.117987
0.536,70.6514,-0.117987
0.644,70.6514,-0.115763
0.756,70.6514,-0.115763
0.863,70.6514,-0.115763
0.972,70.6514,-0.113991
1.084,70.6514,-0.113991
1.194,70.6514,-0.112492
1.304,70.6514,-0.112492
1.415,70.6514,-0.111135
1.524,70.6514,-0.111135
1.633,70.6514,-0.109881
1.743,70.6514,-0.109881
1.853,70.6514,-0.109881
1.963,70.6514,-0.108760
2.072,70.6514,-0.108760
2.182,70.6514,-0.107742
2.293,70.6514,-0.107742
2.403,70.6514,-0.106809
2.513,70.6514,-0.106809
2.623,70.6514,-0.106809
2.734,70.6514,-0.105942
2.845,70.6514,-0.105942
2.954,70.6514,-0.105159
3.065,70.6514,-0.105159
3.174,70.6514,-0.104490
3.283,70.6514,-0.104490
3.393,70.6514,-0.103698
3.501,70.6514,-0.103698
3.610,70.6514,-0.103698
3.719,70.6514,-0.101841
3.829,70.6514,-0.101841
3.938,70.6514,-0.098967
4.047,70.6506,-0.098967
4.156,70.6421,-0.097082
4.265,70.6248,-0.097082
4.375,70.6028,-0.091360
4.485,70.5807,-0.091360
4.593,70.5593,-0.091360
4.702,70.5372,-0.074253
4.812,70.5153,-0.074253
4.922,70.4934,-0.054111
5.031,70.4714,-0.054111
5.139,70.4499,-0.039172
5.248,70.4281,-0.039172
5.357,70.4064,-0.039172
5.466,70.3845,-0.026287
5.575,70.3628,-0.026287
5.684,70.3410,-0.014044
5.792,70.3193,-0.014044
5.902,70.2975,-0.002771
6.010,70.2758,-0.002771
6.118,70.2542,0.007719
6.228,70.2320,0.007719
6.339,70.2099,0.007719
6.449,70.1880,0.017937
6.558,70.1661,0.017937
6.668,70.1441,0.028304
6.778,70.1222,0.028304
6.887,70.1003,0.039294
6.996,70.0786,0.039294
7.107,70.0564,0.039294
7.215,70.0345,0.050803
7.324,70.0130,0.050803
7.433,69.9911,0.062971
7.542,69.9694,0.062971
7.652,69.9474,0.076091
7.760,69.9258,0.076091
7.870,69.9036,0.090013
7.979,69.8819,0.090013
8.088,69.8602,0.090013
8.197,69.8383,0.104622
8.307,69.8164,0.104622
8.417,69.7942,0.120579
8.525,69.7727,0.120579
8.634,69.7508,0.138412
8.743,69.7292,0.138412
8.851,69.7075,0.138412
8.961,69.6855,0.158083
9.070,69.6637,0.158083
9.179,69.6419,0.179818
9.288,69.6202,0.179818
9.397,69.5984,0.204239
9.507,69.5764,0.204239
9.616,69.5545,0.231695
9.726,69.5326,0.231695
9.837,69.5103,0.231695
9.942,69.4893,0.262215
10.053,69.4673,0.262215
10.162,69.4453,0.296391
10.271,69.4235,0.296391
10.379,69.4020,0.335007
10.490,69.3798,0.335007
10.598,69.3582,0.335007
10.707,69.3363,0.378166
10.817,69.3143,0.378166
10.924,69.2929,0.426000
11.035,69.2708,0.426000
11.146,69.2486,0.479809
11.256,69.2265,0.479809
11.366,69.2046,0.479809
11.475,69.1828,0.540603
11.584,69.1610,0.540603
11.692,69.1393,0.608730
11.802,69.1175,0.608730
11.911,69.0956,0.684322
12.020,69.0739,0.684322
12.128,69.0523,0.767859
12.236,69.0307,0.767859
12.345,69.0086,0.767859
12.454,68.9868,0.859747
12.564,68.9651,0.859747
12.674,68.9430,0.960034
12.784,68.9211,0.960034
12.894,68.8990,1.068332
13.004,68.8772,1.068332
13.114,68.8551,1.184453
13.222,68.8334,1.184453
13.331,68.8116,1.184453
13.439,68.7901,1.309301
13.546,68.7686,1.309301
13.656,68.7466,1.442115
13.765,68.7247,1.442115
13.875,68.7029,1.581978
13.985,68.6810,1.581978
14.094,68.6591,1.581978
14.203,68.6373,1.728562
14.310,68.6156,1.728562
14.418,68.5941,1.882366
14.528,68.5722,1.882366
14.635,68.5506,2.045303
14.746,68.5287,2.045303
14.853,68.5072,2.045303
14.963,68.4851,1.913140
15.073,68.4632,1.913140
15.183,68.4412,1.411642
15.293,68.4191,1.411642
15.403,68.3971,0.584431
15.514,68.3751,0.584431
15.624,68.3530,0.026919
15.733,68.3311,0.026919
15.842,68.3094,0.026919
15.953,68.2873,0.009793
16.060,68.2657,0.009793
16.169,68.2439,0.008577
16.280,68.2218,0.008577
16.389,68.1999,0.008700
16.499,68.1780,0.008700
16.609,68.1561,0.008700
16.717,68.1345,0.008671
16.825,68.1128,0.008671
16.933,68.0910,0.008653
17.043,68.0690,0.008653
17.152,68.0474,0.008605
17.261,68.0256,0.008605
17.372,68.0035,0.008558
17.480,67.9817,0.008558
17.590,67.9599,0.008558
17.698,67.9382,0.008502
17.807,67.9165,0.008502
17.916,67.8946,0.008464
18.026,67.8726,0.008464
18.136,67.8506,0.008455
18.246,67.8287,0.008455
18.354,67.8070,0.008455
18.463,67.7851,0.008558
18.573,67.7632,0.008558
18.683,67.7414,0.008577
18.792,67.7194,0.008577
18.903,67.6973,0.008539
19.011,67.6756,0.008539
19.121,67.6535,0.008539
19.230,67.6318,0.008539
19.339,67.6131,0.008539
19.448,67.6031,0.008473
19.556,67.6015,0.008473
19.665,67.6015,0.008266
19.775,67.6015,0.008266
19.886,67.6015,0.008144
19.995,67.6015,0.008144
20.105,67.6042,0.008144
20.214,67.6155,0.008144
20.322,67.6353,0.008144
20.431,67.6570,0.007946
20.542,67.6791,0.007946
20.650,67.7009,0.007946
20.758,67.7224,0.007701
20.868,67.7443,0.007569
20.978,67.7663,0.007569
21.085,67.7877,0.007569
21.194,67.8098,0.007503
21.303,67.8315,0.007503
21.412,67.8532,0.007427
21.520,67.8751,0.007427
21.631,67.8970,0.007427
21.740,67.9190,0.007380
21.848,67.9404,0.007380
21.956,67.9620,0.007342
22.064,67.9837,0.007342
22.175,68.0058,0.007220
22.284,68.0276,0.007220
22.395,68.0499,0.007041
22.505,68.0716,0.007041
22.613,68.0935,0.007041
22.721,68.1149,0.006994
22.831,68.1370,0.006994
22.940,68.1587,0.006975
23.049,68.1808,0.006975
23.160,68.2027,0.006881
23.268,68.2243,0.006881
23.376,68.2460,0.006777
23.484,68.2676,0.006777
23.593,68.2895,0.006777
23.702,68.3112,0.006654
23.811,68.3329,0.006654
23.921,68.3551,0.006607
24.032,68.3771,0.006607
24.142,68.3990,0.006522
24.251,68.4210,0.006522
24.361,68.4431,0.006522
24.471,68.4649,0.006362
24.580,68.4867,0.006362
24.690,68.5088,0.006240
24.799,68.5305,0.006240
24.908,68.5525,0.006164
25.016,68.5738,0.006164
25.126,68.5961,0.006079
25.235,68.6176,0.006079
25.344,68.6395,0.006079
25.455,68.6617,0.005995
25.564,68.6834,0.005995
25.672,68.7053,0.005881
25.783,68.7272,0.005881
25.889,68.7485,0.005787
25.999,68.7707,0.005787
26.108,68.7925,0.005787
26.218,68.8145,0.005665
26.327,68.8360,0.005665
26.435,68.8577,0.005476
26.544,68.8796,0.005476
26.654,68.9015,0.005316
26.766,68.9239,0.005316
26.875,68.9457,0.005316
26.985,68.9678,0.005156
27.096,68.9900,0.005156
27.203,69.0114,0.004967
27.315,69.0338,0.004967
27.424,69.0554,0.004713
27.534,69.0776,0.004713
27.645,69.0997,0.004421
27.754,69.1215,0.004421
27.863,69.1432,0.004421
27.972,69.1650,0.004147
28.083,69.1873,0.004147
28.192,69.2090,0.003846
28.302,69.2312,0.003846
28.412,69.2531,0.003403
28.520,69.2748,0.003403
28.629,69.2965,0.002931
28.738,69.3183,0.002931
28.847,69.3401,0.002931
28.956,69.3618,0.002356
29.066,69.3838,0.002356
29.175,69.4057,0.001612
29.283,69.4273,0.001612
29.392,69.4494,0.000735
29.501,69.4710,0.000735
29.611,69.4931,-0.000320
29.721,69.5148,-0.000320
29.832,69.5370,-0.000320
29.940,69.5588,-0.001649
30.049,69.5805,-0.001649
30.158,69.6023,-0.003223
30.267,69.6240,-0.003223
30.376,69.6459,-0.005146
30.486,69.6679,-0.005146
30.593,69.6894,-0.005146
30.700,69.7107,-0.007503
30.809,69.7325,-0.007503
30.918,69.7544,-0.010189
31.027,69.7761,-0.010189
31.136,69.7980,-0.013148
31.244,69.8194,-0.013148
31.353,69.8412,-0.013148
31.464,69.8634,-0.016542
31.574,69.8855,-0.016542
31.682,69.9073,-0.020349
31.790,69.9288,-0.020349
31.900,69.9508,-0.024261
32.010,69.9728,-0.024261
32.120,69.9949,-0.024261
32.229,70.0164,-0.028399
32.338,70.0383,-0.028399
32.446,70.0597,-0.032800
32.555,70.0819,-0.032800
32.664,70.1035,-0.037334
32.773,70.1253,-0.037334
32.883,70.1472,-0.041990
32.990,70.1687,-0.041990
33.100,70.1909,-0.041990
33.210,70.2126,-0.046816
33.318,70.2342,-0.046816
33.428,70.2563,-0.052104
33.537,70.2781,-0.052104
33.647,70.3002,-0.057749
33.757,70.3220,-0.057749
33.864,70.3437,-0.057749
33.973,70.3653,-0.063838
34.083,70.3871,-0.063838
34.192,70.4092,-0.070870
34.301,70.4308,-0.070870
34.412,70.4531,-0.078815
34.519,70.4745,-0.078815
34.627,70.4960,-0.087779
34.736,70.5180,-0.087779
34.846,70.5398,-0.087779
34.955,70.5618,-0.098561
35.066,70.5831,-0.098561
35.175,70.5969,-0.111163
35.285,70.6015,-0.111163
35.395,70.6015,-0.111163
35.504,70.6015,-0.120607
35.613,70.6015,-0.120607
35.719,70.6015,-0.121833
35.829,70.6015,-0.121833
35.939,70.6015,-0.119005
36.048,70.6015,-0.119005
36.156,70.6015,-0.116828
36.267,70.6015,-0.116828
36.375,70.6015,-0.114990
36.485,70.6015,-0.114990
36.594,70.6015,-0.114990
36.703,70.6015,-0.113425
36.812,70.6015,-0.113425
36.920,70.6015,-0.112077
37.029,70.6015,-0.112077
37.139,70.6015,-0.110833
37.249,70.6015,-0.110833
37.359,70.6015,-0.110833
37.469,70.6015,-0.109665
37.579,70.6015,-0.109665
37.689,70.6015,-0.108628
37.799,70.6015,-0.108628
37.909,70.6015,-0.107751
38.019,70.6015,-0.107751
38.128,70.6015,-0.106941
38.236,70.6015,-0.106941
38.345,70.6015,-0.106941
38.455,70.6015,-0.106177
38.564,70.6015,-0.106177
38.673,70.6015,-0.105499
38.782,70.6015,-0.105499
38.890,70.6015,-0.104726
39.001,70.6015,-0.104726
39.109,70.6015,-0.104726
39.220,70.6015,-0.102803
39.330,70.6015,-0.102803
39.439,70.6015,-0.099919
39.548,70.6011,-0.099919
39.657,70.5939,-0.099919
39.767,70.5776,-0.098090
39.875,70.5559,-0.093038
39.984,70.5344,-0.093038
40.093,70.5124,-0.093038
40.203,70.4905,-0.076544
40.313,70.4685,-0.076544
40.420,70.4470,-0.055959
40.532,70.4247,-0.055959
40.639,70.4033,-0.040586
40.749,70.3813,-0.040586
40.858,70.3595,-0.040586
40.967,70.3377,-0.027494
41.076,70.3160,-0.027494
41.185,70.2941,-0.015184
41.292,70.2728,-0.015184
41.401,70.2508,-0.003968
41.510,70.2290,-0.003968
41.621,70.2067,-0.003968
41.729,70.1851,0.006617
41.838,70.1635,0.006617
41.947,70.1418,0.016853
42.055,70.1201,0.016853
42.164,70.0980,0.027230
42.272,70.0766,0.027230
42.381,70.0549,0.038154
42.490,70.0329,0.038154
42.601,70.0110,0.038154
42.710,69.9889,0.049540
42.820,69.9671,0.049540
42.929,69.9451,0.061501
43.038,69.9235,0.061501
43.149,69.9015,0.074527
43.258,69.8796,0.074527
43.367,69.8578,0.074527
43.476,69.8359,0.088429
43.584,69.8143,0.088429
43.691,69.7929,0.102841
43.799,69.7711,0.102841
43.909,69.7494,0.102841
44.019,69.7273,0.118647
44.129,69.7054,0.136282
44.238,69.6836,0.136282
44.348,69.6615,0.136282
44.459,69.6392,0.155651
44.567,69.6177,0.155651
44.676,69.5960,0.177179
44.785,69.5740,0.177179
44.894,69.5522,0.201317
45.004,69.5301,0.201317
45.115,69.5082,0.228340
45.225,69.4861,0.228340
45.334,69.4643,0.228340
45.444,69.4425,0.258369
45.553,69.4206,0.258369
45.661,69.3988,0.292216
45.772,69.3767,0.292216
45.881,69.3549,0.330276
45.990,69.3331,0.330276
46.099,69.3115,0.330276
46.206,69.2899,0.372878
46.317,69.2677,0.372878
46.426,69.2459,0.420477
46.535,69.2241,0.420477
46.643,69.2025,0.473655
46.753,69.1805,0.473655
46.864,69.1582,0.533760
46.973,69.1366,0.533760
47.081,69.1150,0.533760
47.189,69.0933,0.601218
47.298,69.0715,0.601218
47.406,69.0500,0.676329
47.515,69.0280,0.676329
47.624,69.0063,0.676329
47.734,68.9844,0.759263
47.842,68.9626,0.759263
47.950,68.9410,0.850284
48.062,68.9188,0.850284
48.169,68.8975,0.949317
48.277,68.8755,0.949317
48.386,68.8540,1.056267
48.496,68.8320,1.056267
48.604,68.8104,1.056267
48.715,68.7881,1.172058
48.824,68.7663,1.172058
48.932,68.7448,1.296144
49.042,68.7229,1.296144
49.152,68.7008,1.427939
49.260,68.6792,1.427939
49.369,68.6571,1.566888
49.479,68.6353,1.566888
49.588,68.6136,1.566888
49.696,68.5919,1.712567
49.805,68.5700,1.712567
49.916,68.5479,1.865673
50.024,68.5264,1.865673
50.133,68.5046,2.026970
50.243,68.4825,2.026970
50.350,68.4611,2.026970
50.460,68.4390,2.179803
50.571,68.4169,2.179803
50.679,68.3953,1.882931
50.788,68.3736,1.882931
50.896,68.3520,1.031638
51.004,68.3303,1.031638
51.114,68.3085,0.282771
51.223,68.2866,0.282771
51.333,68.2647,0.282771
51.441,68.2427,0.013761
51.551,68.2211,0.013761
51.659,68.1994,0.009020
51.768,68.1777,0.009020
51.879,68.1553,0.009020
51.989,68.1333,0.008907
52.099,68.1114,0.008907
52.208,68.0895,0.008888
52.317,68.0678,0.008888
52.426,68.0460,0.008766
52.535,68.0243,0.008766
52.643,68.0025,0.008671
52.753,67.9807,0.008671
52.862,67.9586,0.008624
52.973,67.9364,0.008624
53.081,67.9150,0.008624
53.190,67.8932,0.008634
53.302,67.8708,0.008634
53.410,67.8491,0.008624
53.520,67.8272,0.008624
53.629,67.8053,0.008634
53.738,67.7835,0.008634
53.847,67.7618,0.008634
53.957,67.7396,0.008587
54.066,67.7178,0.008587
54.176,67.6958,0.008549
54.285,67.6743,0.008549
54.395,67.6523,0.008568
54.503,67.6305,0.008568
54.613,67.6086,0.008549
54.721,67.5869,0.008549
54.830,67.5667,0.008549
54.939,67.5547,0.008558
55.048,67.5515,0.008558
55.158,67.5515,0.008436
55.268,67.5515,0.008436
55.378,67.5515,0.008294
55.485,67.5542,0.008294
55.596,67.5660,0.008294
55.705,67.5860,0.008172
55.814,67.6077,0.008172
55.924,67.6297,0.007917
56.033,67.6516,0.007917
56.140,67.6730,0.007748
56.249,67.6950,0.007748
56.360,67.7169,0.007748
56.469,67.7390,0.007682
56.578,67.7606,0.007682
56.688,67.7827,0.007587
56.797,67.8044,0.007587
56.904,67.8257,0.007493
57.012,67.8474,0.007493
57.123,67.8696,0.007390
57.230,67.8910,0.007390
57.339,67.9128,0.007390
57.448,67.9345,0.007314
57.557,67.9563,0.007314
57.668,67.9785,0.007276
57.776,68.0001,0.007276
57.885,68.0219,0.007163
57.994,68.0438,0.007163
58.102,68.0654,0.007163
58.212,68.0874,0.007041
58.321,68.1091,0.007041
58.429,68.1309,0.006975
58.538,68.1525,0.006975
58.649,68.1747,0.006899
58.758,68.1965,0.006899
58.866,68.2182,0.006786
58.974,68.2398,0.006786
59.084,68.2618,0.006786
59.194,68.2837,0.006683
59.303,68.3055,0.006683
59.411,68.3272,0.006626
59.518,68.3486,0.006626
59.627,68.3704,0.006626
59.736,68.3921,0.006560
59.846,68.4142,0.006560
59.955,68.4361,0.006438
60.066,68.4581,0.006438
60.176,68.4802,0.006315
60.286,68.5021,0.006315
60.395,68.5239,0.006211
60.504,68.5458,0.006211
60.614,68.5676,0.006211
60.723,68.5894,0.006136
60.832,68.6114,0.006136
60.940,68.6331,0.006032
61.048,68.6544,0.006032
61.156,68.6761,0.005863
61.266,68.6981,0.005863
61.376,68.7200,0.005721
61.485,68.7419,0.005721
61.593,68.7636,0.005721
61.702,68.7853,0.005570
61.810,68.8070,0.005570
61.917,68.8284,0.005438
62.027,68.8504,0.005438
62.135,68.8720,0.005278
62.245,68.8939,0.005278
62.354,68.9157,0.005278
62.466,68.9381,0.005099
62.575,68.9599,0.005099
62.685,68.9821,0.004967
62.795,69.0038,0.004967
62.904,69.0257,0.004713
63.014,69.0478,0.004713
63.120,69.0690,0.004345
63.228,69.0906,0.004345
63.337,69.1122,0.004345
63.447,69.1343,0.004015
63.555,69.1560,0.004015
63.664,69.1775,0.003657
63.773,69.1996,0.003657
63.883,69.2216,0.003657
63.989,69.2427,0.003167
64.099,69.2646,0.003167
64.207,69.2863,0.002620
64.318,69.3085,0.002620
64.428,69.3305,0.002008
64.535,69.3519,0.002008
64.646,69.3742,0.001206
64.755,69.3960,0.001206
64.865,69.4178,0.001206
64.973,69.4395,0.000217
65.082,69.4613,0.000217
65.190,69.4831,-0.001018
65.300,69.5050,-0.001018
65.410,69.5270,-0.002554
65.520,69.5490,-0.002554
65.630,69.5708,-0.004317
65.740,69.5929,-0.004317
65.849,69.6149,-0.004317
65.960,69.6369,-0.006485
66.068,69.6585,-0.006485
66.177,69.6803,-0.009011
66.286,69.7023,-0.009011
66.396,69.7242,-0.011857
66.503,69.7456,-0.011857
66.614,69.7676,-0.015052
66.724,69.7896,-0.015052
66.833,69.8116,-0.015052
66.941,69.8331,-0.018662
67.049,69.8547,-0.018662
67.159,69.8767,-0.022621
67.269,69.8989,-0.022621
67.379,69.9207,-0.026740
67.487,69.9424,-0.026740
67.595,69.9641,-0.026740
67.706,69.9861,-0.031038
67.815,70.0080,-0.031038
67.926,70.0301,-0.035496
68.038,70.0524,-0.035496
68.148,70.0745,-0.040030
68.256,70.0961,-0.040030
68.364,70.1178,-0.040030
68.472,70.1395,-0.044695
68.581,70.1609,-0.044695
68.691,70.1831,-0.049804
68.801,70.2051,-0.049804
68.910,70.2269,-0.055289
69.018,70.2486,-0.055289
69.127,70.2703,-0.061171
69.235,70.2918,-0.061171
69.345,70.3137,-0.061171
69.452,70.3353,-0.067787
69.563,70.3576,-0.067787
69.673,70.3793,-0.075356
69.781,70.4012,-0.075356
69.890,70.4229,-0.075356
69.999,70.4447,-0.083839
70.109,70.4669,-0.083839
70.217,70.4883,-0.093764
70.325,70.5099,-0.093764
70.434,70.5313,-0.105555
70.544,70.5459,-0.105555
70.653,70.5515,-0.117846
70.764,70.5515,-0.117846
70.871,70.5515,-0.123416
70.979,70.5515,-0.123416
71.087,70.5515,-0.123416
71.198,70.5515,-0.121597
71.308,70.5515,-0.121597
71.419,70.5515,-0.119005
71.530,70.5515,-0.119005
71.639,70.5515,-0.116894
71.746,70.5515,-0.116894
71.857,70.5515,-0.116894
71.965,70.5515,-0.115207
72.075,70.5515,-0.115207
72.186,70.5515,-0.113774
72.297,70.5515,-0.113774
72.405,70.5515,-0.112483
72.515,70.5515,-0.112483
72.623,70.5515,-0.111173
72.731,70.5515,-0.111173
72.841,70.5515,-0.111173
72.949,70.5515,-0.110089
73.058,70.5515,-0.110089
73.168,70.5515,-0.109259
73.278,70.5515,-0.109259
73.386,70.5515,-0.108326
73.496,70.5515,-0.108326
73.605,70.5515,-0.108326
73.715,70.5515,-0.107506
73.824,70.5515,-0.107506
73.933,70.5515,-0.106846
74.043,70.5515,-0.106846
74.153,70.5515,-0.106149
74.263,70.5515,-0.106149
74.373,70.5515,-0.104763
74.484,70.5515,-0.104763
74.593,70.5515,-0.104763
74.705,70.5515,-0.101945
74.815,70.5515,-0.101945
74.923,70.5481,-0.099476
75.032,70.5360,-0.099476
75.140,70.5156,-0.099476
75.249,70.4938,-0.096507
75.358,70.4721,-0.096507
75.468,70.4499,-0.082670
75.576,70.4284,-0.082670
75.685,70.4066,-0.061538
75.794,70.3849,-0.061538
75.903,70.3631,-0.044884
76.012,70.3413,-0.044884
76.124,70.3188,-0.031377
76.232,70.2974,-0.031377
76.342,70.2754,-0.031377
76.450,70.2538,-0.018851
76.559,70.2317,-0.018851
76.667,70.2102,-0.007295
76.776,70.1885,-0.007295
76.885,70.1666,0.003280
76.994,70.1449,0.003280
77.102,70.1231,0.003280
77.212,70.1013,0.013591
77.322,70.0793,0.013591
77.431,70.0572,0.024016
77.539,70.0358,0.024016
77.648,70.0140,0.034657
77.758,69.9921,0.034657
77.866,69.9704,0.045741
77.976,69.9484,0.045741
78.086,69.9265,0.045741
78.195,69.9048,0.057457
78.303,69.8831,0.057457
78.412,69.8614,0.070134
78.520,69.8397,0.070134
78.630,69.8176,0.083773
78.738,69.7960,0.083773
78.848,69.7741,0.083773
78.956,69.7523,0.098034
79.067,69.7302,0.098034
79.176,69.7085,0.113340
79.283,69.6870,0.113340
79.394,69.6650,0.113340
79.502,69.6431,0.130297
79.611,69.6214,0.130297
79.720,69.5996,0.149006
79.829,69.5778,0.149006
79.939,69.5558,0.169808
80.048,69.5341,0.169808
80.158,69.5122,0.192910
80.267,69.4902,0.192910
80.377,69.4683,0.218830
80.485,69.4467,0.218830
80.594,69.4248,0.218830
80.703,69.4031,0.247803
80.812,69.3814,0.247803
80.922,69.3592,0.280208
81.030,69.3378,0.280208
81.141,69.3156,0.316693
81.250,69.2938,0.316693
81.358,69.2721,0.316693
81.467,69.2503,0.357609
81.576,69.2286,0.357609
81.686,69.2066,0.403426
81.795,69.1846,0.403426
81.906,69.1625,0.454615
82.015,69.1406,0.454615
82.126,69.1184,0.454615
82.233,69.0972,0.512619
82.342,69.0753,0.512619
82.449,69.0539,0.577975
82.560,69.0317,0.577975
82.666,69.0105,0.650692
82.774,68.9889,0.650692
82.883,68.9672,0.731194
82.994,68.9450,0.731194
83.103,68.9232,0.731194
83.211,68.9013,0.819199
83.321,68.8796,0.819199
83.429,68.8579,0.915386
83.538,68.8360,0.915386
83.648,68.8143,1.020074
83.758,68.7921,1.020074
83.866,68.7706,1.133386
83.976,68.7485,1.133386
84.086,68.7266,1.133386
84.194,68.7050,1.254672
84.302,68.6832,1.254672
84.412,68.6612,1.376608
84.522,68.6394,1.376608
84.631,68.6173,1.376608
84.739,68.5959,1.466036
84.849,68.5737,1.466036
84.959,68.5520,1.516283
85.066,68.5306,1.516283
85.175,68.5088,1.542505
85.285,68.4865,1.542505
85.396,68.4647,1.248828
85.505,68.4428,1.248828
85.615,68.4208,1.248828
85.723,68.3992,0.492779
85.831,68.3773,0.492779
85.941,68.3556,0.023545
86.048,68.3339,0.023545
86.159,68.3119,0.010274
86.270,68.2897,0.010274
86.379,68.2680,0.009331
86.489,68.2458,0.009331
86.598,68.2241,0.009331
86.707,68.2023,0.008954
86.816,68.1805,0.008954
86.924,68.1589,0.008784
87.034,68.1367,0.008784
87.142,68.1153,0.008681
87.250,68.0937,0.008681
87.359,68.0719,0.008681
87.470,68.0499,0.008671
87.579,68.0278,0.008671
87.689,68.0059,0.008643
87.798,67.9842,0.008643
87.907,67.9622,0.008549
88.017,67.9404,0.008549
88.125,67.9186,0.008521
88.235,67.8968,0.008521
88.342,67.8754,0.008521
88.452,67.8533,0.008568
88.562,67.8313,0.008568
88.673,67.8092,0.008521
88.781,67.7876,0.008521
88.889,67.7660,0.008473
88.998,67.7443,0.008473
89.105,67.7226,0.008473
89.214,67.7009,0.008511
89.323,67.6791,0.008511
89.434,67.6571,0.008549
89.542,67.6353,0.008549
89.652,67.6134,0.008577
89.762,67.5914,0.008577
89.870,67.5697,0.008577
89.979,67.5479,0.008624
90.089,67.5259,0.008624
90.198,67.5096,0.008634
90.307,67.5020,0.008634
90.416,67.5015,0.008389
90.524,67.5015,0.008389
90.634,67.5015,0.008172
90.743,67.5015,0.008172
90.853,67.5029,0.008172
90.962,67.5123,0.008228
91.070,67.5305,0.008228
91.180,67.5526,0.008012
91.289,67.5743,0.008012
91.399,67.5965,0.007738
91.508,67.6181,0.007738
91.617,67.6399,0.007672
91.725,67.6615,0.007672
91.834,67.6836,0.007672
91.945,67.7055,0.007625
92.055,67.7275,0.007625
92.162,67.7492,0.007550
92.272,67.7707,0.007550
92.380,67.7926,0.007465
92.490,67.8145,0.007465
92.600,67.8366,0.007465
92.709,67.8584,0.007352
92.818,67.8801,0.007352
92.926,67.9016,0.007229
93.034,67.9233,0.007229
93.142,67.9449,0.007182
93.253,67.9672,0.007182
93.362,67.9889,0.007182
93.471,68.0107,0.007069
93.580,68.0326,0.007069
93.688,68.0541,0.006965
93.797,68.0760,0.006965
93.907,68.0978,0.006909
94.016,68.1196,0.006909
94.125,68.1416,0.006843
94.235,68.1634,0.006843
94.345,68.1856,0.006843
94.454,68.2072,0.006739
94.563,68.2293,0.006739
94.673,68.2511,0.006598
94.780,68.2724,0.006598
94.889,68.2942,0.006551
94.996,68.3156,0.006551
95.106,68.3379,0.006551
95.215,68.3594,0.006447
95.325,68.3814,0.006447
95.434,68.4031,0.006334
95.543,68.4251,0.006334
95.652,68.4469,0.006258
95.759,68.4683,0.006258
95.868,68.4902,0.006258
95.979,68.5123,0.006183
96.087,68.5339,0.006183
96.195,68.5554,0.006174
96.303,68.5771,0.006174
96.413,68.5990,0.006051
96.523,68.6209,0.006051
96.631,68.6428,0.005853
96.739,68.6643,0.005853
96.849,68.6864,0.005853
96.958,68.7080,0.005674
97.069,68.7303,0.005674
97.178,68.7520,0.005580
97.288,68.7741,0.005580
97.397,68.7958,0.005391
97.508,68.8180,0.005391
97.618,68.8400,0.005391
97.728,68.8622,0.005156
97.838,68.8841,0.005156
97.947,68.9058,0.005033
98.056,68.9276,0.005033
98.165,68.9495,0.004826
98.275,68.9715,0.004826
98.383,68.9930,0.004534
98.493,69.0150,0.004534
98.602,69.0368,0.004534
98.712,69.0589,0.004204
98.822,69.0808,0.004204
98.932,69.1028,0.003883
99.040,69.1246,0.003883
99.149,69.1463,0.003412
99.258,69.1680,0.003412
99.367,69.1899,0.003412
99.476,69.2117,0.002912
99.586,69.2339,0.002912
99.697,69.2557,0.002403
99.805,69.2774,0.002403
99.914,69.2995,0.001593
100.024,69.3212,0.001593
100.133,69.3431,0.000707
100.244,69.3652,0.000707
100.351,69.3865,0.000707
100.461,69.4087,-0.000283
100.572,69.4307,-0.000283
100.679,69.4524,-0.001649
100.788,69.4740,-0.001649
100.898,69.4960,-0.003289
101.007,69.5179,-0.003289
101.117,69.5397,-0.005193
101.227,69.5618,-0.005193
101.336,69.5837,-0.005193
101.447,69.6058,-0.007455
101.557,69.6279,-0.007455
101.666,69.6496,-0.010104
101.774,69.6713,-0.010104
101.884,69.6932,-0.013196
101.992,69.7148,-0.013196
102.102,69.7368,-0.013196
102.211,69.7587,-0.016749
102.319,69.7804,-0.016749
102.429,69.8023,-0.020529
102.538,69.8240,-0.020529
102.647,69.8458,-0.024534
102.756,69.8677,-0.024534
102.863,69.8891,-0.024534
102.974,69.9111,-0.028766
103.083,69.9331,-0.028766
103.192,69.9549,-0.033159
103.301,69.9766,-0.033159
103.410,69.9985,-0.037702
103.519,70.0203,-0.037702
103.627,70.0419,-0.042311
103.736,70.0636,-0.042311
103.845,70.0855,-0.042311
103.956,70.1076,-0.047108
104.066,70.1297,-0.047108
104.175,70.1514,-0.052368
104.284,70.1732,-0.052368
104.394,70.1952,-0.058079
104.503,70.2170,-0.058079
104.611,70.2386,-0.058079
104.718,70.2599,-0.064300
104.828,70.2821,-0.064300
104.939,70.3043,-0.071303
105.047,70.3259,-0.071303
105.155,70.3473,-0.071303
105.265,70.3694,-0.079202
105.374,70.3911,-0.088335
105.483,70.4131,-0.088335
105.592,70.4348,-0.088335
105.699,70.4564,-0.099221
105.809,70.4781,-0.099221
105.920,70.4943,-0.111842
106.029,70.5011,-0.111842
106.138,70.5015,-0.121946
106.246,70.5015,-0.121946
106.355,70.5015,-0.121946
106.463,70.5015,-0.123916
106.574,70.5015,-0.123916
106.682,70.5015,-0.121126
106.789,70.5015,-0.121126
106.899,70.5015,-0.118751
107.011,70.5015,-0.118751
107.118,70.5015,-0.118751
107.226,70.5015,-0.116941
107.337,70.5015,-0.116941
107.444,70.5015,-0.115386
107.552,70.5015,-0.115386
107.663,70.5015,-0.113972
107.772,70.5015,-0.113972
107.884,70.5015,-0.112737
107.996,70.5015,-0.112737
108.106,70.5015,-0.112737
108.216,70.5015,-0.111597
108.325,70.5015,-0.111597
108.435,70.5015,-0.110626
108.546,70.5015,-0.110626
108.657,70.5015,-0.109778
108.767,70.5015,-0.109778
108.876,70.5015,-0.108948
108.984,70.5015,-0.108948
109.091,70.5015,-0.108948
109.200,70.5015,-0.108185
109.308,70.5015,-0.108185
109.418,70.5015,-0.107468
109.527,70.5015,-0.107468
109.638,70.5015,-0.106630
109.748,70.5015,-0.106630
109.858,70.5015,-0.106630
109.967,70.5015,-0.104716
110.078,70.5015,-0.104716
110.188,70.5015,-0.101794
110.298,70.5015,-0.101794
110.407,70.4960,-0.101794
110.517,70.4814,-0.099985
110.625,70.4601,-0.095819
110.733,70.4385,-0.095819
110.844,70.4164,-0.095819
110.952,70.3947,-0.079984
111.062,70.3728,-0.079984
111.169,70.3513,-0.058899
111.279,70.3295,-0.058899
111.387,70.3076,-0.042933
111.496,70.2859,-0.042933
111.605,70.2641,-0.042933
111.715,70.2423,-0.029643
111.825,70.2203,-0.029643
111.934,70.1984,-0.017286
112.044,70.1764,-0.017286
112.153,70.1546,-0.005929
112.263,70.1328,-0.005929
112.372,70.1108,-0.005929
112.480,70.0894,0.004722
112.588,70.0677,0.004722
112.698,70.0456,0.015052
112.806,70.0241,0.015052
112.915,70.0023,0.025373
113.024,69.9805,0.025373
113.134,69.9585,0.036062
113.242,69.9366,0.036062
113.353,69.9146,0.036062
113.464,69.8925,0.047174
113.571,69.8708,0.047174
113.680,69.8493,0.058956
113.789,69.8274,0.058956
113.897,69.8057,0.071812
114.006,69.7841,0.071812
114.116,69.7621,0.071812
114.225,69.7404,0.085583
114.334,69.7184,0.085583
114.443,69.6967,0.099853
114.552,69.6748,0.099853
114.662,69.6527,0.115292
114.772,69.6309,0.115292
114.880,69.6093,0.132568
114.988,69.5874,0.132568
115.099,69.5654,0.132568
115.206,69.5439,0.151579
115.317,69.5220,0.151579
115.425,69.5003,0.172494
115.533,69.4784,0.172494
115.642,69.4568,0.195822
115.752,69.4350,0.195822
115.860,69.4132,0.195822
115.970,69.3914,0.222147
116.078,69.3697,0.222147
116.187,69.3478,0.251404
116.295,69.3261,0.251404
116.405,69.3043,0.251404
116.513,69.2825,0.284242
116.623,69.2606,0.321312
116.732,69.2388,0.321312
116.842,69.2167,0.321312
116.951,69.1949,0.362897
117.060,69.1732,0.362897
117.168,69.1516,0.362897
117.277,69.1298,0.409505
117.385,69.1082,0.461798
117.495,69.0861,0.461798
117.604,69.0646,0.461798
117.713,69.0426,0.520857
117.823,69.0208,0.520857
117.929,68.9994,0.587250
118.039,68.9772,0.587250
118.150,68.9552,0.660985
118.259,68.9335,0.660985
118.368,68.9116,0.660985
118.477,68.8897,0.741798
118.586,68.8681,0.741798
118.695,68.8463,0.829435
118.805,68.8243,0.829435
118.914,68.8025,0.892463
119.021,68.7812,0.892463
119.131,68.7591,0.863536
119.240,68.7374,0.863536
119.348,68.7157,0.863536
119.458,68.6936,0.803044
119.567,68.6719,0.803044
119.675,68.6503,0.784344
119.784,68.6286,0.784344
119.892,68.6069,0.764900
120.002,68.5850,0.764900
120.111,68.5629,0.764900
120.220,68.5413,0.704398
120.329,68.5195,0.704398
120.437,68.4979,0.571566
120.547,68.4759,0.571566
120.657,68.4539,0.258133
120.768,68.4318,0.258133
120.874,68.4103,0.022272
120.982,68.3888,0.022272
121.090,68.3673,0.022272
121.200,68.3451,0.011339
121.310,68.3233,0.011339
121.420,68.3012,0.009699
121.530,68.2791,0.009699
121.639,68.2574,0.009312
121.749,68.2355,0.009312
121.859,68.2135,0.009312
121.971,68.1912,0.009096
122.078,68.1697,0.009096
122.186,68.1480,0.008954
122.295,68.1263,0.008954
122.405,68.1044,0.008813
122.513,68.0827,0.008813
122.623,68.0607,0.008813
122.730,68.0393,0.008662
122.838,68.0178,0.008662
122.947,67.9958,0.008587
123.057,67.9736,0.008587
123.167,67.9519,0.008577
123.276,67.9302,0.008577
123.384,67.9084,0.008539
123.493,67.8868,0.008539
123.603,67.8646,0.008539
123.711,67.8431,0.008473
123.821,67.8211,0.008473
123.928,67.7998,0.008445
124.036,67.7782,0.008445
124.145,67.7564,0.008473
124.254,67.7344,0.008473
124.366,67.7122,0.008473
124.473,67.6908,0.008521
124.584,67.6687,0.008521
124.691,67.6470,0.008558
124.803,67.6248,0.008558
124.911,67.6031,0.008549
125.021,67.5811,0.008549
125.126,67.5600,0.008539
125.235,67.5383,0.008539
125.343,67.5169,0.008539
125.452,67.4950,0.008558
125.560,67.4735,0.008558
125.670,67.4580,0.008587
125.781,67.4516,0.008587
125.889,67.4515,0.008417
125.998,67.4515,0.008417
126.107,67.4515,0.008417
126.217,67.4515,0.008228
126.323,67.4515,0.008228
126.434,67.4541,0.008200
126.543,67.4653,0.008200
126.652,67.4851,0.007983
126.759,67.5066,0.007983
126.868,67.5284,0.007983
126.976,67.5501,0.007776
127.086,67.5719,0.007776
127.196,67.5939,0.007682
127.303,67.6155,0.007682
127.411,67.6370,0.007540
127.521,67.6590,0.007540
127.630,67.6808,0.007493
127.740,67.7027,0.007493
127.849,67.7246,0.007493
127.958,67.7466,0.007408
128.066,67.7680,0.007408
128.176,67.7900,0.007324
128.286,67.8119,0.007324
128.394,67.8335,0.007229
128.504,67.8557,0.007229
128.613,67.8773,0.007229
128.722,67.8991,0.007126
128.832,67.9212,0.007126
128.940,67.9429,0.007107
129.050,67.9648,0.007107
129.158,67.9864,0.007069
129.267,68.0084,0.007069
129.377,68.0302,0.006975
129.486,68.0520,0.006975
129.596,68.0740,0.006975
129.705,68.0957,0.006881
129.814,68.1176,0.006881
129.923,68.1395,0.006777
130.031,68.1609,0.006777
130.140,68.1828,0.006683
130.249,68.2046,0.006683
130.358,68.2265,0.006683
130.468,68.2484,0.006588
130.579,68.2704,0.006588
130.686,68.2920,0.006447
130.794,68.3136,0.006447
130.903,68.3354,0.006306
131.014,68.3575,0.006306
131.123,68.3793,0.006268
131.232,68.4010,0.006268
131.341,68.4229,0.006268
131.449,68.4446,0.006249
131.560,68.4668,0.006249
131.669,68.4887,0.006098
131.777,68.5104,0.006098
131.886,68.5319,0.005957
131.993,68.5535,0.005957
132.102,68.5750,0.005957
132.212,68.5970,0.005815
132.321,68.6192,0.005815
132.430,68.6408,0.005674
132.540,68.6627,0.005674
132.650,68.6847,0.005589
132.758,68.7063,0.005589
132.868,68.7283,0.005429
132.978,68.7503,0.005429
133.087,68.7724,0.005429
133.193,68.7933,0.005222
133.301,68.8149,0.005222
133.409,68.8367,0.005052
133.519,68.8586,0.005052
133.627,68.8801,0.004807
133.737,68.9021,0.004807
133.846,68.9240,0.004807
133.957,68.9462,0.004562
134.065,68.9676,0.004562
134.174,68.9895,0.004289
134.284,69.0116,0.004289
134.392,69.0332,0.003940
134.503,69.0553,0.003940
134.610,69.0768,0.003940
134.719,69.0985,0.003487
134.830,69.1207,0.003487
134.939,69.1426,0.002997
135.049,69.1645,0.002997
135.156,69.1859,0.002469
135.264,69.2074,0.002469
135.373,69.2294,0.001800
135.483,69.2512,0.001800
135.592,69.2732,0.001800
135.703,69.2954,0.000943
135.812,69.3169,0.000943
135.919,69.3387,-0.000085
136.028,69.3604,-0.000085
136.139,69.3826,-0.001357
136.248,69.4044,-0.001357
136.355,69.4257,-0.001357
136.465,69.4478,-0.002950
136.574,69.4695,-0.002950
136.683,69.4913,-0.004760
136.791,69.5132,-0.004760
136.900,69.5347,-0.006909
137.009,69.5564,-0.006909
137.118,69.5783,-0.009557
137.226,69.6000,-0.009557
137.336,69.6219,-0.009557
137.444,69.6435,-0.012555
137.551,69.6648,-0.012555
137.659,69.6865,-0.015910
137.766,69.7080,-0.015910
137.875,69.7298,-0.019690
137.985,69.7518,-0.019690
138.095,69.7738,-0.019690
138.206,69.7958,-0.023648
138.313,69.8175,-0.023648
138.421,69.8390,-0.027890
138.529,69.8604,-0.027890
138.638,69.8822,-0.032273
138.747,69.9042,-0.032273
138.856,69.9259,-0.032273
138.966,69.9480,-0.036703
139.076,69.9698,-0.036703
139.185,69.9919,-0.041255
139.294,70.0135,-0.041255
139.403,70.0355,-0.046062
139.513,70.0574,-0.046062
139.621,70.0789,-0.046062
139.731,70.1008,-0.051227
139.840,70.1227,-0.051227
139.949,70.1446,-0.056779
140.058,70.1663,-0.056779
140.166,70.1881,-0.062924
140.275,70.2097,-0.062924
140.386,70.2320,-0.069701
140.495,70.2536,-0.069701
140.603,70.2753,-0.069701
140.714,70.2976,-0.077364
140.822,70.3192,-0.077364
140.931,70.3410,-0.086176
141.040,70.3627,-0.086176
141.149,70.3847,-0.096723
141.258,70.4064,-0.096723
141.365,70.4277,-0.096723
141.473,70.4438,-0.109061
141.582,70.4510,-0.109061
141.689,70.4515,-0.120636
141.798,70.4515,-0.120636
141.906,70.4515,-0.124679
142.016,70.4515,-0.124679
142.126,70.4515,-0.122285
142.236,70.4515,-0.122285
142.346,70.4515,-0.122285
142.455,70.4515,-0.119948
142.563,70.4515,-0.119948
142.670,70.4515,-0.118072
142.781,70.4515,-0.118072
142.890,70.4515,-0.116423
142.998,70.4515,-0.116423
143.108,70.4515,-0.116423
143.216,70.4515,-0.114971
143.325,70.4515,-0.114971
143.436,70.4515,-0.113765
143.546,70.4515,-0.113765
143.656,70.4515,-0.112681
143.765,70.4515,-0.112681
143.873,70.4515,-0.112681
143.983,70.4515,-0.111597
144.091,70.4515,-0.111597
144.200,70.4515,-0.110654
144.308,70.4515,-0.110654
144.418,70.4515,-0.109872
144.528,70.4515,-0.109872
144.636,70.4515,-0.109137
144.745,70.4515,-0.109137
144.855,70.4515,-0.109137
144.965,70.4515,-0.108458
145.073,70.4515,-0.108458
145.182,70.4515,-0.107648
145.289,70.4515,-0.107648
145.400,70.4515,-0.107648
145.510,70.4515,-0.105819
145.619,70.4515,-0.105819
145.727,70.4515,-0.102737
145.835,70.4514,-0.102737
145.946,70.4456,-0.100475
146.055,70.4308,-0.100475
146.164,70.4093,-0.097383
146.273,70.3875,-0.097383
146.384,70.3652,-0.083057
146.494,70.3434,-0.083057
146.603,70.3214,-0.083057
146.713,70.2996,-0.061802
146.820,70.2780,-0.061802
146.929,70.2562,-0.045280
147.039,70.2342,-0.045280
147.148,70.2125,-0.031924
147.257,70.1907,-0.031924
147.366,70.1690,-0.019539
147.475,70.1472,-0.019539
147.585,70.1251,-0.019539
147.695,70.1030,-0.007964
147.805,70.0811,-0.007964
147.911,70.0598,0.002743
148.020,70.0379,0.002743
148.130,70.0161,0.013026
148.241,69.9940,0.013026
148.350,69.9720,0.013026
148.461,69.9500,0.023271
148.570,69.9279,0.023271
148.678,69.9064,0.033818
148.788,69.8845,0.033818
148.895,69.8630,0.044884
149.005,69.8408,0.044884
149.116,69.8189,0.044884
149.225,69.7972,0.056666
149.333,69.7755,0.056666
149.442,69.7536,0.069192
149.550,69.7318,0.069192
149.661,69.7099,0.069192
149.770,69.6881,0.082604
149.878,69.6664,0.096761
149.988,69.6446,0.096761
150.097,69.6225,0.096761
150.206,69.6008,0.111936
150.316,69.5789,0.111936
150.425,69.5569,0.128808
150.533,69.5355,0.128808
150.642,69.5136,0.147291
150.752,69.4917,0.147291
150.861,69.4699,0.167706
150.969,69.4483,0.167706
151.078,69.4266,0.167706
151.186,69.4049,0.190525
151.296,69.3829,0.190525
151.405,69.3611,0.216040
151.515,69.3391,0.216040
151.623,69.3174,0.244627
151.732,69.2955,0.244627
151.842,69.2738,0.244627
151.950,69.2521,0.276626
152.061,69.2299,0.276626
152.169,69.2083,0.312820
152.278,69.1864,0.312820
152.387,69.1646,0.353537
152.497,69.1426,0.353537
152.606,69.1209,0.353537
152.715,69.0989,0.399279
152.822,69.0776,0.399279
152.930,69.0561,0.450572
153.040,69.0340,0.450572
153.149,69.0123,0.508095
153.257,68.9906,0.508095
153.366,68.9689,0.508095
153.473,68.9474,0.573046
153.584,68.9253,0.573046
153.694,68.9032,0.645235
153.803,68.8815,0.645235
153.912,68.8597,0.724926
154.022,68.8376,0.724926
154.130,68.8160,0.812573
154.241,68.7939,0.812573
154.348,68.7725,0.812573
154.456,68.7508,0.908656
154.566,68.7290,0.908656
154.676,68.7070,1.013127
154.785,68.6852,1.013127
154.894,68.6635,1.125261
154.999,68.6423,1.125261
155.108,68.6206,1.125261
155.217,68.5986,1.245218
155.325,68.5771,1.245218
155.434,68.5552,1.372602
155.542,68.5336,1.372602
155.652,68.5118,1.507706
155.761,68.4897,1.507706
155.869,68.4683,1.649794
155.980,68.4462,1.649794
156.089,68.4242,1.649794
156.199,68.4023,1.799008
156.307,68.3807,1.799008
156.415,68.3591,1.957326
156.525,68.3372,1.957326
156.635,68.3151,2.125447
156.745,68.2931,2.125447
156.853,68.2716,2.125447
156.962,68.2496,2.303380
157.071,68.2280,2.303380
157.180,68.2061,2.248505
157.290,68.1841,2.248505
157.399,68.1623,1.646863
157.508,68.1406,1.646863
157.616,68.1190,0.609201
157.726,68.0971,0.609201
157.836,68.0749,0.609201
157.947,68.0527,0.018634
158.055,68.0312,0.018634
158.165,68.0091,0.009567
158.273,67.9875,0.009567
158.382,67.9657,0.008898
158.492,67.9439,0.008898
158.604,67.9213,0.008898
158.710,67.9000,0.008992
158.818,67.8785,0.008992
158.928,67.8566,0.008926
159.037,67.8349,0.008926
159.146,67.8129,0.008926
159.255,67.7912,0.008756
159.363,67.7694,0.008756
159.472,67.7479,0.008766
159.579,67.7261,0.008766
159.688,67.7045,0.008747
159.797,67.6828,0.008747
159.905,67.6611,0.008700
160.014,67.6394,0.008700
160.122,67.6178,0.008756
160.232,67.5959,0.008756
160.342,67.5738,0.008756
160.450,67.5520,0.008756
160.558,67.5305,0.008756
160.668,67.5084,0.008756
160.778,67.4865,0.008756
160.887,67.4647,0.008775
160.995,67.4432,0.008775
161.104,67.4219,0.008775
161.215,67.4070,0.008813
161.323,67.4015,0.008813
161.432,67.4015,0.008587
161.540,67.4015,0.008587
161.650,67.4015,0.008332
161.759,67.4015,0.008332
161.867,67.4066,0.008332
161.976,67.4208,0.008313
162.083,67.4417,0.008313
162.193,67.4637,0.008087
162.300,67.4851,0.008087
162.409,67.5068,0.007823
162.519,67.5290,0.007823
162.629,67.5507,0.007738
162.738,67.5727,0.007738
162.847,67.5944,0.007738
162.955,67.6161,0.007710
163.064,67.6377,0.007710
163.173,67.6596,0.007701
163.282,67.6815,0.007701
163.390,67.7030,0.007550
163.499,67.7249,0.007550
163.608,67.7466,0.007550
163.718,67.7685,0.007390
163.826,67.7903,0.007390
163.936,67.8123,0.007286
164.046,67.8342,0.007286
164.155,67.8560,0.007220
164.265,67.8779,0.007220
164.373,67.8995,0.007192
164.482,67.9213,0.007192
164.589,67.9429,0.007192
164.699,67.9648,0.007116
164.809,67.9868,0.007116
164.919,68.0086,0.007031
165.028,68.0306,0.007031
165.137,68.0524,0.007031
165.245,68.0739,0.006937
165.353,68.0956,0.006937
165.463,68.1176,0.006833
165.571,68.1391,0.006833
165.681,68.1613,0.006711
165.790,68.1830,0.006711
165.899,68.2048,0.006664
166.009,68.2268,0.006664
166.118,68.2485,0.006626
166.227,68.2703,0.006626
166.337,68.2923,0.006626
166.447,68.3143,0.006447
166.555,68.3360,0.006447
166.664,68.3577,0.006334
166.773,68.3795,0.006334
166.880,68.4009,0.006240
166.989,68.4229,0.006240
167.099,68.4448,0.006240
167.210,68.4671,0.006145
167.320,68.4891,0.006145
167.430,68.5110,0.006070
167.540,68.5329,0.006070
167.650,68.5551,0.005919
167.759,68.5768,0.005919
167.867,68.5982,0.005919
167.975,68.6201,0.005749
168.083,68.6416,0.005749
168.191,68.6632,0.005552
168.302,68.6853,0.005552
168.410,68.7069,0.005401
168.518,68.7286,0.005401
168.627,68.7504,0.005231
168.737,68.7725,0.005231
168.847,68.7944,0.005231
168.956,68.8163,0.004995
169.065,68.8381,0.004995
169.174,68.8597,0.004741
169.282,68.8813,0.004741
169.390,68.9030,0.004477
169.498,68.9247,0.004477
169.608,68.9465,0.004477
169.716,68.9681,0.004223
169.825,68.9900,0.004223
169.935,69.0120,0.003827
170.044,69.0337,0.003827
170.152,69.0554,0.003280
170.261,69.0771,0.003280
170.370,69.0989,0.002715
170.478,69.1205,0.002715
170.587,69.1423,0.002715
170.696,69.1642,0.002168
170.805,69.1860,0.002168
170.914,69.2078,0.001442
171.024,69.2296,0.001442
171.133,69.2516,0.000500
171.244,69.2738,0.000500
171.353,69.2955,0.000500
171.462,69.3172,-0.000679
171.570,69.3390,-0.000679
171.680,69.3609,-0.002158
171.790,69.3829,-0.002158
171.899,69.4048,-0.003874
172.012,69.4273,-0.003874
172.118,69.4485,-0.003874
172.226,69.4701,-0.005919
172.336,69.4921,-0.005919
172.448,69.5145,-0.008407
172.557,69.5363,-0.008407
172.667,69.5584,-0.011188
172.777,69.5805,-0.011188
172.885,69.6021,-0.014298
172.996,69.6242,-0.014298
173.105,69.6459,-0.014298
173.214,69.6678,-0.017908
173.323,69.6894,-0.017908
173.433,69.7115,-0.021876
173.542,69.7333,-0.021876
173.650,69.7550,-0.025976
173.761,69.7772,-0.025976
173.869,69.7988,-0.025976
173.977,69.8204,-0.030256
174.086,69.8421,-0.030256
174.196,69.8641,-0.034761
174.304,69.8857,-0.034761
174.416,69.9080,-0.039379
174.524,69.9299,-0.039379
174.633,69.9516,-0.044101
174.742,69.9733,-0.044101
174.849,69.9947,-0.044101
174.960,70.0171,-0.049031
175.070,70.0389,-0.049031
175.180,70.0608,-0.054375
175.290,70.0829,-0.054375
175.399,70.1047,-0.060247
175.509,70.1267,-0.060247
175.619,70.1488,-0.066713
175.729,70.1707,-0.066713
175.840,70.1929,-0.066713
175.950,70.2151,-0.073980
176.060,70.2371,-0.073980
176.170,70.2589,-0.082180
176.279,70.2807,-0.082180
176.388,70.3024,-0.091634
176.499,70.3246,-0.091634
176.608,70.3466,-0.091634
176.719,70.3687,-0.103010
176.828,70.3883,-0.103010
176.937,70.3992,-0.116036
177.046,70.4015,-0.116036
177.154,70.4015,-0.125000
177.262,70.4015,-0.125000
177.372,70.4015,-0.125000
177.482,70.4015,-0.125546
177.589,70.4015,-0.125546
177.698,70.4015,-0.122672
177.808,70.4015,-0.122672
177.917,70.4015,-0.120381
178.025,70.4015,-0.120381
178.134,70.4015,-0.118449
178.243,70.4015,-0.118449
178.353,70.4015,-0.118449
178.462,70.4015,-0.116809
178.573,70.4015,-0.116809
178.684,70.4015,-0.115423
178.795,70.4015,-0.115423
178.905,70.4015,-0.114198
179.014,70.4015,-0.114198
179.124,70.4015,-0.113029
179.234,70.4015,-0.113029
179.343,70.4015,-0.113029
179.455,70.4015,-0.111955
179.561,70.4015,-0.111955
179.669,70.4015,-0.111041
179.780,70.4015,-0.111041
179.890,70.4015,-0.110211
179.998,70.4015,-0.110211
180.108,70.4015,-0.110211
180.218,70.4015,-0.109382
180.326,70.4015,-0.109382
180.436,70.4015,-0.108665
180.544,70.4015,-0.108665
180.654,70.4015,-0.107713
180.763,70.4015,-0.107713
180.872,70.4015,-0.105178
180.980,70.4015,-0.105178
181.089,70.4015,-0.105178
181.197,70.4015,-0.102181
181.306,70.3979,-0.102181
181.415,70.3853,-0.100946
181.523,70.3652,-0.100946
181.632,70.3431,-0.093255
181.742,70.3214,-0.093255
181.850,70.2996,-0.093255
181.959,70.2779,-0.074055
182.067,70.2563,-0.074055
182.176,70.2346,-0.054281
182.286,70.2125,-0.054281
182.396,70.1906,-0.039700
182.506,70.1685,-0.039700
182.617,70.1463,-0.039700
182.725,70.1246,-0.026844
182.836,70.1026,-0.026844
182.945,70.0807,-0.014694
183.054,70.0590,-0.014694
183.163,70.0372,-0.003666
183.273,70.0152,-0.003666
183.383,69.9932,-0.003666
183.491,69.9714,0.006805
183.599,69.9500,0.006805
183.708,69.9281,0.017088
183.818,69.9059,0.017088
183.928,69.8841,0.027447
184.036,69.8623,0.027447
184.144,69.8409,0.038201
184.254,69.8189,0.038201
184.362,69.7973,0.049512
184.472,69.7753,0.049512
184.579,69.7538,0.049512
184.688,69.7322,0.061510
184.796,69.7103,0.061510
184.905,69.6885,0.074395
185.015,69.6667,0.074395
185.123,69.6450,0.087882
185.232,69.6233,0.087882
185.340,69.6016,0.087882
185.449,69.5799,0.102171
185.560,69.5578,0.102171
185.668,69.5360,0.118025
185.775,69.5146,0.118025
185.885,69.4927,0.118025
185.994,69.4711,0.135518
186.102,69.4494,0.135518
186.210,69.4277,0.154699
186.319,69.4057,0.154699
186.429,69.3839,0.175840
186.538,69.3622,0.175840
186.647,69.3403,0.199668
186.757,69.3182,0.199668
186.866,69.2965,0.226389
186.976,69.2745,0.226389
187.086,69.2525,0.226389
187.196,69.2304,0.256211
187.306,69.2084,0.256211
187.414,69.1870,0.289944
187.524,69.1649,0.289944
187.634,69.1431,0.328032
187.740,69.1217,0.328032
187.849,69.0999,0.328032
187.958,69.0782,0.370880
188.067,69.0562,0.370880
188.175,69.0348,0.418818
188.285,69.0127,0.418818
188.394,68.9909,0.418818
188.503,68.9692,0.472637
188.611,68.9475,0.472637
188.720,68.9259,0.532875
188.828,68.9042,0.532875
188.939,68.8820,0.600276
189.047,68.8604,0.600276
189.158,68.8381,0.675368
189.267,68.8164,0.675368
189.376,68.7944,0.758406
189.485,68.7729,0.758406
189.592,68.7513,0.758406
189.702,68.7293,0.849559
189.812,68.7072,0.849559
189.922,68.6854,0.849559
190.030,68.6637,0.948657
190.137,68.6423,1.056003
190.247,68.6204,1.056003
190.354,68.5989,1.056003
190.464,68.5771,1.170927
190.573,68.5553,1.170927
190.682,68.5335,1.293570
190.792,68.5115,1.293570
190.902,68.4893,1.423858
191.012,68.4673,1.423858
191.122,68.4454,1.561205
191.233,68.4232,1.561205
191.343,68.4010,1.561205
191.451,68.3796,1.706139
191.561,68.3576,1.706139
191.670,68.3357,1.859010
191.780,68.3136,1.859010
191.889,68.2919,2.021494
191.999,68.2699,2.021494
192.106,68.2486,2.021494
192.216,68.2267,2.194102
192.325,68.2048,2.194102
192.433,68.1830,2.288770
192.543,68.1613,2.288770
192.652,68.1395,1.893855
192.761,68.1175,1.893855
192.871,68.0956,0.781950
192.980,68.0737,0.781950
193.088,68.0522,0.781950
193.199,68.0301,0.041406
193.308,68.0083,0.041406
193.417,67.9864,0.010377
193.527,67.9643,0.010377
193.636,67.9426,0.009001
193.743,67.9213,0.009001
193.852,67.8992,0.009001
193.960,67.8778,0.009048
194.070,67.8558,0.009048
194.178,67.8341,0.008992
194.287,67.8125,0.008992
194.395,67.7910,0.008888
194.505,67.7688,0.008888
194.615,67.7468,0.008888
194.725,67.7247,0.008841
194.835,67.7029,0.008841
194.942,67.6813,0.008766
195.051,67.6595,0.008766
195.160,67.6378,0.008690
195.269,67.6160,0.008690
195.379,67.5940,0.008728
195.486,67.5726,0.008728
195.596,67.5507,0.008728
195.705,67.5289,0.008728
195.813,67.5069,0.008728
195.922,67.4854,0.008690
196.031,67.4638,0.008690
196.139,67.4420,0.008700
196.248,67.4200,0.008700
196.358,67.3982,0.008700
196.466,67.3766,0.008728
196.576,67.3599,0.008728
196.684,67.3522,0.008700
196.792,67.3515,0.008700
196.900,67.3517,0.008521
197.011,67.3579,0.008521
197.122,67.3734,0.008266
197.231,67.3952,0.008266
197.339,67.4167,0.008266
197.450,67.4389,0.008040
197.560,67.4607,0.008040
197.668,67.4824,0.007889
197.776,67.5041,0.007889
197.885,67.5258,0.007776
197.994,67.5476,0.007776
198.103,67.5696,0.007776
198.212,67.5913,0.007710
198.322,67.6134,0.007710
198.431,67.6351,0.007635
198.542,67.6573,0.007635
198.651,67.6790,0.007540
198.760,67.7008,0.007540
198.868,67.7226,0.007540
198.978,67.7443,0.007455
199.086,67.7659,0.007455
199.195,67.7880,0.007390
199.304,67.8097,0.007390
199.413,67.8314,0.007276
199.523,67.8535,0.007276
199.633,67.8753,0.007201
199.740,67.8969,0.007201
199.850,67.9190,0.007201
199.958,67.9403,0.007144
200.068,67.9625,0.007144
200.178,67.9843,0.007097
200.287,68.0064,0.007097
200.396,68.0280,0.006994
200.505,68.0497,0.006994
200.614,68.0718,0.006994
200.722,68.0932,0.006852
200.831,68.1152,0.006852
200.940,68.1369,0.006758
201.052,68.1591,0.006758
201.159,68.1806,0.006664
201.269,68.2028,0.006664
201.380,68.2248,0.006588
201.489,68.2466,0.006588
201.599,68.2686,0.006588
201.708,68.2903,0.006428
201.819,68.3125,0.006428
201.926,68.3342,0.006306
202.036,68.3560,0.006306
202.146,68.3781,0.006230
202.257,68.4002,0.006230
202.366,68.4220,0.006089
202.476,68.4441,0.006089
202.586,68.4659,0.006089
202.695,68.4877,0.005947
202.804,68.5096,0.005947
202.914,68.5315,0.005806
203.025,68.5538,0.005806
203.135,68.5757,0.005655
203.243,68.5975,0.005655
203.355,68.6198,0.005655
203.465,68.6419,0.005504
203.575,68.6637,0.005504
203.683,68.6853,0.005372
203.791,68.7071,0.005372
203.899,68.7286,0.005193
204.008,68.7504,0.005193
204.117,68.7721,0.004911
204.225,68.7938,0.004911
204.335,68.8158,0.004911
204.443,68.8375,0.004581
204.552,68.8592,0.004581
204.660,68.8808,0.004270
204.769,68.9027,0.004270
204.877,68.9243,0.004015
204.986,68.9459,0.004015
205.092,68.9672,0.004015
205.202,68.9890,0.003563
205.311,69.0110,0.003563
205.419,69.0326,0.003016
205.528,69.0544,0.003016
205.637,69.0762,0.002375
205.747,69.0980,0.002375
205.855,69.1199,0.002375
205.965,69.1417,0.001659
206.074,69.1634,0.001659
206.183,69.1852,0.000858
206.292,69.2073,0.000858
206.400,69.2288,-0.000207
206.511,69.2508,-0.000207
206.618,69.2724,-0.000207
206.727,69.2941,-0.001480
206.837,69.3162,-0.001480
206.946,69.3379,-0.003092
207.057,69.3601,-0.003092
207.163,69.3814,-0.005080
207.273,69.4035,-0.005080
207.383,69.4253,-0.007371
207.491,69.4468,-0.007371
207.600,69.4688,-0.007371
207.709,69.4906,-0.010095
207.819,69.5127,-0.010095
207.929,69.5346,-0.013167
208.038,69.5563,-0.013167
208.148,69.5783,-0.016542
208.259,69.6005,-0.016542
208.368,69.6223,-0.020227
208.476,69.6440,-0.020227
208.585,69.6656,-0.020227
208.692,69.6872,-0.024261
208.801,69.7090,-0.024261
208.910,69.7309,-0.028540
209.021,69.7528,-0.028540
209.129,69.7746,-0.032951
209.239,69.7965,-0.032951
209.348,69.8184,-0.032951
209.457,69.8401,-0.037504
209.566,69.8618,-0.037504
209.675,69.8839,-0.042160
209.785,69.9056,-0.042160
209.893,69.9273,-0.047080
210.001,69.9491,-0.047080
210.111,69.9710,-0.047080
210.219,69.9926,-0.052273
210.330,70.0147,-0.052273
210.439,70.0365,-0.057929
210.549,70.0587,-0.057929
210.658,70.0803,-0.064112
210.767,70.1021,-0.064112
210.876,70.1238,-0.071068
210.987,70.1462,-0.071068
211.095,70.1677,-0.071068
211.204,70.1895,-0.078985
211.312,70.2113,-0.078985
211.419,70.2326,-0.087864
211.529,70.2547,-0.087864
211.638,70.2763,-0.087864
211.746,70.2978,-0.098166
211.855,70.3198,-0.098166
211.963,70.3389,-0.110513
212.071,70.3494,-0.110513
212.178,70.3516,-0.122983
