Elapsed Time (s),Position (mm),Force (N)
-0.019,66.4015,-0.283865
0.091,66.4015,-0.283865
0.200,66.4015,-0.278700
0.309,66.4015,-0.278700
0.416,66.4015,-0.278700
0.526,66.4015,-0.274694
0.635,66.4015,-0.274694
0.743,66.4015,-0.271348
0.853,66.4015,-0.271348
0.962,66.4015,-0.268445
1.070,66.4015,-0.268445
1.177,66.4015,-0.265881
1.289,66.4015,-0.265881
1.399,66.4015,-0.265881
1.508,66.4015,-0.263610
1.618,66.4015,-0.263610
1.727,66.4015,-0.261545
1.836,66.4015,-0.261545
1.944,66.4015,-0.259642
2.055,66.4015,-0.259642
2.164,66.4015,-0.259642
2.273,66.4015,-0.257907
2.383,66.4015,-0.257907
2.494,66.4015,-0.256277
2.600,66.4015,-0.256277
2.709,66.4015,-0.254750
2.819,66.4015,-0.254750
2.928,66.4015,-0.253392
3.037,66.4015,-0.253392
3.147,66.4015,-0.253392
3.256,66.4015,-0.252073
3.364,66.4015,-0.252073
3.473,66.4015,-0.249735
3.584,66.4015,-0.249735
3.692,66.4015,-0.242299
3.803,66.4015,-0.242299
3.912,66.4015,-0.242299
4.020,66.4014,-0.234089
4.131,66.3955,-0.234089
4.239,66.3806,-0.231318
4.348,66.3590,-0.231318
4.458,66.3369,-0.213297
4.567,66.3152,-0.213297
4.678,66.2930,-0.171778
4.786,66.2713,-0.171778
4.894,66.2498,-0.171778
5.005,66.2275,-0.130514
5.116,66.2054,-0.130514
5.226,66.1834,-0.099080
5.336,66.1613,-0.099080
5.445,66.1395,-0.099080
5.553,66.1180,-0.073735
5.663,66.0961,-0.073735
5.773,66.0739,-0.052792
5.884,66.0518,-0.052792
5.994,66.0298,-0.035053
6.102,66.0081,-0.035053
6.213,65.9860,-0.019954
6.323,65.9640,-0.019954
6.434,65.9418,-0.006928
6.543,65.9202,-0.006928
6.652,65.8982,-0.006928
6.762,65.8763,0.004929
6.871,65.8546,0.004929
6.979,65.8328,0.016051
7.089,65.8108,0.016051
7.198,65.7890,0.026476
7.306,65.7674,0.026476
7.415,65.7457,0.026476
7.525,65.7235,0.036561
7.636,65.7015,0.036561
7.744,65.6800,0.046665
7.852,65.6584,0.046665
7.961,65.6364,0.056779
8.070,65.6146,0.056779
8.181,65.5925,0.066986
8.289,65.5708,0.066986
8.398,65.5490,0.066986
8.507,65.5272,0.077618
8.618,65.5051,0.077618
8.728,65.4830,0.088768
8.836,65.4616,0.088768
8.944,65.4399,0.100927
9.052,65.4183,0.100927
9.163,65.3961,0.114424
9.270,65.3747,0.114424
9.381,65.3523,0.114424
9.489,65.3308,0.129675
9.598,65.3093,0.129675
9.706,65.2875,0.147206
9.815,65.2656,0.147206
9.924,65.2439,0.167291
10.033,65.2222,0.167291
10.142,65.2004,0.167291
10.252,65.1782,0.190393
10.363,65.1560,0.190393
10.472,65.1344,0.216944
10.582,65.1123,0.216944
10.690,65.0906,0.247360
10.799,65.0689,0.247360
10.908,65.0472,0.247360
11.019,65.0249,0.282149
11.129,65.0028,0.282149
11.237,64.9811,0.322207
11.348,64.9591,0.322207
11.458,64.9371,0.367666
11.568,64.9150,0.367666
11.677,64.8933,0.418648
11.789,64.8710,0.418648
11.898,64.8493,0.418648
12.005,64.8277,0.476369
12.115,64.8058,0.476369
12.223,64.7841,0.541386
12.331,64.7626,0.541386
12.440,64.7406,0.614367
12.550,64.7188,0.614367
12.658,64.6972,0.614367
12.769,64.6750,0.695679
12.878,64.6530,0.695679
12.988,64.6310,0.785193
13.099,64.6089,0.785193
13.209,64.5869,0.876713
13.319,64.5649,0.876713
13.427,64.5433,0.960147
13.537,64.5213,0.960147
13.646,64.4995,0.960147
13.755,64.4778,1.025672
13.865,64.4558,1.025672
13.975,64.4336,1.048161
14.085,64.4114,1.048161
14.196,64.3896,1.052007
14.305,64.3678,1.052007
14.414,64.3460,1.052007
14.523,64.3240,1.074034
14.633,64.3019,1.074034
14.742,64.2802,1.101735
14.852,64.2583,1.101735
14.962,64.2362,1.088370
15.070,64.2146,1.088370
15.179,64.1927,0.909099
15.290,64.1708,0.909099
15.400,64.1488,0.909099
15.509,64.1268,0.601567
15.618,64.1051,0.601567
15.727,64.0832,0.251922
15.835,64.0618,0.251922
15.944,64.0399,0.042546
16.054,64.0178,0.042546
16.163,63.9961,0.042546
16.272,63.9743,0.023158
16.381,63.9526,0.023158
16.491,63.9305,0.017927
16.600,63.9088,0.017927
16.708,63.8872,0.016579
16.817,63.8651,0.016579
16.925,63.8438,0.015995
17.034,63.8217,0.015995
17.143,63.8001,0.015995
17.252,63.7782,0.015561
17.362,63.7564,0.015561
17.471,63.7347,0.015250
17.581,63.7125,0.015250
17.688,63.6911,0.015005
17.795,63.6693,0.015005
17.905,63.6478,0.015005
18.014,63.6259,0.014779
18.124,63.6039,0.014779
18.233,63.5822,0.014647
18.342,63.5604,0.014647
18.452,63.5384,0.014581
18.560,63.5169,0.014581
18.668,63.4950,0.014581
18.777,63.4733,0.014525
18.886,63.4515,0.014525
18.995,63.4298,0.014459
19.103,63.4080,0.014459
19.212,63.3864,0.014402
19.321,63.3663,0.014402
19.431,63.3545,0.014402
19.539,63.3515,0.014195
19.647,63.3520,0.014195
19.757,63.3597,0.013818
19.865,63.3759,0.013818
19.974,63.3977,0.013280
20.083,63.4194,0.013280
20.189,63.4407,0.012828
20.298,63.4624,0.012828
20.405,63.4840,0.012828
20.515,63.5058,0.012611
20.623,63.5274,0.012611
20.732,63.5494,0.012376
20.842,63.5712,0.012376
20.951,63.5931,0.012159
21.059,63.6148,0.012159
21.168,63.6364,0.012159
21.275,63.6580,0.011933
21.385,63.6801,0.011933
21.494,63.7017,0.011744
21.603,63.7235,0.011744
21.713,63.7456,0.011556
21.824,63.7678,0.011556
21.933,63.7897,0.011358
22.041,63.8111,0.011358
22.150,63.8329,0.011358
22.258,63.8546,0.011197
22.366,63.8760,0.011197
22.475,63.8979,0.010943
22.584,63.9197,0.010943
22.693,63.9415,0.010736
22.803,63.9635,0.010736
22.909,63.9848,0.010736
23.019,64.0068,0.010613
23.129,64.0287,0.010613
23.239,64.0508,0.010368
23.346,64.0721,0.010368
23.455,64.0938,0.010113
23.564,64.1157,0.010113
23.673,64.1374,0.009916
23.782,64.1593,0.009916
23.891,64.1810,0.009916
23.998,64.2025,0.009670
24.108,64.2244,0.009670
24.218,64.2465,0.009369
24.328,64.2683,0.009369
24.437,64.2903,0.009369
24.546,64.3122,0.009039
24.656,64.3341,0.009039
24.765,64.3558,0.008662
24.874,64.3777,0.008662
24.982,64.3994,0.008323
25.092,64.4212,0.008323
25.202,64.4432,0.007927
25.310,64.4648,0.007927
25.419,64.4867,0.007446
25.528,64.5086,0.007446
25.635,64.5300,0.007446
25.745,64.5518,0.006937
25.854,64.5735,0.006937
25.964,64.5956,0.006296
26.073,64.6175,0.006296
26.182,64.6392,0.005618
26.291,64.6611,0.005618
26.401,64.6832,0.005618
26.512,64.7053,0.004845
26.621,64.7271,0.004845
26.732,64.7492,0.004015
26.841,64.7711,0.004015
26.952,64.7933,0.003007
27.061,64.8150,0.003007
27.170,64.8370,0.001763
27.279,64.8586,0.001763
27.387,64.8804,0.001763
27.495,64.9018,0.000311
27.603,64.9235,0.000311
27.713,64.9455,-0.001395
27.821,64.9669,-0.001395
27.931,64.9890,-0.003318
28.040,65.0107,-0.003318
28.150,65.0328,-0.003318
28.259,65.0546,-0.005570
28.368,65.0765,-0.005570
28.475,65.0979,-0.008181
28.584,65.1195,-0.008181
28.693,65.1415,-0.011141
28.802,65.1633,-0.011141
28.912,65.1854,-0.011141
29.021,65.2071,-0.014374
29.130,65.2288,-0.014374
29.239,65.2507,-0.017871
29.348,65.2724,-0.017871
29.457,65.2942,-0.021726
29.567,65.3162,-0.021726
29.677,65.3382,-0.025750
29.786,65.3602,-0.025750
29.894,65.3817,-0.025750
30.002,65.4031,-0.029879
30.112,65.4252,-0.029879
30.221,65.4470,-0.034195
30.331,65.4692,-0.034195
30.442,65.4912,-0.038682
30.550,65.5129,-0.038682
30.660,65.5347,-0.038682
30.768,65.5564,-0.043234
30.877,65.5783,-0.043234
30.988,65.6003,-0.047900
31.097,65.6220,-0.047900
31.205,65.6437,-0.052754
31.313,65.6656,-0.052754
31.424,65.6876,-0.052754
31.533,65.7095,-0.057844
31.641,65.7309,-0.057844
31.750,65.7529,-0.063386
31.860,65.7747,-0.063386
31.968,65.7965,-0.069588
32.078,65.8184,-0.069588
32.187,65.8404,-0.076449
32.297,65.8622,-0.076449
32.405,65.8839,-0.076449
32.515,65.9059,-0.084216
32.623,65.9274,-0.084216
32.732,65.9492,-0.093038
32.843,65.9714,-0.093038
32.951,65.9930,-0.103236
33.061,66.0151,-0.103236
33.169,66.0365,-0.115244
33.278,66.0585,-0.115244
33.388,66.0804,-0.115244
33.497,66.1021,-0.129552
33.605,66.1237,-0.129552
33.713,66.1454,-0.146442
33.821,66.1671,-0.146442
33.929,66.1888,-0.166462
34.039,66.2107,-0.166462
34.147,66.2322,-0.166462
34.255,66.2538,-0.190534
34.364,66.2758,-0.190534
34.473,66.2975,-0.219310
34.582,66.3192,-0.219310
34.691,66.3385,-0.253421
34.800,66.3493,-0.253421
34.909,66.3515,-0.253421
35.018,66.3515,-0.284704
35.126,66.3515,-0.284704
35.235,66.3515,-0.293978
35.345,66.3515,-0.293978
35.454,66.3515,-0.287249
35.564,66.3515,-0.287249
35.672,66.3515,-0.287249
35.778,66.3515,-0.281706
35.888,66.3515,-0.281706
35.997,66.3515,-0.277503
36.107,66.3515,-0.277503
36.217,66.3515,-0.273949
36.326,66.3515,-0.273949
36.434,66.3515,-0.273949
36.544,66.3515,-0.270905
36.653,66.3515,-0.270905
36.763,66.3515,-0.268294
36.871,66.3515,-0.268294
36.979,66.3515,-0.266004
37.089,66.3515,-0.266004
37.199,66.3515,-0.263958
37.309,66.3515,-0.263958
37.418,66.3515,-0.262064
37.528,66.3515,-0.262064
37.638,66.3515,-0.262064
37.748,66.3515,-0.260320
37.857,66.3515,-0.260320
37.967,66.3515,-0.258718
38.078,66.3515,-0.258718
38.188,66.3515,-0.257257
38.297,66.3515,-0.257257
38.406,66.3515,-0.257257
38.517,66.3515,-0.255853
38.628,66.3515,-0.255853
38.737,66.3515,-0.254495
38.845,66.3515,-0.254495
38.955,66.3515,-0.252224
39.062,66.3515,-0.252224
39.171,66.3515,-0.244985
39.280,66.3515,-0.244985
39.387,66.3515,-0.244985
39.496,66.3515,-0.236615
39.605,66.3470,-0.236615
39.715,66.3332,-0.233222
39.825,66.3116,-0.233222
39.936,66.2897,-0.213627
40.045,66.2678,-0.213627
40.154,66.2461,-0.213627
40.264,66.2238,-0.171165
40.372,66.2025,-0.171165
40.482,66.1805,-0.130240
40.591,66.1587,-0.130240
40.700,66.1367,-0.099136
40.807,66.1153,-0.099136
40.915,66.0937,-0.073895
41.024,66.0719,-0.073895
41.134,66.0499,-0.073895
41.243,66.0282,-0.052782
41.352,66.0064,-0.052782
41.459,65.9848,-0.035025
41.568,65.9631,-0.035025
41.677,65.9414,-0.035025
41.786,65.9194,-0.019963
41.894,65.8981,-0.019963
42.003,65.8762,-0.006956
42.113,65.8542,-0.006956
42.223,65.8321,0.004845
42.332,65.8106,0.004845
42.441,65.7886,0.015929
42.549,65.7669,0.015929
42.657,65.7453,0.015929
42.766,65.7237,0.026391
42.876,65.7017,0.026391
42.985,65.6798,0.036571
43.094,65.6581,0.036571
43.202,65.6366,0.046684
43.310,65.6148,0.046684
43.419,65.5931,0.046684
43.529,65.5708,0.056694
43.639,65.5491,0.056694
43.748,65.5272,0.066958
43.857,65.5055,0.066958
43.968,65.4833,0.077562
44.076,65.4617,0.077562
44.185,65.4399,0.088740
44.294,65.4181,0.088740
44.402,65.3966,0.088740
44.512,65.3744,0.100946
44.621,65.3527,0.100946
44.730,65.3310,0.114274
44.839,65.3089,0.114274
44.950,65.2869,0.129222
45.060,65.2650,0.129222
45.167,65.2434,0.129222
45.278,65.2213,0.146499
45.386,65.1996,0.146499
45.497,65.1773,0.166424
45.607,65.1553,0.166424
45.715,65.1340,0.189290
45.824,65.1119,0.189290
45.933,65.0904,0.215785
46.043,65.0682,0.215785
46.151,65.0467,0.215785
46.259,65.0249,0.246116
46.370,65.0029,0.246116
46.479,64.9810,0.281094
46.589,64.9590,0.281094
46.699,64.9371,0.321020
46.808,64.9151,0.321020
46.919,64.8930,0.365564
47.030,64.8707,0.365564
47.140,64.8489,0.365564
47.248,64.8273,0.414256
47.357,64.8052,0.414256
47.465,64.7839,0.466831
47.574,64.7619,0.466831
47.684,64.7401,0.523807
47.793,64.7184,0.523807
47.902,64.6963,0.523807
48.010,64.6750,0.580576
48.119,64.6532,0.580576
48.228,64.6312,0.632737
48.336,64.6095,0.632737
48.445,64.5878,0.682936
48.554,64.5662,0.682936
48.664,64.5440,0.733607
48.773,64.5222,0.733607
48.883,64.5002,0.733607
48.992,64.4785,0.785315
49.101,64.4567,0.785315
49.212,64.4344,0.837475
49.319,64.4131,0.837475
49.430,64.3907,0.837475
49.539,64.3692,0.889720
49.648,64.3473,0.889720
49.756,64.3256,0.940523
49.865,64.3038,0.940523
49.975,64.2820,0.978046
50.083,64.2603,0.978046
50.192,64.2383,0.978046
50.302,64.2166,0.960100
50.409,64.1950,0.960100
50.519,64.1731,0.783788
50.629,64.1510,0.783788
50.740,64.1289,0.543648
50.848,64.1071,0.543648
50.957,64.0854,0.266880
51.066,64.0638,0.266880
51.174,64.0421,0.266880
51.283,64.0203,0.058013
51.393,63.9981,0.058013
51.501,63.9767,0.025420
51.611,63.9547,0.025420
51.721,63.9326,0.018474
51.830,63.9108,0.018474
51.941,63.8887,0.016740
52.049,63.8672,0.016740
52.158,63.8453,0.016740
52.266,63.8237,0.016117
52.376,63.8016,0.016117
52.485,63.7799,0.015637
52.593,63.7582,0.015637
52.702,63.7364,0.015260
52.812,63.7146,0.015260
52.921,63.6927,0.015024
53.030,63.6709,0.015024
53.139,63.6492,0.015024
53.247,63.6274,0.014836
53.356,63.6057,0.014836
53.466,63.5837,0.014675
53.575,63.5620,0.014675
53.684,63.5401,0.014572
53.794,63.5182,0.014572
53.904,63.4960,0.014572
54.014,63.4740,0.014525
54.122,63.4525,0.014525
54.230,63.4308,0.014440
54.339,63.4092,0.014440
54.449,63.3873,0.014402
54.557,63.3654,0.014402
54.667,63.3435,0.014364
54.776,63.3220,0.014364
54.885,63.3073,0.014364
54.994,63.3016,0.014110
55.102,63.3014,0.014110
55.211,63.3014,0.013827
55.320,63.3014,0.013827
55.429,63.3033,0.013591
55.538,63.3137,0.013591
55.647,63.3328,0.013591
55.755,63.3544,0.013167
55.865,63.3766,0.013167
55.975,63.3983,0.012696
56.084,63.4201,0.012696
56.193,63.4422,0.012489
56.304,63.4642,0.012489
56.413,63.4860,0.012489
56.522,63.5077,0.012291
56.631,63.5295,0.012291
56.739,63.5513,0.012036
56.850,63.5734,0.012036
56.960,63.5954,0.011867
57.069,63.6172,0.011867
57.178,63.6390,0.011687
57.288,63.6612,0.011687
57.397,63.6829,0.011687
57.506,63.7045,0.011518
57.615,63.7265,0.011518
57.724,63.7482,0.011367
57.835,63.7705,0.011367
57.945,63.7926,0.011367
58.054,63.8143,0.011188
58.162,63.8357,0.011188
58.271,63.8577,0.010999
58.380,63.8794,0.010999
58.489,63.9013,0.010736
58.598,63.9230,0.010736
58.706,63.9446,0.010528
58.815,63.9666,0.010528
58.924,63.9883,0.010387
59.032,64.0100,0.010387
59.141,64.0317,0.010387
59.250,64.0535,0.010142
59.359,64.0752,0.010142
59.470,64.0973,0.009878
59.579,64.1192,0.009878
59.687,64.1410,0.009642
59.796,64.1625,0.009642
59.906,64.1845,0.009642
60.013,64.2058,0.009397
60.122,64.2278,0.009397
60.231,64.2496,0.009077
60.340,64.2713,0.009077
60.450,64.2933,0.008766
60.559,64.3152,0.008766
60.667,64.3368,0.008417
60.775,64.3586,0.008417
60.884,64.3802,0.008417
60.994,64.4021,0.007955
61.104,64.4241,0.007955
61.213,64.4463,0.007955
61.323,64.4680,0.007465
61.433,64.4901,0.006965
61.542,64.5118,0.006965
61.650,64.5334,0.006965
61.759,64.5552,0.006400
61.867,64.5769,0.006400
61.976,64.5985,0.005721
62.086,64.6206,0.005721
62.198,64.6429,0.004901
62.307,64.6648,0.004901
62.416,64.6865,0.004006
62.524,64.7081,0.004006
62.632,64.7298,0.004006
62.742,64.7516,0.002978
62.850,64.7736,0.002978
62.959,64.7952,0.001781
63.070,64.8173,0.001781
63.178,64.8388,0.000396
63.286,64.8607,0.000396
63.395,64.8822,0.000396
63.504,64.9041,-0.001320
63.613,64.9260,-0.001320
63.721,64.9475,-0.003308
63.829,64.9692,-0.003308
63.937,64.9908,-0.005627
64.046,65.0126,-0.005627
64.156,65.0347,-0.005627
64.266,65.0565,-0.008276
64.375,65.0783,-0.008276
64.485,65.1003,-0.011245
64.595,65.1222,-0.011245
64.704,65.1444,-0.014525
64.812,65.1656,-0.014525
64.919,65.1872,-0.018125
65.028,65.2089,-0.018125
65.136,65.2306,-0.018125
65.244,65.2522,-0.021952
65.353,65.2739,-0.021952
65.462,65.2956,-0.025976
65.571,65.3176,-0.025976
65.681,65.3395,-0.030142
65.790,65.3613,-0.030142
65.899,65.3832,-0.030142
66.009,65.4051,-0.034403
66.118,65.4268,-0.034403
66.227,65.4489,-0.038795
66.336,65.4706,-0.038795
66.444,65.4921,-0.043300
66.552,65.5139,-0.043300
66.662,65.5357,-0.043300
66.771,65.5575,-0.047956
66.880,65.5796,-0.047956
66.989,65.6011,-0.052745
67.098,65.6229,-0.052745
67.207,65.6449,-0.052745
67.316,65.6667,-0.057872
67.426,65.6886,-0.063376
67.537,65.7107,-0.063376
67.645,65.7324,-0.063376
67.752,65.7538,-0.069409
67.860,65.7753,-0.069409
67.967,65.7968,-0.076327
68.075,65.8182,-0.076327
68.184,65.8402,-0.084150
68.294,65.8622,-0.084150
68.403,65.8839,-0.084150
68.509,65.9053,-0.093048
68.619,65.9270,-0.093048
68.728,65.9490,-0.103481
68.838,65.9708,-0.103481
68.945,65.9925,-0.115716
69.055,66.0143,-0.115716
69.165,66.0364,-0.115716
69.274,66.0584,-0.129939
69.385,66.0802,-0.129939
69.495,66.1024,-0.146895
69.604,66.1242,-0.146895
69.713,66.1459,-0.146895
69.823,66.1677,-0.167131
69.931,66.1894,-0.191420
70.041,66.2116,-0.191420
70.152,66.2337,-0.191420
70.262,66.2558,-0.220554
70.371,66.2775,-0.220554
70.478,66.2935,-0.255174
70.588,66.3009,-0.255174
70.698,66.3014,-0.286598
70.810,66.3014,-0.286598
70.919,66.3014,-0.286598
71.029,66.3014,-0.295515
71.138,66.3014,-0.295515
71.246,66.3014,-0.288662
71.356,66.3014,-0.288662
71.466,66.3014,-0.283092
71.574,66.3014,-0.283092
71.685,66.3014,-0.278841
71.797,66.3014,-0.278841
71.904,66.3014,-0.278841
72.012,66.3014,-0.275401
72.122,66.3014,-0.275401
72.231,66.3014,-0.272404
72.341,66.3014,-0.272404
72.450,66.3014,-0.269727
72.559,66.3014,-0.269727
72.668,66.3014,-0.267389
72.779,66.3014,-0.267389
72.889,66.3014,-0.267389
72.998,66.3014,-0.265259
73.107,66.3014,-0.265259
73.217,66.3014,-0.263374
73.328,66.3014,-0.263374
73.437,66.3014,-0.261611
73.547,66.3014,-0.261611
73.655,66.3014,-0.261611
73.765,66.3014,-0.259811
73.872,66.3014,-0.259811
73.983,66.3014,-0.258237
74.094,66.3014,-0.258237
74.202,66.3014,-0.256870
74.312,66.3014,-0.256870
74.422,66.3014,-0.255551
74.532,66.3014,-0.255551
74.642,66.3014,-0.255551
74.753,66.3014,-0.253760
74.862,66.3014,-0.253760
74.972,66.3014,-0.247191
75.082,66.3014,-0.247191
75.191,66.3014,-0.238463
75.300,66.3014,-0.238463
75.409,66.2969,-0.238463
75.519,66.2832,-0.234928
75.628,66.2621,-0.234928
75.737,66.2403,-0.221176
75.846,66.2186,-0.221176
75.957,66.1961,-0.182504
76.066,66.1744,-0.182504
76.175,66.1526,-0.138751
76.284,66.1310,-0.138751
76.393,66.1091,-0.138751
76.503,66.0871,-0.105602
76.611,66.0655,-0.105602
76.721,66.0436,-0.079126
76.831,66.0214,-0.079126
76.941,65.9996,-0.057165
77.051,65.9776,-0.057165
77.157,65.9563,-0.057165
77.266,65.9345,-0.038654
77.377,65.9123,-0.038654
77.485,65.8907,-0.023083
77.594,65.8688,-0.023083
77.703,65.8473,-0.009661
77.812,65.8254,-0.009661
77.921,65.8034,0.002469
78.030,65.7817,0.002469
78.141,65.7596,0.002469
78.249,65.7379,0.013752
78.356,65.7164,0.013752
78.466,65.6946,0.024421
78.576,65.6725,0.024421
78.687,65.6502,0.024421
78.795,65.6289,0.034629
78.905,65.6067,0.034629
79.013,65.5851,0.044686
79.122,65.5634,0.044686
79.232,65.5413,0.054705
79.339,65.5200,0.054705
79.449,65.4980,0.064800
79.557,65.4763,0.064800
79.667,65.4544,0.075196
79.776,65.4324,0.075196
79.884,65.4110,0.075196
79.994,65.3890,0.086063
80.101,65.3674,0.086063
80.210,65.3458,0.097836
80.321,65.3235,0.097836
80.429,65.3019,0.110786
80.539,65.2800,0.110786
80.648,65.2582,0.110786
80.757,65.2365,0.125311
80.868,65.2143,0.125311
80.975,65.1928,0.142107
81.082,65.1711,0.142107
81.192,65.1493,0.161467
81.302,65.1273,0.161467
81.412,65.1055,0.161467
81.520,65.0837,0.183842
81.629,65.0617,0.183842
81.738,65.0402,0.209725
81.848,65.0182,0.209725
81.958,64.9962,0.239528
82.066,64.9745,0.239528
82.176,64.9526,0.273742
82.285,64.9307,0.273742
82.394,64.9090,0.273742
82.503,64.8871,0.312801
82.614,64.8649,0.312801
82.723,64.8432,0.357006
82.832,64.8213,0.357006
82.939,64.7999,0.406650
83.047,64.7783,0.406650
83.157,64.7562,0.406650
83.266,64.7347,0.461496
83.375,64.7129,0.461496
83.484,64.6909,0.520094
83.594,64.6689,0.520094
83.704,64.6470,0.583442
83.815,64.6245,0.583442
83.925,64.6028,0.654575
84.033,64.5814,0.654575
84.141,64.5595,0.654575
84.250,64.5378,0.734465
84.359,64.5160,0.734465
84.468,64.4942,0.820783
84.578,64.4722,0.820783
84.687,64.4505,0.820783
84.796,64.4286,0.901332
84.905,64.4066,0.901332
85.014,64.3850,0.948686
85.123,64.3632,0.948686
85.232,64.3413,0.965887
85.342,64.3194,0.965887
85.450,64.2977,0.988074
85.560,64.2758,0.988074
85.668,64.2539,0.988074
85.777,64.2324,1.022053
85.888,64.2103,1.022053
85.997,64.1883,1.052676
86.107,64.1664,1.052676
86.215,64.1448,0.980006
86.323,64.1231,0.980006
86.432,64.1014,0.768726
86.541,64.0796,0.768726
86.650,64.0579,0.768726
86.760,64.0358,0.505268
86.869,64.0141,0.505268
86.978,63.9922,0.209338
87.086,63.9705,0.209338
87.194,63.9490,0.038324
87.305,63.9268,0.038324
87.416,63.9047,0.022216
87.524,63.8830,0.022216
87.633,63.8612,0.022216
87.743,63.8392,0.017823
87.851,63.8176,0.017823
87.959,63.7960,0.016617
88.067,63.7742,0.016617
88.176,63.7526,0.015976
88.285,63.7307,0.015976
88.394,63.7090,0.015976
88.505,63.6869,0.015524
88.613,63.6652,0.015524
88.723,63.6432,0.015175
88.833,63.6213,0.015175
88.942,63.5993,0.014977
89.053,63.5773,0.014977
89.162,63.5554,0.014977
89.271,63.5335,0.014807
89.382,63.5115,0.014807
89.491,63.4896,0.014619
89.601,63.4676,0.014619
89.712,63.4453,0.014562
89.821,63.4237,0.014562
89.930,63.4016,0.014515
90.039,63.3799,0.014515
90.150,63.3579,0.014515
90.258,63.3362,0.014468
90.368,63.3143,0.014468
90.476,63.2925,0.014459
90.584,63.2713,0.014459
90.693,63.2570,0.014298
90.801,63.2515,0.014298
90.910,63.2515,0.014298
91.019,63.2515,0.013912
91.129,63.2515,0.013912
91.237,63.2521,0.013610
91.349,63.2603,0.013610
91.458,63.2774,0.013375
91.569,63.2996,0.013375
91.678,63.3215,0.012969
91.787,63.3431,0.012969
91.896,63.3651,0.012969
92.003,63.3864,0.012611
92.112,63.4081,0.012611
92.221,63.4302,0.012376
92.329,63.4516,0.012376
92.439,63.4736,0.012206
92.550,63.4959,0.012206
92.658,63.5174,0.012206
92.768,63.5393,0.012065
92.878,63.5613,0.012065
92.987,63.5833,0.011838
93.096,63.6050,0.011838
93.206,63.6271,0.011622
93.315,63.6488,0.011622
93.424,63.6708,0.011424
93.532,63.6922,0.011424
93.643,63.7143,0.011424
93.751,63.7360,0.011226
93.861,63.7581,0.011226
93.969,63.7797,0.011018
94.079,63.8015,0.011018
94.189,63.8236,0.010839
94.298,63.8457,0.010839
94.406,63.8670,0.010839
94.515,63.8889,0.010679
94.625,63.9108,0.010679
94.735,63.9330,0.010679
94.844,63.9545,0.010472
94.953,63.9764,0.010264
95.062,63.9982,0.010264
95.170,64.0198,0.010019
95.279,64.0415,0.010019
95.389,64.0636,0.010019
95.497,64.0851,0.009802
95.607,64.1072,0.009802
95.716,64.1289,0.009520
95.826,64.1509,0.009520
95.934,64.1726,0.009133
96.043,64.1944,0.009133
96.152,64.2164,0.009133
96.261,64.2379,0.008860
96.371,64.2599,0.008860
96.481,64.2820,0.008549
96.590,64.3038,0.008549
96.701,64.3261,0.008125
96.811,64.3481,0.008125
96.919,64.3697,0.008125
97.029,64.3917,0.007644
97.139,64.4136,0.007644
97.249,64.4356,0.007144
97.358,64.4575,0.007144
97.468,64.4794,0.006570
97.578,64.5014,0.006570
97.688,64.5234,0.005929
97.797,64.5451,0.005929
97.905,64.5667,0.005929
98.014,64.5886,0.005241
98.125,64.6108,0.005241
98.233,64.6325,0.004326
98.342,64.6540,0.004326
98.451,64.6760,0.004326
98.559,64.6976,0.003346
98.668,64.7194,0.003346
98.776,64.7411,0.002177
98.887,64.7632,0.002177
98.997,64.7853,0.000811
99.106,64.8070,0.000811
99.216,64.8290,-0.000820
99.324,64.8506,-0.000820
99.436,64.8728,-0.002696
99.544,64.8950,-0.002696
99.652,64.9162,-0.002696
99.760,64.9378,-0.004854
99.870,64.9596,-0.004854
99.979,64.9817,-0.007408
100.088,65.0035,-0.007408
100.197,65.0252,-0.010245
100.306,65.0472,-0.010245
100.417,65.0691,-0.010245
100.526,65.0911,-0.013544
100.636,65.1129,-0.013544
100.744,65.1345,-0.017079
100.851,65.1560,-0.017079
100.961,65.1780,-0.020792
101.071,65.1999,-0.020792
101.181,65.2219,-0.024836
101.291,65.2439,-0.024836
101.399,65.2655,-0.024836
101.509,65.2877,-0.029002
101.619,65.3095,-0.029002
101.727,65.3312,-0.033253
101.836,65.3530,-0.033253
101.944,65.3746,-0.037636
102.054,65.3968,-0.037636
102.164,65.4185,-0.042066
102.272,65.4402,-0.042066
102.382,65.4622,-0.042066
102.491,65.4839,-0.046656
102.601,65.5060,-0.046656
102.710,65.5277,-0.051378
102.820,65.5497,-0.051378
102.931,65.5719,-0.056251
103.040,65.5939,-0.056251
103.150,65.6156,-0.056251
103.259,65.6375,-0.061586
103.369,65.6595,-0.061586
103.477,65.6813,-0.067476
103.587,65.7032,-0.067476
103.697,65.7250,-0.074074
103.805,65.7468,-0.074074
103.914,65.7686,-0.074074
104.023,65.7902,-0.081558
104.133,65.8123,-0.081558
104.243,65.8344,-0.090201
104.353,65.8563,-0.090201
104.463,65.8783,-0.100173
104.574,65.9005,-0.100173
104.683,65.9224,-0.111672
104.793,65.9444,-0.111672
104.903,65.9663,-0.111672
105.011,65.9880,-0.125226
105.119,66.0096,-0.125226
105.229,66.0316,-0.141183
105.339,66.0535,-0.141183
105.449,66.0755,-0.160062
105.557,66.0972,-0.160062
105.665,66.1188,-0.160062
105.774,66.1406,-0.182938
105.884,66.1625,-0.182938
105.994,66.1847,-0.210545
106.104,66.2066,-0.210545
106.214,66.2285,-0.243298
106.323,66.2443,-0.243298
106.432,66.2511,-0.278832
106.541,66.2515,-0.278832
106.651,66.2515,-0.278832
106.759,66.2515,-0.296391
106.871,66.2515,-0.296391
106.980,66.2515,-0.292376
107.090,66.2515,-0.292376
107.200,66.2515,-0.285967
107.309,66.2515,-0.285967
107.419,66.2515,-0.281339
107.529,66.2515,-0.281339
107.637,66.2515,-0.281339
107.747,66.2515,-0.277616
107.857,66.2515,-0.277616
107.966,66.2515,-0.274421
108.078,66.2515,-0.274421
108.188,66.2515,-0.271687
108.299,66.2515,-0.271687
108.408,66.2515,-0.271687
108.518,66.2515,-0.269331
108.627,66.2515,-0.269331
108.738,66.2515,-0.267097
108.846,66.2515,-0.267097
108.957,66.2515,-0.265042
109.067,66.2515,-0.265042
109.177,66.2515,-0.265042
109.285,66.2515,-0.263242
109.394,66.2515,-0.263242
109.503,66.2515,-0.261536
109.614,66.2515,-0.261536
109.724,66.2515,-0.259990
109.835,66.2515,-0.259990
109.945,66.2515,-0.258595
110.056,66.2515,-0.258595
110.164,66.2515,-0.258595
110.274,66.2515,-0.257219
110.384,66.2515,-0.257219
110.493,66.2515,-0.255466
110.603,66.2515,-0.255466
110.715,66.2515,-0.255466
110.825,66.2515,-0.249311
110.933,66.2515,-0.240489
111.045,66.2515,-0.240489
111.153,66.2506,-0.240489
111.261,66.2420,-0.236446
111.371,66.2244,-0.236446
111.480,66.2028,-0.228170
111.588,66.1811,-0.228170
111.697,66.1591,-0.194352
111.806,66.1374,-0.194352
111.917,66.1153,-0.194352
112.026,66.0933,-0.148384
112.136,66.0716,-0.148384
112.244,66.0498,-0.112916
112.354,66.0278,-0.112916
112.463,66.0059,-0.085111
112.572,65.9841,-0.085111
112.681,65.9625,-0.062255
112.790,65.9407,-0.062255
112.899,65.9190,-0.062255
113.008,65.8970,-0.043036
113.118,65.8752,-0.043036
113.227,65.8532,-0.026759
113.337,65.8313,-0.026759
113.445,65.8097,-0.012847
113.555,65.7876,-0.012847
113.664,65.7659,-0.000415
113.773,65.7440,-0.000415
113.883,65.7221,-0.000415
113.990,65.7007,0.011150
114.098,65.6791,0.011150
114.207,65.6573,0.022018
114.317,65.6353,0.022018
114.425,65.6136,0.032301
114.533,65.5920,0.032301
114.643,65.5701,0.032301
114.752,65.5484,0.042273
114.861,65.5265,0.042273
114.971,65.5045,0.052170
115.081,65.4825,0.052170
115.191,65.4604,0.062161
115.299,65.4389,0.062161
115.409,65.4167,0.062161
115.518,65.3952,0.072500
115.629,65.3730,0.072500
115.737,65.3514,0.083264
115.844,65.3298,0.083264
115.953,65.3081,0.094782
116.064,65.2859,0.094782
116.173,65.2641,0.107393
116.281,65.2425,0.107393
116.391,65.2205,0.107393
116.500,65.1989,0.121437
116.609,65.1767,0.121437
116.720,65.1547,0.137630
116.829,65.1330,0.137630
116.940,65.1108,0.137630
117.047,65.0892,0.156415
117.155,65.0674,0.156415
117.264,65.0460,0.178102
117.373,65.0241,0.178102
117.483,65.0020,0.203127
117.593,64.9802,0.203127
117.702,64.9583,0.232016
117.810,64.9368,0.232016
117.920,64.9147,0.265023
118.027,64.8933,0.265023
118.136,64.8715,0.265023
118.245,64.8496,0.302791
118.355,64.8278,0.302791
118.465,64.8058,0.345667
118.575,64.7836,0.345667
118.684,64.7618,0.345667
118.794,64.7399,0.393831
118.903,64.7180,0.393831
119.011,64.6965,0.447386
119.120,64.6747,0.447386
119.228,64.6529,0.504825
119.338,64.6311,0.504825
119.447,64.6093,0.565232
119.555,64.5876,0.565232
119.663,64.5661,0.565232
119.773,64.5442,0.625394
119.882,64.5222,0.625394
119.991,64.5005,0.681768
120.100,64.4788,0.681768
120.208,64.4571,0.728593
120.316,64.4355,0.728593
120.425,64.4138,0.728593
120.534,64.3917,0.761488
120.645,64.3698,0.761488
120.754,64.3479,0.771950
120.863,64.3261,0.771950
120.973,64.3042,0.744927
121.083,64.2821,0.744927
121.195,64.2598,0.695576
121.304,64.2379,0.695576
121.414,64.2160,0.695576
121.523,64.1942,0.628486
121.633,64.1722,0.628486
121.741,64.1505,0.545269
121.850,64.1288,0.545269
121.959,64.1070,0.463692
122.070,64.0849,0.463692
122.178,64.0629,0.299615
122.286,64.0415,0.299615
122.394,64.0199,0.299615
122.503,63.9981,0.108552
122.612,63.9762,0.108552
122.722,63.9544,0.032282
122.833,63.9322,0.032282
122.943,63.9101,0.020906
123.052,63.8883,0.020906
123.162,63.8665,0.020906
123.270,63.8447,0.017776
123.380,63.8227,0.017776
123.490,63.8008,0.016579
123.597,63.7793,0.016579
123.705,63.7576,0.015938
123.815,63.7358,0.015938
123.923,63.7142,0.015542
124.031,63.6926,0.015542
124.140,63.6708,0.015542
124.249,63.6490,0.015156
124.358,63.6271,0.015156
124.468,63.6052,0.014902
124.578,63.5831,0.014902
124.685,63.5616,0.014751
124.795,63.5398,0.014751
124.905,63.5177,0.014751
125.015,63.4959,0.014694
125.123,63.4740,0.014694
125.233,63.4521,0.014600
125.343,63.4301,0.014600
125.453,63.4081,0.014468
125.562,63.3863,0.014468
125.670,63.3647,0.014393
125.780,63.3429,0.014393
125.889,63.3210,0.014393
125.996,63.2996,0.014374
126.107,63.2773,0.014374
126.215,63.2557,0.014383
126.326,63.2335,0.014383
126.435,63.2144,0.014289
126.543,63.2036,0.014289
126.651,63.2015,0.014289
126.761,63.2015,0.013968
126.870,63.2015,0.013968
126.979,63.2015,0.013629
127.088,63.2015,0.013629
127.198,63.2064,0.013507
127.308,63.2206,0.013507
127.418,63.2420,0.013507
127.527,63.2639,0.013130
127.636,63.2857,0.013130
127.746,63.3078,0.012677
127.856,63.3298,0.012677
127.967,63.3518,0.012460
128.078,63.3740,0.012460
128.186,63.3956,0.012253
128.297,63.4180,0.012253
128.408,63.4401,0.012253
128.518,63.4620,0.012008
128.628,63.4840,0.012008
128.736,63.5058,0.011819
128.847,63.5278,0.011819
128.956,63.5496,0.011687
129.066,63.5716,0.011687
129.176,63.5938,0.011471
129.285,63.6153,0.011471
129.395,63.6373,0.011471
129.505,63.6594,0.011310
129.614,63.6813,0.011310
129.724,63.7032,0.011122
129.834,63.7252,0.011122
129.943,63.7471,0.010943
130.051,63.7685,0.010943
130.161,63.7907,0.010943
130.271,63.8125,0.010754
130.381,63.8346,0.010754
130.491,63.8566,0.010519
130.602,63.8789,0.010519
130.712,63.9008,0.010293
130.822,63.9228,0.010293
130.929,63.9444,0.010085
131.039,63.9662,0.010085
131.149,63.9882,0.010085
131.260,64.0104,0.009887
131.370,64.0324,0.009887
131.480,64.0545,0.009614
131.590,64.0763,0.009614
131.699,64.0983,0.009331
131.809,64.1202,0.009331
131.920,64.1423,0.008992
132.027,64.1639,0.008992
132.134,64.1852,0.008992
132.244,64.2072,0.008662
132.353,64.2290,0.008662
132.464,64.2512,0.008332
132.571,64.2725,0.008332
132.681,64.2945,0.007917
132.791,64.3166,0.007917
132.899,64.3382,0.007917
133.008,64.3601,0.007474
133.117,64.3818,0.007474
133.227,64.4038,0.006956
133.336,64.4256,0.006956
133.446,64.4475,0.006334
133.555,64.4692,0.006334
133.662,64.4908,0.006334
133.771,64.5125,0.005618
133.878,64.5340,0.005618
133.987,64.5559,0.004882
134.096,64.5776,0.004882
134.205,64.5993,0.003968
134.314,64.6212,0.003968
134.422,64.6428,0.002894
134.532,64.6647,0.002894
134.642,64.6868,0.002894
134.750,64.7082,0.001621
134.859,64.7302,0.001621
134.968,64.7519,0.000104
135.078,64.7740,0.000104
135.186,64.7955,-0.001602
135.295,64.8174,-0.001602
135.405,64.8396,-0.001602
135.515,64.8613,-0.003629
135.626,64.8835,-0.003629
135.733,64.9048,-0.005995
135.841,64.9265,-0.005995
135.950,64.9483,-0.005995
136.057,64.9698,-0.008747
136.166,64.9916,-0.008747
136.274,65.0131,-0.011772
136.384,65.0352,-0.011772
136.494,65.0574,-0.015175
136.603,65.0789,-0.015175
136.713,65.1009,-0.018804
136.822,65.1228,-0.018804
136.932,65.1448,-0.022630
137.041,65.1665,-0.022630
137.150,65.1883,-0.022630
137.257,65.2098,-0.026834
137.367,65.2319,-0.026834
137.477,65.2537,-0.030991
137.586,65.2755,-0.030991
137.694,65.2971,-0.035298
137.803,65.3188,-0.035298
137.912,65.3408,-0.035298
138.021,65.3626,-0.039728
138.132,65.3847,-0.039728
138.242,65.4066,-0.044177
138.352,65.4287,-0.044177
138.462,65.4506,-0.048814
138.569,65.4723,-0.048814
138.678,65.4940,-0.048814
138.785,65.5155,-0.053612
138.893,65.5370,-0.053612
139.002,65.5587,-0.058758
139.111,65.5805,-0.058758
139.218,65.6019,-0.064244
139.328,65.6240,-0.064244
139.437,65.6459,-0.064244
139.545,65.6673,-0.070427
139.655,65.6894,-0.070427
139.764,65.7112,-0.077458
139.873,65.7329,-0.077458
139.981,65.7545,-0.085375
140.091,65.7765,-0.085375
140.200,65.7984,-0.094640
140.307,65.8199,-0.094640
140.416,65.8416,-0.105338
140.525,65.8634,-0.105338
140.634,65.8851,-0.105338
140.743,65.9070,-0.117808
140.852,65.9286,-0.117808
140.960,65.9502,-0.132408
141.068,65.9719,-0.132408
141.176,65.9936,-0.149751
141.285,66.0153,-0.149751
141.395,66.0373,-0.149751
141.506,66.0595,-0.170496
141.614,66.0811,-0.170496
141.722,66.1028,-0.195455
141.831,66.1245,-0.195455
141.938,66.1460,-0.195455
142.047,66.1677,-0.225522
142.157,66.1876,-0.225522
142.266,66.1990,-0.261225
142.374,66.2015,-0.261225
142.483,66.2015,-0.291170
142.591,66.2015,-0.291170
142.701,66.2015,-0.297739
142.809,66.2015,-0.297739
142.919,66.2015,-0.290566
143.030,66.2015,-0.290566
143.140,66.2015,-0.290566
143.248,66.2015,-0.285241
143.359,66.2015,-0.285241
143.471,66.2015,-0.281263
143.582,66.2015,-0.281263
143.692,66.2015,-0.277870
143.800,66.2015,-0.277870
143.911,66.2015,-0.277870
144.021,66.2015,-0.274882
144.133,66.2015,-0.274882
144.241,66.2015,-0.272290
144.350,66.2015,-0.272290
144.461,66.2015,-0.269962
144.569,66.2015,-0.269962
144.677,66.2015,-0.269962
144.787,66.2015,-0.267785
144.898,66.2015,-0.267785
145.007,66.2015,-0.265777
145.115,66.2015,-0.265777
145.223,66.2015,-0.264053
145.333,66.2015,-0.264053
145.445,66.2015,-0.262441
145.554,66.2015,-0.262441
145.664,66.2015,-0.262441
145.773,66.2015,-0.260886
145.881,66.2015,-0.260886
145.991,66.2015,-0.259500
146.099,66.2015,-0.259500
146.208,66.2015,-0.258115
146.318,66.2015,-0.258115
146.427,66.2015,-0.255070
146.536,66.2015,-0.255070
146.647,66.2015,-0.255070
146.757,66.2015,-0.246917
146.868,66.2015,-0.246917
146.978,66.2015,-0.239330
147.089,66.1968,-0.239330
147.199,66.1829,-0.239330
147.309,66.1614,-0.236757
147.419,66.1395,-0.236757
147.530,66.1173,-0.215257
147.639,66.0954,-0.215257
147.748,66.0736,-0.171024
147.857,66.0518,-0.171024
147.964,66.0306,-0.129986
148.073,66.0086,-0.129986
148.181,65.9872,-0.098788
148.290,65.9653,-0.098788
148.399,65.9435,-0.098788
148.508,65.9218,-0.073575
148.618,65.8997,-0.073575
148.726,65.8780,-0.052499
148.838,65.8557,-0.052499
148.945,65.8344,-0.034817
149.054,65.8125,-0.034817
149.164,65.7903,-0.034817
149.273,65.7688,-0.019737
149.381,65.7471,-0.019737
149.488,65.7256,-0.006532
149.598,65.7036,-0.006532
149.708,65.6816,0.005344
149.818,65.6597,0.005344
149.926,65.6382,0.016447
150.037,65.6160,0.016447
150.147,65.5938,0.016447
150.257,65.5718,0.026881
150.366,65.5501,0.026881
150.476,65.5280,0.036985
150.585,65.5062,0.036985
150.694,65.4845,0.046910
150.804,65.4625,0.046910
150.914,65.4405,0.056769
151.023,65.4188,0.056769
151.132,65.3969,0.056769
151.241,65.3750,0.066939
151.351,65.3532,0.066939
151.460,65.3313,0.077467
151.571,65.3091,0.077467
151.681,65.2872,0.088570
151.791,65.2651,0.088570
151.900,65.2434,0.088570
152.009,65.2216,0.100484
152.118,65.1996,0.100484
152.227,65.1780,0.113708
152.336,65.1562,0.113708
152.444,65.1345,0.128760
152.554,65.1124,0.128760
152.664,65.0906,0.128760
152.773,65.0688,0.146141
152.884,65.0463,0.146141
152.994,65.0246,0.166302
153.102,65.0030,0.166302
153.210,64.9813,0.189724
153.321,64.9591,0.189724
153.430,64.9373,0.216747
153.539,64.9155,0.216747
153.647,64.8939,0.216747
153.757,64.8716,0.247473
153.865,64.8502,0.247473
153.973,64.8287,0.282771
154.081,64.8072,0.282771
154.191,64.7853,0.322961
154.299,64.7634,0.322961
154.408,64.7416,0.322961
154.518,64.7196,0.368543
154.626,64.6981,0.368543
154.735,64.6764,0.420147
154.845,64.6543,0.420147
154.954,64.6325,0.478132
155.063,64.6109,0.478132
155.172,64.5890,0.478132
155.281,64.5671,0.543167
155.389,64.5454,0.543167
155.500,64.5234,0.615969
155.607,64.5019,0.615969
155.715,64.4804,0.697442
155.823,64.4587,0.697442
155.931,64.4370,0.787294
156.041,64.4152,0.787294
156.151,64.3930,0.787294
156.261,64.3711,0.885884
156.371,64.3491,0.885884
156.481,64.3271,0.993060
156.591,64.3052,0.993060
156.700,64.2835,1.108889
156.808,64.2616,1.108889
156.916,64.2402,1.108889
157.024,64.2185,1.234011
157.134,64.1964,1.234011
157.243,64.1747,1.368135
157.353,64.1527,1.368135
157.461,64.1310,1.511241
157.570,64.1093,1.511241
157.679,64.0875,1.662047
157.789,64.0655,1.662047
157.899,64.0436,1.662047
158.006,64.0220,1.820771
158.114,64.0003,1.820771
158.222,63.9790,1.988298
158.331,63.9573,1.988298
158.440,63.9354,2.164666
158.550,63.9132,2.164666
158.659,63.8915,2.164666
158.770,63.8693,2.349621
158.881,63.8473,2.349621
158.990,63.8253,2.540278
159.099,63.8035,2.540278
159.209,63.7815,2.736100
159.319,63.7596,2.736100
159.427,63.7379,2.939010
159.537,63.7159,2.939010
159.647,63.6940,2.939010
159.757,63.6719,3.149366
159.869,63.6494,3.149366
159.978,63.6279,3.366650
160.087,63.6059,3.366650
160.197,63.5838,3.589617
160.308,63.5619,3.589617
160.415,63.5403,3.589617
160.524,63.5186,3.742686
160.633,63.4967,3.742686
160.742,63.4749,3.196239
160.851,63.4532,3.196239
160.960,63.4314,1.333826
161.069,63.4097,1.333826
161.177,63.3881,0.038474
161.286,63.3661,0.038474
161.394,63.3445,0.038474
161.505,63.3224,0.017145
161.612,63.3011,0.017145
161.721,63.2791,0.015307
161.831,63.2572,0.015307
161.939,63.2355,0.015081
162.047,63.2140,0.015081
162.156,63.1922,0.015081
162.263,63.1713,0.015034
162.373,63.1568,0.015034
162.483,63.1515,0.014770
162.592,63.1515,0.014770
162.702,63.1515,0.014770
162.812,63.1515,0.014402
162.920,63.1519,0.014223
163.028,63.1587,0.014223
163.136,63.1744,0.014223
163.247,63.1965,0.013968
163.356,63.2181,0.013968
163.464,63.2397,0.013695
163.574,63.2619,0.013695
163.683,63.2838,0.013582
163.794,63.3058,0.013582
163.901,63.3274,0.013582
164.009,63.3488,0.013488
164.118,63.3706,0.013488
164.226,63.3922,0.013412
164.334,63.4138,0.013412
164.443,63.4356,0.013262
164.553,63.4575,0.013262
164.662,63.4795,0.013262
164.770,63.5010,0.013130
164.879,63.5229,0.013130
164.988,63.5446,0.012894
165.098,63.5666,0.012894
165.207,63.5884,0.012602
165.317,63.6103,0.012602
165.425,63.6322,0.012602
165.533,63.6537,0.012366
165.642,63.6755,0.012366
165.751,63.6972,0.012102
165.861,63.7193,0.012102
165.971,63.7413,0.011791
166.083,63.7638,0.011791
166.193,63.7859,0.011791
166.303,63.8076,0.011537
166.410,63.8292,0.011537
166.519,63.8507,0.011273
166.628,63.8728,0.011273
166.738,63.8949,0.011028
166.847,63.9166,0.011028
166.956,63.9383,0.010707
167.066,63.9603,0.010707
167.177,63.9823,0.010340
167.287,64.0043,0.010340
167.394,64.0259,0.010340
167.504,64.0479,0.010038
167.614,64.0698,0.010038
167.723,64.0916,0.009661
167.831,64.1133,0.009661
167.940,64.1350,0.009227
168.048,64.1566,0.009227
168.157,64.1784,0.009227
168.265,64.2000,0.008803
168.374,64.2218,0.008803
168.483,64.2436,0.008426
168.592,64.2656,0.008426
168.700,64.2869,0.007983
168.809,64.3088,0.007983
168.918,64.3306,0.007983
169.027,64.3523,0.007371
169.136,64.3742,0.007371
169.244,64.3959,0.006749
169.354,64.4178,0.006749
169.464,64.4398,0.006089
169.572,64.4614,0.006089
169.681,64.4833,0.006089
169.789,64.5048,0.005231
169.897,64.5264,0.005231
170.007,64.5486,0.004251
170.118,64.5706,0.004251
170.227,64.5924,0.003044
170.336,64.6142,0.003044
170.445,64.6359,0.001697
170.556,64.6581,0.001697
170.664,64.6797,0.001697
170.773,64.7015,0.000151
170.883,64.7237,0.000151
170.991,64.7452,-0.001715
171.101,64.7674,-0.001715
171.209,64.7890,-0.003770
171.320,64.8111,-0.003770
171.428,64.8326,-0.006230
171.536,64.8542,-0.006230
171.645,64.8759,-0.006230
171.754,64.8979,-0.009067
171.864,64.9197,-0.009067
171.973,64.9416,-0.012196
172.082,64.9634,-0.012196
172.192,64.9856,-0.015759
172.301,65.0071,-0.015759
172.412,65.0293,-0.015759
172.522,65.0514,-0.019624
172.631,65.0731,-0.019624
172.740,65.0949,-0.023686
172.849,65.1168,-0.023686
172.957,65.1383,-0.027975
173.065,65.1599,-0.027975
173.173,65.1816,-0.032320
173.284,65.2040,-0.032320
173.393,65.2257,-0.032320
173.502,65.2472,-0.036768
173.610,65.2689,-0.036768
173.719,65.2908,-0.041330
173.830,65.3130,-0.041330
173.936,65.3342,-0.041330
174.045,65.3560,-0.045996
174.154,65.3780,-0.045996
174.266,65.4002,-0.050812
174.376,65.4221,-0.050812
174.483,65.4436,-0.055789
174.591,65.4652,-0.055789
174.698,65.4866,-0.061048
174.806,65.5082,-0.061048
174.915,65.5301,-0.061048
175.024,65.5518,-0.066732
175.132,65.5734,-0.066732
175.241,65.5951,-0.072934
175.350,65.6168,-0.072934
175.459,65.6388,-0.079946
175.569,65.6607,-0.079946
175.677,65.6824,-0.087845
175.787,65.7044,-0.087845
175.897,65.7262,-0.087845
176.006,65.7480,-0.096903
176.114,65.7699,-0.096903
176.223,65.7916,-0.107516
176.332,65.8134,-0.107516
176.441,65.8351,-0.119853
176.550,65.8571,-0.119853
176.661,65.8790,-0.119853
176.771,65.9011,-0.134274
176.881,65.9230,-0.134274
176.991,65.9451,-0.151221
177.100,65.9668,-0.151221
177.209,65.9887,-0.171269
177.317,66.0105,-0.171269
177.426,66.0322,-0.195370
177.536,66.0541,-0.195370
177.645,66.0758,-0.195370
177.754,66.0977,-0.224419
177.863,66.1196,-0.224419
177.973,66.1390,-0.259217
178.082,66.1495,-0.259217
178.189,66.1515,-0.259217
178.299,66.1515,-0.293328
178.407,66.1515,-0.293328
178.516,66.1515,-0.305289
178.627,66.1515,-0.305289
178.736,66.1515,-0.298436
178.845,66.1515,-0.298436
178.955,66.1515,-0.291763
179.063,66.1515,-0.291763
179.172,66.1515,-0.286608
179.282,66.1515,-0.286608
179.391,66.1515,-0.286608
179.499,66.1515,-0.282564
179.609,66.1515,-0.282564
179.716,66.1515,-0.279152
179.825,66.1515,-0.279152
179.936,66.1515,-0.276211
180.046,66.1515,-0.276211
180.157,66.1515,-0.276211
180.269,66.1515,-0.273572
180.380,66.1515,-0.273572
180.490,66.1515,-0.271159
180.598,66.1515,-0.271159
180.708,66.1515,-0.269029
180.818,66.1515,-0.269029
180.929,66.1515,-0.267106
181.041,66.1515,-0.267106
181.151,66.1515,-0.267106
181.261,66.1515,-0.265316
181.371,66.1515,-0.265316
181.479,66.1515,-0.263638
181.588,66.1515,-0.263638
181.700,66.1515,-0.262054
181.809,66.1515,-0.262054
181.919,66.1515,-0.262054
182.028,66.1515,-0.260659
182.139,66.1515,-0.260659
182.248,66.1515,-0.259217
182.355,66.1515,-0.259217
182.465,66.1515,-0.254891
182.575,66.1515,-0.254891
182.683,66.1515,-0.254891
182.792,66.1515,-0.246126
182.899,66.1515,-0.246126
183.009,66.1468,-0.239754
183.119,66.1331,-0.239754
183.226,66.1123,-0.234315
183.335,66.0905,-0.234315
183.444,66.0688,-0.204522
183.554,66.0467,-0.204522
183.664,66.0249,-0.204522
183.774,66.0029,-0.157480
183.883,65.9808,-0.157480
183.992,65.9591,-0.119778
184.101,65.9373,-0.119778
184.210,65.9157,-0.090672
184.319,65.8937,-0.090672
184.427,65.8721,-0.066949
184.537,65.8502,-0.066949
184.645,65.8284,-0.066949
184.754,65.8067,-0.047061
184.863,65.7849,-0.047061
184.972,65.7632,-0.030208
185.082,65.7412,-0.030208
185.191,65.7193,-0.015778
185.301,65.6973,-0.015778
185.411,65.6754,-0.015778
185.520,65.6535,-0.003026
185.628,65.6321,-0.003026
185.736,65.6104,0.008671
185.844,65.5887,0.008671
185.952,65.5672,0.019529
186.063,65.5448,0.019529
186.170,65.5236,0.019529
186.279,65.5017,0.029577
186.389,65.4798,0.029577
186.498,65.4580,0.039464
186.609,65.4359,0.039464
186.717,65.4143,0.049314
186.825,65.3926,0.049314
186.935,65.3705,0.059107
187.043,65.3491,0.059107
187.152,65.3271,0.059107
187.260,65.3055,0.069211
187.371,65.2835,0.069211
187.480,65.2615,0.079729
187.587,65.2402,0.079729
187.698,65.2178,0.090889
187.807,65.1963,0.090889
187.919,65.1738,0.090889
188.025,65.1526,0.103104
188.134,65.1308,0.103104
188.243,65.1088,0.116809
188.354,65.0869,0.116809
188.462,65.0652,0.132436
188.572,65.0432,0.132436
188.679,65.0218,0.150467
188.790,64.9996,0.150467
188.898,64.9780,0.150467
189.007,64.9562,0.171439
189.117,64.9343,0.171439
189.227,64.9120,0.195558
189.339,64.8898,0.195558
189.449,64.8680,0.223297
189.557,64.8462,0.223297
189.666,64.8244,0.223297
189.772,64.8030,0.254948
189.883,64.7810,0.254948
189.990,64.7597,0.290783
190.100,64.7376,0.290783
190.208,64.7159,0.331275
190.319,64.6938,0.331275
190.427,64.6721,0.331275
190.537,64.6502,0.376564
190.646,64.6282,0.376564
190.756,64.6063,0.426952
190.864,64.5848,0.426952
190.972,64.5633,0.483438
191.082,64.5412,0.483438
191.190,64.5196,0.483438
191.299,64.4978,0.546428
191.408,64.4759,0.546428
191.517,64.4541,0.615620
191.626,64.4323,0.615620
191.735,64.4106,0.691711
191.845,64.3888,0.691711
191.953,64.3669,0.771073
192.062,64.3452,0.771073
192.171,64.3234,0.839379
192.281,64.3013,0.839379
192.389,64.2799,0.839379
192.498,64.2582,0.872698
192.608,64.2360,0.872698
192.718,64.2140,0.890493
192.827,64.1921,0.890493
192.936,64.1705,0.924264
193.045,64.1486,0.924264
193.153,64.1269,0.924264
193.260,64.1056,0.962531
193.369,64.0839,0.962531
193.478,64.0620,0.922285
193.587,64.0402,0.922285
193.695,64.0185,0.762798
193.803,63.9970,0.762798
193.915,63.9746,0.762798
194.024,63.9528,0.589248
194.134,63.9309,0.589248
194.244,63.9089,0.402898
194.353,63.8871,0.402898
194.463,63.8649,0.167989
194.571,63.8433,0.167989
194.681,63.8215,0.167989
194.790,63.7996,0.036194
194.899,63.7779,0.036194
195.008,63.7561,0.021999
195.117,63.7342,0.021999
195.226,63.7126,0.018106
195.337,63.6903,0.018106
195.445,63.6687,0.016871
195.554,63.6468,0.016871
195.664,63.6249,0.016871
195.773,63.6031,0.016212
195.881,63.5814,0.016212
195.990,63.5595,0.015740
196.099,63.5378,0.015740
196.207,63.5160,0.015439
196.317,63.4942,0.015439
196.426,63.4722,0.015222
196.535,63.4506,0.015222
196.645,63.4287,0.015222
196.752,63.4071,0.014986
196.863,63.3850,0.014986
196.973,63.3632,0.014854
197.082,63.3410,0.014854
197.192,63.3193,0.014826
197.302,63.2971,0.014826
197.413,63.2751,0.014826
197.523,63.2531,0.014760
197.632,63.2314,0.014760
197.740,63.2095,0.014647
197.851,63.1875,0.014647
197.961,63.1655,0.014628
198.070,63.1437,0.014628
198.178,63.1222,0.014562
198.288,63.1075,0.014562
198.398,63.1016,0.014562
198.508,63.1015,0.014232
198.618,63.1015,0.014232
198.728,63.1015,0.013893
198.836,63.1015,0.013893
198.943,63.1026,0.013789
199.052,63.1117,0.013789
199.163,63.1299,0.013431
199.272,63.1517,0.013431
199.382,63.1739,0.013431
199.491,63.1955,0.012969
199.601,63.2176,0.012969
199.709,63.2392,0.012762
199.821,63.2615,0.012762
199.931,63.2836,0.012536
200.041,63.3054,0.012536
200.152,63.3279,0.012536
200.261,63.3494,0.012347
200.370,63.3713,0.012347
200.479,63.3932,0.012178
200.587,63.4147,0.012178
200.697,63.4369,0.012017
200.806,63.4586,0.012017
200.916,63.4805,0.012017
201.024,63.5022,0.011857
201.132,63.5237,0.011857
201.241,63.5456,0.011640
201.350,63.5672,0.011640
201.461,63.5895,0.011414
201.571,63.6115,0.011414
201.680,63.6333,0.011150
201.788,63.6549,0.011150
201.895,63.6762,0.011150
202.004,63.6983,0.010962
202.113,63.7198,0.010962
202.223,63.7420,0.010764
202.332,63.7637,0.010764
202.441,63.7855,0.010585
202.549,63.8073,0.010585
202.656,63.8285,0.010585
202.767,63.8507,0.010368
202.875,63.8724,0.010368
202.986,63.8945,0.010066
203.096,63.9165,0.010066
203.204,63.9382,0.009831
203.312,63.9599,0.009831
203.421,63.9815,0.009831
203.530,64.0032,0.009576
203.641,64.0255,0.009576
203.747,64.0468,0.009331
203.858,64.0690,0.009331
203.967,64.0908,0.009048
204.078,64.1129,0.009048
204.187,64.1348,0.008605
204.297,64.1566,0.008605
204.404,64.1783,0.008605
204.514,64.2000,0.008162
204.622,64.2216,0.008162
204.732,64.2436,0.007701
204.841,64.2656,0.007701
204.951,64.2875,0.007201
205.061,64.3094,0.007201
205.170,64.3312,0.006673
205.280,64.3532,0.006673
205.387,64.3747,0.006673
205.497,64.3966,0.005985
205.605,64.4184,0.005985
205.714,64.4401,0.005137
205.824,64.4623,0.005137
205.934,64.4840,0.004251
206.043,64.5060,0.004251
206.151,64.5275,0.004251
206.259,64.5490,0.003252
206.368,64.5708,0.003252
206.479,64.5933,0.003252
206.587,64.6147,0.001979
206.696,64.6366,0.000405
206.807,64.6589,0.000405
206.915,64.6802,0.000405
207.025,64.7024,-0.001404
207.135,64.7244,-0.001404
207.245,64.7464,-0.003327
207.354,64.7681,-0.003327
207.464,64.7901,-0.005608
207.574,64.8120,-0.005608
207.684,64.8342,-0.008341
207.793,64.8559,-0.008341
207.906,64.8785,-0.008341
208.015,64.9005,-0.011405
208.124,64.9222,-0.011405
208.233,64.9439,-0.014760
208.343,64.9658,-0.014760
208.453,64.9880,-0.018398
208.561,65.0094,-0.018398
208.671,65.0316,-0.022319
208.782,65.0536,-0.022319
208.890,65.0752,-0.022319
208.998,65.0969,-0.026514
209.106,65.1188,-0.026514
209.216,65.1405,-0.030746
209.325,65.1623,-0.030746
209.434,65.1841,-0.030746
209.544,65.2061,-0.035044
209.652,65.2278,-0.035044
209.761,65.2494,-0.039436
209.870,65.2712,-0.039436
209.979,65.2933,-0.039436
210.088,65.3150,-0.043960
210.198,65.3369,-0.048597
210.307,65.3586,-0.048597
210.415,65.3803,-0.048597
210.523,65.4019,-0.053414
210.633,65.4240,-0.053414
210.742,65.4457,-0.058579
210.851,65.4676,-0.058579
210.960,65.4895,-0.064083
211.069,65.5112,-0.064083
211.178,65.5329,-0.070134
211.287,65.5547,-0.070134
211.397,65.5766,-0.070134
211.505,65.5982,-0.076987
211.614,65.6202,-0.076987
211.723,65.6419,-0.084847
211.833,65.6638,-0.084847
211.942,65.6858,-0.093820
212.053,65.7081,-0.093820
212.164,65.7301,-0.104198
212.273,65.7520,-0.104198
212.383,65.7738,-0.104198
212.493,65.7959,-0.116470
212.604,65.8180,-0.116470
212.715,65.8402,-0.130975
212.822,65.8615,-0.130975
212.931,65.8836,-0.147875
213.041,65.9054,-0.147875
213.151,65.9274,-0.147875
213.261,65.9493,-0.167829
213.370,65.9713,-0.167829
213.479,65.9930,-0.191845
213.589,66.0151,-0.191845
213.695,66.0363,-0.220809
213.804,66.0580,-0.220809
213.913,66.0796,-0.220809
214.022,66.0949,-0.255381
214.131,66.1013,-0.255381
214.241,66.1015,-0.289350
214.349,66.1015,-0.289350
214.459,66.1015,-0.301669
214.568,66.1015,-0.301669
