Elapsed Time (s),Position (mm),Force (N)
-0.015,69.4093,-0.377601
0.016,69.4093,-0.377601
0.047,69.4093,-0.377601
0.077,69.4093,-0.377601
0.109,69.4093,-0.288664
0.140,69.4093,-0.288664
0.172,69.4093,-0.288664
0.203,69.4093,-0.288664
0.233,69.4093,-0.288664
0.264,69.4093,-0.288664
0.295,69.4093,-0.288664
0.327,69.4093,-0.288664
0.357,69.4093,-0.288664
0.388,69.4093,-0.184914
0.419,69.4093,-0.184914
0.450,69.4093,-0.184914
0.482,69.4093,-0.184914
0.513,69.4093,-0.184914
0.545,69.4093,-0.184914
0.577,69.4093,-0.184914
0.608,69.4093,-0.160014
0.640,69.4093,-0.160014
0.672,69.4093,-0.160014
0.701,69.4093,-0.160014
0.732,69.4093,-0.160014
0.764,69.4093,-0.160014
0.794,69.4093,-0.160014
0.826,69.4093,-0.160014
0.857,69.4093,-0.148656
0.888,69.4093,-0.148656
0.918,69.4093,-0.148656
0.950,69.4093,-0.148656
0.981,69.4093,-0.148656
1.012,69.4093,-0.148656
1.044,69.4093,-0.148656
1.074,69.4093,-0.148656
1.105,69.4093,-0.148656
1.137,69.4093,-0.141099
1.169,69.4093,-0.141099
1.200,69.4093,-0.141099
1.231,69.4093,-0.141099
1.262,69.4093,-0.141099
1.293,69.4093,-0.141099
1.324,69.4093,-0.141099
1.355,69.4093,-0.141099
1.386,69.4093,-0.135453
1.417,69.4093,-0.135453
1.448,69.4093,-0.135453
1.479,69.4093,-0.135453
1.512,69.4093,-0.135453
1.541,69.4093,-0.135453
1.571,69.4093,-0.135453
1.602,69.4093,-0.135453
1.633,69.4093,-0.131153
1.665,69.4093,-0.131153
1.694,69.4093,-0.131153
1.726,69.4093,-0.131153
1.757,69.4093,-0.131153
1.789,69.4093,-0.131153
1.820,69.4093,-0.131153
1.852,69.4093,-0.131153
1.883,69.4093,-0.127661
1.914,69.4093,-0.127661
1.946,69.4093,-0.127661
1.976,69.4093,-0.127661
2.007,69.4093,-0.127661
2.039,69.4093,-0.127661
2.064,69.4093,-0.127661
2.102,69.4093,-0.127661
2.133,69.4093,-0.124725
2.165,69.4093,-0.124725
2.195,69.4093,-0.124725
2.227,69.4093,-0.124725
2.258,69.4093,-0.124725
2.290,69.4093,-0.124725
2.321,69.4093,-0.124725
2.351,69.4093,-0.124725
2.383,69.4093,-0.122269
2.413,69.4093,-0.122269
2.444,69.4093,-0.122269
2.475,69.4093,-0.122269
2.506,69.4093,-0.122269
2.536,69.4093,-0.122269
2.567,69.4093,-0.122269
2.598,69.4093,-0.122269
2.629,69.4093,-0.120011
2.660,69.4093,-0.120011
2.690,69.4093,-0.120011
2.721,69.4093,-0.120011
2.753,69.4093,-0.120011
2.783,69.4093,-0.120011
2.814,69.4093,-0.120011
2.845,69.4093,-0.120011
2.877,69.4093,-0.120011
2.907,69.4093,-0.118063
2.937,69.4093,-0.118063
2.968,69.4093,-0.118063
2.998,69.4093,-0.118063
3.030,69.4093,-0.118063
3.063,69.4093,-0.118063
3.092,69.4093,-0.118063
3.123,69.4093,-0.118063
3.154,69.4093,-0.116388
3.186,69.4093,-0.116388
3.215,69.4093,-0.116388
3.247,69.4093,-0.116388
3.278,69.4093,-0.116388
3.308,69.4093,-0.116388
3.339,69.4093,-0.116388
3.372,69.4093,-0.114854
3.402,69.4093,-0.114854
3.434,69.4093,-0.114854
3.466,69.4093,-0.114854
3.497,69.4093,-0.114854
3.528,69.4093,-0.114854
3.559,69.4093,-0.114854
3.590,69.4093,-0.114854
3.624,69.4093,-0.113028
3.654,69.4093,-0.113028
3.685,69.4093,-0.113028
3.716,69.4093,-0.113028
3.747,69.4093,-0.113028
3.778,69.4093,-0.113028
3.809,69.4093,-0.113028
3.840,69.4093,-0.113028
3.872,69.4093,-0.113028
3.901,69.4093,-0.113028
3.932,69.4093,-0.110901
3.963,69.4093,-0.110901
3.995,69.4093,-0.110901
4.024,69.4093,-0.110901
4.056,69.4093,-0.110901
4.085,69.4093,-0.110901
4.116,69.4090,-0.110901
4.148,69.4080,-0.108784
4.179,69.4061,-0.108784
4.210,69.4036,-0.108784
4.240,69.4004,-0.108784
4.272,69.3964,-0.108784
4.302,69.3917,-0.108784
4.333,69.3864,-0.108784
4.365,69.3801,-0.108784
4.395,69.3734,-0.108784
4.427,69.3656,-0.047315
4.457,69.3574,-0.047315
4.489,69.3482,-0.047315
4.523,69.3373,-0.047315
4.551,69.3276,-0.047315
4.581,69.3167,-0.047315
4.613,69.3047,0.011452
4.646,69.2907,0.011452
4.675,69.2784,0.011452
4.706,69.2642,0.011452
4.737,69.2490,0.011452
4.768,69.2339,0.011452
4.799,69.2169,0.011452
4.831,69.1999,0.011452
4.862,69.1815,0.011452
4.893,69.1630,0.007048
4.925,69.1431,0.007048
4.956,69.1236,0.007048
4.988,69.1018,0.007048
5.019,69.0806,0.007048
5.048,69.0595,0.007048
5.080,69.0353,0.007048
5.110,69.0131,0.013579
5.140,68.9887,0.013579
5.171,68.9646,0.013579
5.202,68.9383,0.013579
5.233,68.9119,0.013579
5.264,68.8846,0.013579
5.295,68.8572,0.013579
5.327,68.8271,0.013579
5.357,68.7990,0.013579
5.388,68.7678,0.031892
5.419,68.7369,0.031892
5.451,68.7046,0.031892
5.481,68.6731,0.031892
5.513,68.6385,0.031892
5.544,68.6062,0.031892
5.576,68.5688,0.031892
5.605,68.5370,0.031892
5.636,68.5006,0.031892
5.667,68.4647,0.046374
5.697,68.4276,0.046374
5.728,68.3890,0.046374
5.759,68.3502,0.046374
5.790,68.3102,0.046374
5.820,68.2713,0.046374
5.852,68.2293,0.046374
5.882,68.1891,0.054900
5.913,68.1464,0.054900
5.943,68.1046,0.054900
5.973,68.0621,0.054900
6.005,68.0163,0.054900
6.036,67.9713,0.054900
6.066,67.9252,0.054900
6.098,67.8789,0.054900
6.129,67.8310,0.054900
6.160,67.7824,0.060330
6.191,67.7328,0.060330
6.222,67.6836,0.060330
6.253,67.6332,0.060330
6.284,67.5825,0.060330
6.315,67.5296,0.060330
6.346,67.4778,0.060330
6.378,67.4220,0.060330
6.409,67.3682,0.065092
6.440,67.3120,0.065092
6.471,67.2556,0.065092
6.503,67.2004,0.065092
6.533,67.1446,0.065092
6.565,67.0855,0.065092
6.596,67.0266,0.065092
6.627,66.9668,0.069260
6.658,66.9078,0.069260
6.690,66.8450,0.069260
6.720,66.7869,0.069260
6.752,66.7258,0.069260
6.783,66.6684,0.069260
6.813,66.6105,0.069260
6.843,66.5561,0.069260
6.875,66.4996,0.069260
6.905,66.4464,0.074878
6.938,66.3868,0.074878
6.967,66.3348,0.074878
6.999,66.2821,0.074878
7.030,66.2270,0.074878
7.062,66.1749,0.074878
7.093,66.1251,0.074878
7.124,66.0734,0.074878
7.155,66.0251,0.081692
7.186,65.9748,0.081692
7.217,65.9279,0.081692
7.247,65.8812,0.081692
7.279,65.8335,0.081692
7.310,65.7871,0.081692
7.341,65.7428,0.081692
7.372,65.6981,0.081692
7.403,65.6537,0.050938
7.435,65.6091,0.050938
7.466,65.5676,0.050938
7.497,65.5258,0.050938
7.528,65.4852,0.050938
7.559,65.4451,0.050938
7.589,65.4055,0.050938
7.621,65.3674,0.014934
7.651,65.3302,0.014934
7.681,65.2935,0.014934
7.713,65.2568,0.014934
7.743,65.2211,0.014934
7.774,65.1867,0.014934
7.805,65.1516,0.014934
7.836,65.1185,0.014934
7.868,65.0845,0.014934
7.899,65.0525,0.012281
7.929,65.0218,0.012281
7.961,64.9913,0.012281
7.992,64.9603,0.012281
8.023,64.9312,0.012281
8.055,64.9017,0.012281
8.087,64.8742,0.012281
8.117,64.8473,0.012281
8.148,64.8206,0.011612
8.178,64.7967,0.011612
8.210,64.7706,0.011612
8.240,64.7473,0.011612
8.271,64.7236,0.011612
8.303,64.7007,0.011612
8.333,64.6792,0.011612
8.365,64.6570,0.011612
8.397,64.6364,0.011292
8.427,64.6167,0.011292
8.459,64.5979,0.011292
8.489,64.5794,0.011292
8.522,64.5615,0.011292
8.552,64.5451,0.011292
8.582,64.5296,0.011292
8.613,64.5141,0.011292
8.644,64.4996,0.010963
8.674,64.4859,0.010963
8.706,64.4723,0.010963
8.735,64.4606,0.010963
8.768,64.4482,0.010963
8.799,64.4370,0.010963
8.830,64.4266,0.010963
8.862,64.4173,0.010963
8.893,64.4082,0.010709
8.923,64.4004,0.010709
8.955,64.3930,0.010709
8.986,64.3861,0.010709
9.016,64.3804,0.010709
9.048,64.3751,0.010709
9.079,64.3708,0.010709
9.111,64.3669,0.010709
9.141,64.3641,0.010709
9.172,64.3618,0.010568
9.203,64.3602,0.010568
9.235,64.3595,0.010568
9.266,64.3594,0.010568
9.297,64.3594,0.010568
9.328,64.3594,0.010568
9.359,64.3594,0.010568
9.389,64.3594,0.010474
9.421,64.3594,0.010474
9.452,64.3594,0.010474
9.483,64.3594,0.010474
9.515,64.3594,0.010474
9.546,64.3594,0.010474
9.577,64.3594,0.010474
9.608,64.3594,0.010474
9.639,64.3594,0.010474
9.671,64.3594,0.010502
9.702,64.3594,0.010502
9.732,64.3594,0.010502
9.763,64.3594,0.010502
9.793,64.3594,0.010502
9.825,64.3599,0.010502
9.854,64.3610,0.010502
9.884,64.3627,0.010483
9.916,64.3654,0.010483
9.947,64.3688,0.010483
9.979,64.3730,0.010483
10.010,64.3777,0.010483
10.042,64.3835,0.010483
10.073,64.3896,0.010483
10.103,64.3967,0.010483
10.134,64.4041,0.010333
10.165,64.4127,0.010333
10.196,64.4219,0.010333
10.227,64.4318,0.010333
10.258,64.4425,0.010333
10.289,64.4536,0.010333
10.320,64.4655,0.010333
10.351,64.4785,0.010333
10.381,64.4918,0.010107
10.412,64.5065,0.010107
10.444,64.5212,0.010107
10.476,64.5375,0.010107
10.506,64.5532,0.010107
10.536,64.5703,0.010107
10.567,64.5882,0.010107
10.599,64.6073,0.010107
10.629,64.6268,0.009928
10.661,64.6467,0.009928
10.690,64.6666,0.009928
10.722,64.6883,0.009928
10.753,64.7106,0.009928
10.784,64.7342,0.009928
10.816,64.7576,0.009928
10.847,64.7828,0.009928
10.878,64.8080,0.009928
10.909,64.8341,0.009777
10.940,64.8599,0.009777
10.971,64.8879,0.009777
11.002,64.9157,0.009777
11.033,64.9451,0.009777
11.065,64.9746,0.009777
11.096,65.0056,0.009777
11.128,65.0370,0.009467
11.159,65.0696,0.009467
11.189,65.1008,0.009467
11.221,65.1355,0.009467
11.252,65.1689,0.009467
11.285,65.2052,0.009467
11.315,65.2396,0.009467
11.346,65.2759,0.009467
11.377,65.3142,0.009043
11.409,65.3523,0.009043
11.439,65.3888,0.009043
11.470,65.4279,0.009043
11.500,65.4670,0.009043
11.531,65.5067,0.009043
11.562,65.5482,0.009043
11.593,65.5899,0.009043
11.624,65.6331,0.008441
11.655,65.6765,0.008441
11.687,65.7226,0.008441
11.718,65.7668,0.008441
11.749,65.8124,0.008441
11.780,65.8597,0.008441
11.812,65.9075,0.008441
11.843,65.9547,0.008441
11.874,66.0034,0.008441
11.905,66.0528,0.007566
11.936,66.1046,0.007566
11.967,66.1539,0.007566
11.998,66.2053,0.007566
12.030,66.2589,0.007566
12.060,66.3105,0.007566
12.092,66.3658,0.007566
12.123,66.4191,0.006314
12.152,66.4720,0.006314
12.183,66.5285,0.006314
12.215,66.5867,0.006314
12.246,66.6430,0.006314
12.279,66.7058,0.006314
12.308,66.7609,0.006314
12.341,66.8238,0.006314
12.371,66.8820,0.004338
12.407,66.9536,0.004338
12.448,67.0283,0.004338
12.478,67.0860,0.004338
12.510,67.1424,0.004338
12.540,67.1989,0.004338
12.574,67.2605,0.004338
12.601,67.3086,0.004338
12.633,67.3625,0.004338
12.663,67.4162,0.001374
12.694,67.4676,0.001374
12.725,67.5213,0.001374
12.756,67.5709,0.001374
12.787,67.6222,0.001374
12.818,67.6718,0.001374
12.849,67.7200,0.001374
12.879,67.7680,0.001374
12.910,67.8153,-0.003557
12.941,67.8628,-0.003557
12.971,67.9078,-0.003557
13.003,67.9545,-0.003557
13.034,67.9981,-0.003557
13.065,68.0434,-0.003557
13.095,68.0854,-0.003557
13.126,68.1281,-0.003557
13.157,68.1694,-0.012102
13.190,68.2144,-0.012102
13.219,68.2517,-0.012102
13.250,68.2918,-0.012102
13.282,68.3311,-0.012102
13.313,68.3697,-0.012102
13.343,68.4072,-0.012102
13.374,68.4433,-0.012102
13.405,68.4794,-0.026001
13.436,68.5158,-0.026001
13.468,68.5511,-0.026001
13.499,68.5858,-0.026001
13.530,68.6183,-0.026001
13.562,68.6509,-0.026001
13.593,68.6829,-0.026001
13.624,68.7134,-0.046431
13.654,68.7433,-0.046431
13.685,68.7725,-0.046431
13.716,68.8021,-0.046431
13.747,68.8295,-0.046431
13.777,68.8568,-0.046431
13.808,68.8831,-0.046431
13.839,68.9098,-0.046431
13.870,68.9342,-0.073448
13.902,68.9598,-0.073448
13.933,68.9830,-0.073448
13.964,69.0064,-0.073448
13.995,69.0290,-0.073448
14.026,69.0502,-0.073448
14.057,69.0710,-0.073448
14.088,69.0909,-0.073448
14.119,69.1104,-0.073448
14.150,69.1294,-0.108474
14.181,69.1472,-0.108474
14.212,69.1646,-0.108474
14.243,69.1810,-0.108474
14.275,69.1974,-0.108474
14.306,69.2120,-0.108474
14.337,69.2263,-0.108474
14.368,69.2398,-0.170733
14.398,69.2525,-0.170733
14.429,69.2642,-0.170733
14.461,69.2760,-0.170733
14.491,69.2866,-0.170733
14.525,69.2974,-0.170733
14.554,69.3059,-0.170733
14.585,69.3142,-0.170733
14.616,69.3220,-0.170733
14.647,69.3291,-0.274219
14.677,69.3352,-0.274219
14.709,69.3409,-0.274219
14.739,69.3457,-0.274219
14.770,69.3497,-0.274219
14.802,69.3532,-0.274219
14.833,69.3559,-0.274219
14.864,69.3578,-0.374242
14.895,69.3589,-0.374242
14.926,69.3594,-0.374242
14.961,69.3594,-0.374242
14.988,69.3594,-0.374242
15.020,69.3594,-0.374242
15.049,69.3594,-0.374242
15.080,69.3594,-0.374242
15.111,69.3594,-0.329674
15.138,69.3594,-0.329674
15.173,69.3594,-0.329674
15.204,69.3594,-0.329674
15.236,69.3594,-0.329674
15.266,69.3594,-0.329674
15.297,69.3594,-0.329674
15.329,69.3594,-0.329674
15.361,69.3594,-0.211367
15.391,69.3594,-0.211367
15.423,69.3594,-0.211367
15.454,69.3594,-0.211367
15.485,69.3594,-0.211367
15.518,69.3594,-0.211367
15.547,69.3594,-0.211367
15.582,69.3594,-0.211367
15.610,69.3594,-0.211367
15.640,69.3594,-0.167044
15.670,69.3594,-0.167044
15.702,69.3594,-0.167044
15.736,69.3594,-0.167044
15.764,69.3594,-0.167044
15.795,69.3594,-0.167044
15.826,69.3594,-0.167044
15.856,69.3594,-0.167044
15.888,69.3594,-0.152524
15.918,69.3594,-0.152524
15.951,69.3594,-0.152524
15.979,69.3594,-0.152524
16.010,69.3594,-0.152524
16.040,69.3594,-0.152524
16.071,69.3594,-0.152524
16.103,69.3594,-0.152524
16.133,69.3594,-0.143866
16.164,69.3594,-0.143866
16.199,69.3594,-0.143866
16.226,69.3594,-0.143866
16.257,69.3594,-0.143866
16.288,69.3594,-0.143866
16.319,69.3594,-0.143866
16.349,69.3594,-0.143866
16.381,69.3594,-0.137730
16.412,69.3594,-0.137730
16.443,69.3594,-0.137730
16.474,69.3594,-0.137730
16.506,69.3594,-0.137730
16.537,69.3594,-0.137730
16.568,69.3594,-0.137730
16.600,69.3594,-0.137730
16.632,69.3594,-0.133072
16.663,69.3594,-0.133072
16.695,69.3594,-0.133072
16.725,69.3594,-0.133072
16.760,69.3594,-0.133072
16.789,69.3594,-0.133072
16.818,69.3594,-0.133072
16.849,69.3594,-0.133072
16.880,69.3594,-0.129289
16.911,69.3594,-0.129289
16.942,69.3594,-0.129289
16.973,69.3594,-0.129289
17.004,69.3594,-0.129289
17.034,69.3594,-0.129289
17.065,69.3594,-0.129289
17.096,69.3594,-0.129289
17.127,69.3594,-0.126099
17.158,69.3594,-0.126099
17.188,69.3594,-0.126099
17.220,69.3594,-0.126099
17.251,69.3594,-0.126099
17.282,69.3594,-0.126099
17.312,69.3594,-0.126099
17.343,69.3594,-0.126099
17.373,69.3594,-0.123285
17.404,69.3594,-0.123285
17.434,69.3594,-0.123285
17.465,69.3594,-0.123285
17.496,69.3594,-0.123285
17.530,69.3594,-0.123285
17.558,69.3594,-0.123285
17.590,69.3594,-0.123285
17.620,69.3594,-0.120839
17.651,69.3594,-0.120839
17.681,69.3594,-0.120839
17.712,69.3594,-0.120839
17.743,69.3594,-0.120839
17.779,69.3594,-0.120839
17.805,69.3594,-0.120839
17.837,69.3594,-0.120839
17.868,69.3594,-0.118768
17.899,69.3594,-0.118768
17.930,69.3594,-0.118768
17.961,69.3594,-0.118768
17.992,69.3594,-0.118768
18.024,69.3594,-0.118768
18.054,69.3594,-0.118768
18.085,69.3594,-0.118768
18.116,69.3594,-0.117112
18.146,69.3594,-0.117112
18.177,69.3594,-0.117112
18.208,69.3594,-0.117112
18.239,69.3594,-0.117112
18.270,69.3594,-0.117112
18.301,69.3594,-0.117112
18.333,69.3594,-0.117112
18.364,69.3594,-0.117112
18.395,69.3594,-0.115475
18.425,69.3594,-0.115475
18.456,69.3594,-0.115475
18.486,69.3594,-0.115475
18.517,69.3594,-0.115475
18.549,69.3594,-0.115475
18.581,69.3594,-0.115475
18.612,69.3594,-0.113706
18.644,69.3594,-0.113706
18.675,69.3594,-0.113706
18.705,69.3594,-0.113706
18.736,69.3594,-0.113706
18.766,69.3594,-0.113706
18.798,69.3594,-0.113706
18.829,69.3594,-0.113706
18.860,69.3594,-0.113706
18.891,69.3594,-0.113706
18.922,69.3594,-0.111871
18.953,69.3594,-0.111871
18.985,69.3594,-0.111871
19.017,69.3594,-0.111871
19.048,69.3594,-0.111871
19.078,69.3594,-0.111871
19.109,69.3594,-0.111871
19.140,69.3594,-0.109800
19.171,69.3592,-0.109800
19.202,69.3586,-0.109800
19.234,69.3573,-0.109800
19.263,69.3551,-0.109800
19.295,69.3523,-0.109800
19.326,69.3486,-0.109800
19.356,69.3444,-0.109800
19.387,69.3394,-0.099035
19.419,69.3336,-0.099035
19.450,69.3270,-0.099035
19.480,69.3199,-0.099035
19.512,69.3119,-0.099035
19.542,69.3033,-0.099035
19.573,69.2941,-0.099035
19.604,69.2841,-0.099035
19.636,69.2729,-0.099035
19.666,69.2615,-0.015179
19.698,69.2490,-0.015179
19.732,69.2339,-0.015179
19.761,69.2216,-0.015179
19.791,69.2074,-0.015179
19.822,69.1927,-0.015179
19.852,69.1767,-0.015179
19.884,69.1596,-0.015179
19.915,69.1424,0.029699
19.946,69.1241,0.029699
19.977,69.1050,0.029699
20.008,69.0855,0.029699
20.040,69.0647,0.029699
20.071,69.0436,0.029699
20.105,69.0199,0.029699
20.133,68.9992,0.008620
20.164,68.9763,0.008620
20.195,68.9521,0.008620
20.228,68.9249,0.008620
20.256,68.9033,0.008620
20.287,68.8764,0.008620
20.319,68.8494,0.008620
20.350,68.8211,0.008620
20.381,68.7932,0.008620
20.412,68.7638,0.026330
20.442,68.7343,0.026330
20.473,68.7045,0.026330
20.504,68.6736,0.026330
20.535,68.6424,0.026330
20.566,68.6091,0.026330
20.597,68.5759,0.026330
20.628,68.5412,0.042234
20.659,68.5063,0.042234
20.691,68.4697,0.042234
20.722,68.4335,0.042234
20.753,68.3957,0.042234
20.785,68.3576,0.042234
20.815,68.3189,0.042234
20.846,68.2806,0.042234
20.877,68.2413,0.042234
20.908,68.2005,0.051927
20.939,68.1578,0.051927
20.970,68.1158,0.051927
21.001,68.0736,0.051927
21.033,68.0281,0.051927
21.064,67.9851,0.051927
21.095,67.9387,0.051927
21.124,67.8958,0.057620
21.156,67.8476,0.057620
21.186,67.8018,0.057620
21.219,67.7492,0.057620
21.248,67.7059,0.057620
21.279,67.6566,0.057620
21.311,67.6046,0.057620
21.342,67.5535,0.057620
21.373,67.5020,0.062560
21.403,67.4516,0.062560
21.435,67.3976,0.062560
21.466,67.3430,0.062560
21.497,67.2893,0.062560
21.528,67.2334,0.062560
21.558,67.1790,0.062560
21.590,67.1212,0.062560
21.621,67.0634,0.067520
21.653,67.0039,0.067520
21.683,66.9461,0.067520
21.713,66.8873,0.067520
21.745,66.8268,0.067520
21.776,66.7657,0.067520
21.807,66.7074,0.067520
21.837,66.6506,0.067520
21.867,66.5931,0.070823
21.899,66.5344,0.070823
21.929,66.4799,0.070823
21.960,66.4227,0.070823
21.991,66.3700,0.070823
22.023,66.3126,0.070823
22.053,66.2603,0.070823
22.083,66.2090,0.070823
22.114,66.1556,0.070823
22.145,66.1050,0.077767
22.177,66.0543,0.077767
22.208,66.0022,0.077767
22.240,65.9536,0.077767
22.270,65.9043,0.077767
22.301,65.8574,0.077767
22.332,65.8101,0.077767
22.363,65.7640,0.053329
22.399,65.7115,0.053329
22.425,65.6738,0.053329
22.456,65.6294,0.053329
22.487,65.5868,0.053329
22.517,65.5435,0.053329
22.549,65.5010,0.053329
22.580,65.4593,0.053329
22.611,65.4199,0.053329
22.642,65.3796,0.017917
22.672,65.3409,0.017917
22.704,65.3029,0.017917
22.734,65.2649,0.017917
22.765,65.2276,0.017917
22.796,65.1923,0.017917
22.826,65.1581,0.017917
22.858,65.1214,0.017917
22.892,65.0853,0.012582
22.921,65.0539,0.012582
22.953,65.0205,0.012582
22.983,64.9894,0.012582
23.014,64.9584,0.012582
23.045,64.9276,0.012582
23.076,64.8980,0.012582
23.107,64.8696,0.012582
23.138,64.8409,0.012582
23.169,64.8138,0.011772
23.201,64.7866,0.011772
23.235,64.7577,0.011772
23.262,64.7365,0.011772
23.295,64.7096,0.011772
23.323,64.6884,0.011772
23.353,64.6652,0.011772
23.385,64.6428,0.011772
23.416,64.6206,0.011340
23.447,64.6001,0.011340
23.479,64.5793,0.011340
23.510,64.5597,0.011340
23.541,64.5411,0.011340
23.572,64.5231,0.011340
23.603,64.5061,0.011340
23.634,64.4892,0.011104
23.665,64.4736,0.011104
23.697,64.4578,0.011104
23.728,64.4437,0.011104
23.759,64.4298,0.011104
23.789,64.4174,0.011104
23.821,64.4050,0.011104
23.852,64.3936,0.010907
23.883,64.3830,0.010907
23.914,64.3729,0.010907
23.945,64.3637,0.010907
23.975,64.3554,0.010907
24.005,64.3478,0.010907
24.036,64.3408,0.010907
24.067,64.3343,0.010907
24.100,64.3285,0.010907
24.132,64.3234,0.010747
24.163,64.3192,0.010747
24.194,64.3158,0.010747
24.225,64.3131,0.010747
24.255,64.3111,0.010747
24.285,64.3099,0.010747
24.315,64.3094,0.010747
24.347,64.3094,0.010747
24.378,64.3094,0.010530
24.409,64.3094,0.010530
24.440,64.3094,0.010530
24.470,64.3094,0.010530
24.501,64.3099,0.010530
24.532,64.3110,0.010530
24.565,64.3131,0.010530
24.593,64.3155,0.010530
24.624,64.3188,0.010530
24.654,64.3228,0.010493
24.685,64.3276,0.010493
24.716,64.3331,0.010493
24.748,64.3395,0.010493
24.778,64.3462,0.010493
24.809,64.3541,0.010493
24.840,64.3623,0.010493
24.871,64.3718,0.010493
24.902,64.3817,0.010408
24.933,64.3921,0.010408
24.965,64.4039,0.010408
24.996,64.4155,0.010408
25.027,64.4286,0.010408
25.058,64.4422,0.010408
25.089,64.4563,0.010408
25.118,64.4706,0.010408
25.149,64.4859,0.010154
25.180,64.5026,0.010154
25.210,64.5191,0.010154
25.243,64.5377,0.010154
25.273,64.5557,0.010154
25.304,64.5759,0.010154
25.335,64.5951,0.010154
25.366,64.6156,0.010154
25.396,64.6370,0.010154
25.428,64.6597,0.010003
25.459,64.6826,0.010003
25.489,64.7063,0.010003
25.520,64.7296,0.010003
25.551,64.7552,0.010003
25.582,64.7807,0.010003
25.615,64.8093,0.010003
25.644,64.8346,0.009740
25.674,64.8617,0.009740
25.705,64.8903,0.009740
25.736,64.9208,0.009740
25.768,64.9507,0.009740
25.800,64.9828,0.009740
25.831,65.0146,0.009740
25.864,65.0492,0.009740
25.893,65.0803,0.009279
25.924,65.1145,0.009279
25.955,65.1486,0.009279
25.985,65.1830,0.009279
26.017,65.2197,0.009279
26.047,65.2553,0.009279
26.078,65.2929,0.009279
26.110,65.3322,0.008883
26.142,65.3725,0.008883
26.172,65.4110,0.008883
26.203,65.4525,0.008883
26.235,65.4929,0.008883
26.266,65.5355,0.008883
26.297,65.5789,0.008883
26.329,65.6229,0.008883
26.360,65.6684,0.008385
26.392,65.7130,0.008385
26.423,65.7588,0.008385
26.453,65.8037,0.008385
26.484,65.8511,0.008385
26.515,65.8997,0.008385
26.546,65.9475,0.008385
26.577,65.9960,0.008385
26.608,66.0467,0.007528
26.640,66.0977,0.007528
26.671,66.1500,0.007528
26.702,66.2011,0.007528
26.733,66.2547,0.007528
26.764,66.3071,0.007528
26.795,66.3630,0.007528
26.826,66.4175,0.007528
26.858,66.4756,0.007528
26.888,66.5301,0.006117
26.921,66.5903,0.006117
26.950,66.6454,0.006117
26.982,66.7071,0.006117
27.009,66.7571,0.006117
27.046,66.8274,0.006117
27.076,66.8852,0.006117
27.106,66.9452,0.003783
27.136,67.0018,0.003783
27.167,67.0586,0.003783
27.200,67.1183,0.003783
27.229,67.1716,0.003783
27.260,67.2262,0.003783
27.291,67.2804,0.003783
27.321,67.3332,0.003783
27.353,67.3879,0.003783
27.384,67.4403,0.000226
27.415,67.4927,0.000226
27.446,67.5430,0.000226
27.477,67.5940,0.000226
27.509,67.6465,0.000226
27.539,67.6936,0.000226
27.572,67.7426,0.000226
27.601,67.7890,0.000226
27.632,67.8333,-0.005514
27.663,67.8799,-0.005514
27.693,67.9248,-0.005514
27.724,67.9691,-0.005514
27.755,68.0133,-0.005514
27.786,68.0558,-0.005514
27.818,68.0985,-0.005514
27.849,68.1410,-0.015264
27.880,68.1821,-0.015264
27.911,68.2221,-0.015264
27.942,68.2605,-0.015264
27.973,68.2995,-0.015264
28.004,68.3369,-0.015264
28.035,68.3747,-0.015264
28.067,68.4132,-0.015264
28.097,68.4473,-0.015264
28.129,68.4830,-0.015264
28.159,68.5167,-0.030819
28.191,68.5517,-0.030819
28.222,68.5846,-0.030819
28.258,68.6219,-0.030819
28.299,68.6636,-0.030819
28.331,68.6936,-0.030819
28.363,68.7241,-0.030819
28.394,68.7533,-0.053140
28.425,68.7813,-0.053140
28.456,68.8087,-0.053140
28.487,68.8350,-0.053140
28.519,68.8626,-0.053140
28.548,68.8855,-0.053140
28.580,68.9113,-0.053140
28.612,68.9355,-0.053140
28.642,68.9581,-0.082030
28.677,68.9825,-0.082030
28.706,69.0024,-0.082030
28.736,69.0229,-0.082030
28.767,69.0432,-0.082030
28.798,69.0618,-0.082030
28.828,69.0803,-0.082030
28.859,69.0982,-0.082030
28.891,69.1155,-0.122241
28.922,69.1323,-0.122241
28.953,69.1479,-0.122241
28.983,69.1624,-0.122241
29.013,69.1763,-0.122241
29.044,69.1898,-0.122241
29.074,69.2021,-0.122241
29.105,69.2144,-0.122241
29.136,69.2258,-0.122241
29.169,69.2370,-0.196875
29.199,69.2465,-0.196875
29.230,69.2558,-0.196875
29.261,69.2644,-0.196875
29.292,69.2722,-0.196875
29.323,69.2791,-0.196875
29.355,69.2854,-0.196875
29.386,69.2910,-0.308077
29.418,69.2960,-0.308077
29.449,69.3000,-0.308077
29.480,69.3034,-0.308077
29.511,69.3059,-0.308077
29.542,69.3079,-0.308077
29.573,69.3090,-0.308077
29.604,69.3094,-0.308077
29.635,69.3094,-0.383040
29.666,69.3094,-0.383040
29.697,69.3094,-0.383040
29.728,69.3094,-0.383040
29.759,69.3094,-0.383040
29.790,69.3094,-0.383040
29.821,69.3094,-0.383040
29.852,69.3094,-0.383040
29.883,69.3094,-0.305329
29.913,69.3094,-0.305329
29.944,69.3094,-0.305329
29.977,69.3094,-0.305329
30.006,69.3094,-0.305329
30.037,69.3094,-0.305329
30.069,69.3094,-0.305329
30.099,69.3094,-0.305329
30.130,69.3094,-0.191586
30.161,69.3094,-0.191586
30.192,69.3094,-0.191586
30.223,69.3094,-0.191586
30.254,69.3094,-0.191586
30.286,69.3094,-0.191586
30.317,69.3094,-0.191586
30.349,69.3094,-0.191586
30.379,69.3094,-0.162141
30.410,69.3094,-0.162141
30.441,69.3094,-0.162141
30.473,69.3094,-0.162141
30.503,69.3094,-0.162141
30.534,69.3094,-0.162141
30.565,69.3094,-0.162141
30.597,69.3094,-0.162141
30.627,69.3094,-0.149945
30.658,69.3094,-0.149945
30.689,69.3094,-0.149945
30.719,69.3094,-0.149945
30.751,69.3094,-0.149945
30.782,69.3094,-0.149945
30.815,69.3094,-0.149945
30.843,69.3094,-0.149945
30.874,69.3094,-0.142153
30.906,69.3094,-0.142153
30.937,69.3094,-0.142153
30.967,69.3094,-0.142153
30.998,69.3094,-0.142153
31.029,69.3094,-0.142153
31.060,69.3094,-0.142153
31.091,69.3094,-0.142153
31.125,69.3094,-0.136507
31.153,69.3094,-0.136507
31.183,69.3094,-0.136507
31.214,69.3094,-0.136507
31.246,69.3094,-0.136507
31.277,69.3094,-0.136507
31.309,69.3094,-0.136507
31.340,69.3094,-0.136507
31.372,69.3094,-0.132018
31.403,69.3094,-0.132018
31.434,69.3094,-0.132018
31.465,69.3094,-0.132018
31.497,69.3094,-0.132018
31.528,69.3094,-0.132018
31.558,69.3094,-0.132018
31.589,69.3094,-0.132018
31.620,69.3094,-0.128245
31.651,69.3094,-0.128245
31.682,69.3094,-0.128245
31.713,69.3094,-0.128245
31.745,69.3094,-0.128245
31.776,69.3094,-0.128245
31.807,69.3094,-0.128245
31.837,69.3094,-0.128245
31.869,69.3094,-0.125375
31.899,69.3094,-0.125375
31.931,69.3094,-0.125375
31.962,69.3094,-0.125375
31.993,69.3094,-0.125375
32.024,69.3094,-0.125375
32.056,69.3094,-0.125375
32.087,69.3094,-0.125375
32.118,69.3094,-0.122730
32.149,69.3094,-0.122730
32.179,69.3094,-0.122730
32.210,69.3094,-0.122730
32.241,69.3094,-0.122730
32.272,69.3094,-0.122730
32.304,69.3094,-0.122730
32.335,69.3094,-0.122730
32.366,69.3094,-0.122730
32.397,69.3094,-0.120519
32.430,69.3094,-0.120519
32.457,69.3094,-0.120519
32.488,69.3094,-0.120519
32.520,69.3094,-0.120519
32.549,69.3094,-0.120519
32.580,69.3094,-0.120519
32.612,69.3094,-0.120519
32.642,69.3094,-0.118533
32.675,69.3094,-0.118533
32.704,69.3094,-0.118533
32.737,69.3094,-0.118533
32.767,69.3094,-0.118533
32.798,69.3094,-0.118533
32.828,69.3094,-0.118533
32.859,69.3094,-0.118533
32.890,69.3094,-0.118533
32.921,69.3094,-0.116623
32.952,69.3094,-0.116623
32.984,69.3094,-0.116623
33.015,69.3094,-0.116623
33.046,69.3094,-0.116623
33.077,69.3094,-0.116623
33.108,69.3094,-0.116623
33.139,69.3094,-0.115042
33.170,69.3094,-0.115042
33.201,69.3094,-0.115042
33.233,69.3094,-0.115042
33.265,69.3094,-0.115042
33.296,69.3094,-0.115042
33.327,69.3094,-0.115042
33.358,69.3094,-0.115042
33.389,69.3094,-0.113273
33.420,69.3094,-0.113273
33.453,69.3094,-0.113273
33.483,69.3094,-0.113273
33.515,69.3094,-0.113273
33.546,69.3094,-0.113273
33.577,69.3094,-0.113273
33.610,69.3094,-0.113273
33.639,69.3094,-0.110996
33.669,69.3094,-0.110996
33.701,69.3094,-0.110996
33.732,69.3094,-0.110996
33.763,69.3094,-0.110996
33.798,69.3094,-0.110996
33.825,69.3094,-0.110996
33.857,69.3094,-0.110996
33.888,69.3094,-0.108699
33.920,69.3091,-0.108699
33.951,69.3081,-0.108699
33.983,69.3064,-0.108699
34.013,69.3039,-0.108699
34.044,69.3008,-0.108699
34.075,69.2970,-0.108699
34.106,69.2923,-0.108699
34.137,69.2869,-0.095929
34.168,69.2807,-0.095929
34.200,69.2739,-0.095929
34.231,69.2662,-0.095929
34.263,69.2578,-0.095929
34.293,69.2491,-0.095929
34.323,69.2394,-0.095929
34.354,69.2290,-0.018106
34.385,69.2176,-0.018106
34.416,69.2058,-0.018106
34.447,69.1935,-0.018106
34.477,69.1805,-0.018106
34.507,69.1666,-0.018106
34.538,69.1520,-0.018106
34.569,69.1367,-0.018106
34.601,69.1201,0.024552
34.631,69.1035,0.024552
34.662,69.0851,0.024552
34.695,69.0664,0.024552
34.725,69.0473,0.024552
34.756,69.0275,0.024552
34.788,69.0063,0.024552
34.820,68.9847,0.024552
34.850,68.9630,0.024552
34.880,68.9408,0.024552
34.911,68.9176,0.010050
34.942,68.8935,0.010050
34.972,68.8691,0.010050
35.004,68.8422,0.010050
35.035,68.8166,0.010050
35.066,68.7896,0.010050
35.097,68.7612,0.010050
35.127,68.7333,0.010050
35.159,68.7039,0.028297
35.191,68.6720,0.028297
35.220,68.6426,0.028297
35.252,68.6113,0.028297
35.283,68.5786,0.028297
35.314,68.5444,0.028297
35.346,68.5114,0.028297
35.378,68.4753,0.028297
35.409,68.4400,0.044106
35.440,68.4038,0.044106
35.471,68.3666,0.044106
35.502,68.3307,0.044106
35.532,68.2935,0.044106
35.563,68.2546,0.044106
35.594,68.2140,0.044106
35.626,68.1731,0.053837
35.656,68.1331,0.053837
35.689,68.0880,0.053837
35.718,68.0496,0.053837
35.749,68.0059,0.053837
35.780,67.9617,0.053837
35.814,67.9129,0.053837
35.842,67.8718,0.053837
35.874,67.8238,0.053837
35.905,67.7788,0.059756
35.937,67.7267,0.059756
35.967,67.6821,0.059756
35.998,67.6327,0.059756
36.029,67.5837,0.059756
36.060,67.5321,0.059756
36.091,67.4810,0.059756
36.122,67.4286,0.059756
36.150,67.3818,0.059756
36.184,67.3228,0.064480
36.215,67.2697,0.064480
36.247,67.2125,0.064480
36.277,67.1591,0.064480
36.307,67.1044,0.064480
36.339,67.0456,0.064480
36.370,66.9889,0.068799
36.401,66.9295,0.068799
36.432,66.8712,0.068799
36.462,66.8122,0.068799
36.492,66.7529,0.068799
36.524,66.6926,0.068799
36.553,66.6374,0.068799
36.585,66.5754,0.068799
36.616,66.5177,0.068799
36.648,66.4597,0.072648
36.679,66.4040,0.072648
36.709,66.3494,0.072648
36.740,66.2962,0.072648
36.771,66.2405,0.072648
36.802,66.1867,0.072648
36.833,66.1351,0.072648
36.864,66.0818,0.072648
36.895,66.0317,0.080167
36.927,65.9796,0.080167
36.959,65.9289,0.080167
36.989,65.8808,0.080167
37.020,65.8326,0.080167
37.051,65.7841,0.080167
37.077,65.7457,0.080167
37.114,65.6907,0.080167
37.145,65.6468,0.080167
37.176,65.6023,0.054260
37.207,65.5572,0.054260
37.238,65.5145,0.054260
37.269,65.4732,0.054260
37.299,65.4317,0.054260
37.331,65.3892,0.054260
37.362,65.3497,0.054260
37.394,65.3088,0.017880
37.424,65.2711,0.017880
37.456,65.2324,0.017880
37.487,65.1947,0.017880
37.518,65.1578,0.017880
37.549,65.1220,0.017880
37.580,65.0877,0.017880
37.611,65.0531,0.017880
37.642,65.0195,0.012591
37.673,64.9863,0.012591
37.705,64.9541,0.012591
37.736,64.9219,0.012591
37.767,64.8919,0.012591
37.798,64.8610,0.012591
37.829,64.8324,0.012591
37.859,64.8044,0.012591
37.890,64.7767,0.011754
37.921,64.7499,0.011754
37.952,64.7231,0.011754
37.987,64.6938,0.011754
38.013,64.6733,0.011754
38.045,64.6488,0.011754
38.075,64.6251,0.011754
38.111,64.5996,0.011754
38.138,64.5809,0.011754
38.168,64.5599,0.011396
38.200,64.5388,0.011396
38.232,64.5184,0.011396
38.263,64.4993,0.011396
38.293,64.4814,0.011396
38.324,64.4639,0.011396
38.356,64.4470,0.011396
38.387,64.4308,0.011057
38.419,64.4144,0.011057
38.450,64.3999,0.011057
38.481,64.3859,0.011057
38.512,64.3728,0.011057
38.543,64.3602,0.011057
38.575,64.3481,0.011057
38.606,64.3372,0.011057
38.636,64.3269,0.010803
38.668,64.3173,0.010803
38.699,64.3084,0.010803
38.731,64.3001,0.010803
38.762,64.2928,0.010803
38.793,64.2863,0.010803
38.823,64.2805,0.010803
38.853,64.2754,0.010803
38.885,64.2709,0.010813
38.915,64.2672,0.010813
38.947,64.2642,0.010813
38.978,64.2619,0.010813
39.009,64.2604,0.010813
39.043,64.2595,0.010813
39.070,64.2594,0.010813
39.102,64.2594,0.010813
39.132,64.2594,0.010596
39.163,64.2594,0.010596
39.193,64.2594,0.010596
39.224,64.2594,0.010596
39.255,64.2594,0.010596
39.286,64.2594,0.010596
39.317,64.2594,0.010596
39.349,64.2594,0.010596
39.380,64.2594,0.010483
39.410,64.2594,0.010483
39.442,64.2594,0.010483
39.473,64.2594,0.010483
39.504,64.2594,0.010483
39.535,64.2599,0.010483
39.567,64.2611,0.010483
39.598,64.2631,0.010483
39.629,64.2657,0.010558
39.660,64.2691,0.010558
39.691,64.2733,0.010558
39.724,64.2784,0.010558
39.755,64.2840,0.010558
39.785,64.2902,0.010558
39.815,64.2970,0.010558
39.847,64.3048,0.010558
39.877,64.3135,0.010380
39.908,64.3224,0.010380
39.940,64.3327,0.010380
39.970,64.3431,0.010380
40.001,64.3546,0.010380
40.032,64.3664,0.010380
40.062,64.3793,0.010380
40.094,64.3927,0.010380
40.126,64.4080,0.010201
40.157,64.4230,0.010201
40.189,64.4392,0.010201
40.219,64.4549,0.010201
40.249,64.4720,0.010201
40.275,64.4871,0.010201
40.311,64.5087,0.010201
40.342,64.5278,0.010201
40.372,64.5474,0.010003
40.403,64.5682,0.010003
40.434,64.5892,0.010003
40.465,64.6122,0.010003
40.496,64.6346,0.010003
40.526,64.6584,0.010003
40.556,64.6817,0.010003
40.589,64.7085,0.010003
40.619,64.7332,0.009853
40.650,64.7602,0.009853
40.681,64.7869,0.009853
40.711,64.8143,0.009853
40.742,64.8442,0.009853
40.774,64.8736,0.009853
40.805,64.9036,0.009853
40.836,64.9350,0.009853
40.867,64.9666,0.009523
40.898,64.9985,0.009523
40.929,65.0318,0.009523
40.960,65.0665,0.009523
40.990,65.1000,0.009523
41.023,65.1385,0.009523
41.052,65.1717,0.009523
41.084,65.2094,0.009523
41.115,65.2456,0.009025
41.145,65.2838,0.009025
41.177,65.3234,0.009025
41.208,65.3631,0.009025
41.239,65.4046,0.009025
41.270,65.4461,0.009025
41.301,65.4877,0.009025
41.332,65.5300,0.009025
41.363,65.5737,0.008460
41.394,65.6172,0.008460
41.424,65.6617,0.008460
41.455,65.7067,0.008460
41.486,65.7529,0.008460
41.518,65.8006,0.008460
41.549,65.8497,0.008460
41.579,65.8953,0.008460
41.610,65.9444,0.008460
41.641,65.9935,0.007538
41.672,66.0438,0.007538
41.702,66.0962,0.007538
41.733,66.1479,0.007538
41.767,66.2038,0.007538
41.795,66.2523,0.007538
41.827,66.3083,0.007538
41.859,66.3663,0.007538
41.889,66.4189,0.007538
41.919,66.4748,0.006173
41.950,66.5318,0.006173
41.981,66.5892,0.006173
42.013,66.6501,0.006173
42.044,66.7091,0.006173
42.076,66.7696,0.006173
42.108,66.8328,0.006173
42.138,66.8909,0.004065
42.172,66.9550,0.004065
42.201,67.0070,0.004065
42.233,67.0672,0.004065
42.264,67.1215,0.004065
42.295,67.1790,0.004065
42.326,67.2322,0.004065
42.365,67.2997,0.004065
42.403,67.3668,0.000781
42.434,67.4175,0.000781
42.465,67.4691,0.000781
42.496,67.5191,0.000781
42.526,67.5695,0.000781
42.557,67.6176,0.000781
42.589,67.6676,0.000781
42.621,67.7165,-0.004583
42.651,67.7627,-0.004583
42.683,67.8094,-0.004583
42.713,67.8537,-0.004583
42.744,67.8980,-0.004583
42.775,67.9418,-0.004583
42.805,67.9858,-0.004583
42.836,68.0278,-0.004583
42.867,68.0690,-0.004583
42.898,68.1101,-0.013899
42.928,68.1503,-0.013899
42.959,68.1896,-0.013899
42.995,68.2358,-0.013899
43.020,68.2671,-0.013899
43.052,68.3043,-0.013899
43.083,68.3414,-0.013899
43.114,68.3781,-0.013899
43.146,68.4143,-0.028843
43.175,68.4479,-0.028843
43.208,68.4838,-0.028843
43.238,68.5149,-0.028843
43.270,68.5485,-0.028843
43.302,68.5815,-0.028843
43.333,68.6124,-0.028843
43.363,68.6423,-0.028843
43.393,68.6715,-0.050308
43.424,68.6997,-0.050308
43.455,68.7273,-0.050308
43.486,68.7556,-0.050308
43.516,68.7814,-0.050308
43.547,68.8077,-0.050308
43.578,68.8326,-0.050308
43.610,68.8578,-0.050308
43.642,68.8819,-0.078229
43.674,68.9064,-0.078229
43.703,68.9274,-0.078229
43.734,68.9488,-0.078229
43.765,68.9701,-0.078229
43.797,68.9903,-0.078229
43.827,69.0092,-0.078229
43.859,69.0282,-0.078229
43.889,69.0461,-0.115851
43.920,69.0633,-0.115851
43.951,69.0794,-0.115851
43.983,69.0961,-0.115851
44.013,69.1104,-0.115851
44.047,69.1262,-0.115851
44.076,69.1388,-0.115851
44.107,69.1520,-0.115851
44.138,69.1642,-0.184820
44.168,69.1752,-0.184820
44.199,69.1856,-0.184820
44.230,69.1959,-0.184820
44.261,69.2051,-0.184820
44.292,69.2136,-0.184820
44.324,69.2216,-0.184820
44.355,69.2286,-0.184820
44.385,69.2347,-0.292193
44.416,69.2404,-0.292193
44.447,69.2453,-0.292193
44.478,69.2495,-0.292193
44.508,69.2528,-0.292193
44.539,69.2556,-0.292193
44.570,69.2575,-0.292193
44.601,69.2588,-0.292193
44.632,69.2594,-0.292193
44.663,69.2594,-0.378053
44.695,69.2594,-0.378053
44.725,69.2594,-0.378053
44.757,69.2594,-0.378053
44.787,69.2594,-0.378053
44.818,69.2594,-0.378053
44.848,69.2594,-0.378053
44.879,69.2594,-0.318495
44.910,69.2594,-0.318495
44.940,69.2594,-0.318495
44.972,69.2594,-0.318495
45.004,69.2594,-0.318495
45.035,69.2594,-0.318495
45.067,69.2594,-0.318495
45.098,69.2594,-0.318495
45.129,69.2594,-0.203697
45.160,69.2594,-0.203697
45.191,69.2594,-0.203697
45.222,69.2594,-0.203697
45.254,69.2594,-0.203697
45.285,69.2594,-0.203697
45.316,69.2594,-0.203697
45.348,69.2594,-0.203697
45.378,69.2594,-0.165002
45.409,69.2594,-0.165002
45.440,69.2594,-0.165002
45.471,69.2594,-0.165002
45.502,69.2594,-0.165002
45.534,69.2594,-0.165002
45.566,69.2594,-0.165002
45.597,69.2594,-0.165002
45.629,69.2594,-0.152128
45.658,69.2594,-0.152128
45.690,69.2594,-0.152128
45.721,69.2594,-0.152128
45.752,69.2594,-0.152128
45.781,69.2594,-0.152128
45.813,69.2594,-0.152128
45.844,69.2594,-0.152128
45.875,69.2594,-0.152128
45.906,69.2594,-0.142868
45.938,69.2594,-0.142868
45.968,69.2594,-0.142868
45.999,69.2594,-0.142868
46.029,69.2594,-0.142868
46.060,69.2594,-0.142868
46.090,69.2594,-0.142868
46.120,69.2594,-0.142868
46.152,69.2594,-0.136206
46.182,69.2594,-0.136206
46.213,69.2594,-0.136206
46.244,69.2594,-0.136206
46.275,69.2594,-0.136206
46.307,69.2594,-0.136206
46.336,69.2594,-0.136206
46.368,69.2594,-0.136206
46.398,69.2594,-0.132122
46.429,69.2594,-0.132122
46.460,69.2594,-0.132122
46.491,69.2594,-0.132122
46.522,69.2594,-0.132122
46.553,69.2594,-0.132122
46.583,69.2594,-0.132122
46.616,69.2594,-0.132122
46.646,69.2594,-0.128715
46.677,69.2594,-0.128715
46.708,69.2594,-0.128715
46.740,69.2594,-0.128715
46.771,69.2594,-0.128715
46.803,69.2594,-0.128715
46.833,69.2594,-0.128715
46.865,69.2594,-0.128715
46.896,69.2594,-0.125930
46.927,69.2594,-0.125930
46.958,69.2594,-0.125930
46.991,69.2594,-0.125930
47.020,69.2594,-0.125930
47.051,69.2594,-0.125930
47.083,69.2594,-0.125930
47.114,69.2594,-0.125930
47.144,69.2594,-0.122777
47.175,69.2594,-0.122777
47.206,69.2594,-0.122777
47.237,69.2594,-0.122777
47.268,69.2594,-0.122777
47.298,69.2594,-0.122777
47.329,69.2594,-0.122777
47.360,69.2594,-0.122777
47.391,69.2594,-0.122777
47.422,69.2594,-0.120839
47.453,69.2594,-0.120839
47.485,69.2594,-0.120839
47.516,69.2594,-0.120839
47.547,69.2594,-0.120839
47.578,69.2594,-0.120839
47.609,69.2594,-0.120839
47.640,69.2594,-0.118806
47.673,69.2594,-0.118806
47.702,69.2594,-0.118806
47.733,69.2594,-0.118806
47.764,69.2594,-0.118806
47.799,69.2594,-0.118806
47.826,69.2594,-0.118806
47.857,69.2594,-0.118806
47.888,69.2594,-0.116821
47.920,69.2594,-0.116821
47.950,69.2594,-0.116821
47.980,69.2594,-0.116821
48.011,69.2594,-0.116821
48.043,69.2594,-0.116821
48.073,69.2594,-0.116821
48.105,69.2594,-0.116821
48.136,69.2594,-0.115221
48.167,69.2594,-0.115221
48.199,69.2594,-0.115221
48.230,69.2594,-0.115221
48.261,69.2594,-0.115221
48.292,69.2594,-0.115221
48.323,69.2594,-0.115221
48.353,69.2594,-0.115221
48.385,69.2594,-0.113593
48.415,69.2594,-0.113593
48.446,69.2594,-0.113593
48.478,69.2594,-0.113593
48.508,69.2594,-0.113593
48.540,69.2594,-0.113593
48.571,69.2594,-0.113593
48.602,69.2594,-0.113593
48.633,69.2594,-0.111824
48.664,69.2594,-0.111824
48.694,69.2594,-0.111824
48.726,69.2594,-0.111824
48.757,69.2594,-0.111824
48.788,69.2594,-0.111824
48.821,69.2594,-0.111824
48.851,69.2594,-0.111824
48.882,69.2594,-0.109659
48.913,69.2594,-0.109659
48.943,69.2594,-0.109659
48.974,69.2594,-0.109659
49.005,69.2593,-0.109659
49.037,69.2585,-0.109659
49.068,69.2569,-0.109659
49.100,69.2547,-0.109659
49.130,69.2517,-0.107768
49.161,69.2480,-0.107768
49.193,69.2434,-0.107768
49.223,69.2384,-0.107768
49.256,69.2322,-0.107768
49.286,69.2258,-0.107768
49.317,69.2182,-0.107768
49.348,69.2103,-0.107768
49.378,69.2017,-0.107768
49.409,69.1922,0.084364
49.441,69.1818,0.084364
49.471,69.1707,0.084364
49.503,69.1589,0.084364
49.533,69.1469,0.084364
49.564,69.1336,0.084364
49.594,69.1201,0.084364
49.625,69.1057,0.084364
49.656,69.0907,0.138022
49.687,69.0741,0.138022
49.718,69.0572,0.138022
49.752,69.0384,0.138022
49.780,69.0216,0.138022
49.811,69.0028,0.138022
49.841,68.9836,0.138022
49.872,68.9634,0.138022
49.902,68.9429,0.005929
49.935,68.9202,0.005929
49.965,68.8976,0.005929
49.996,68.8749,0.005929
50.027,68.8502,0.005929
50.059,68.8256,0.005929
50.089,68.8003,0.005929
50.121,68.7736,0.005929
50.152,68.7471,0.021559
50.182,68.7193,0.021559
50.214,68.6908,0.021559
50.244,68.6616,0.021559
50.275,68.6326,0.021559
50.305,68.6024,0.021559
50.336,68.5717,0.021559
50.367,68.5393,0.021559
50.399,68.5055,0.039110
50.430,68.4717,0.039110
50.461,68.4376,0.039110
50.494,68.4005,0.039110
50.524,68.3659,0.039110
50.555,68.3298,0.039110
50.587,68.2916,0.039110
50.618,68.2534,0.039110
50.649,68.2152,0.051023
50.679,68.1769,0.051023
50.710,68.1360,0.051023
50.742,68.0954,0.051023
50.773,68.0529,0.051023
50.804,68.0114,0.051023
50.834,67.9678,0.051023
50.865,67.9259,0.051023
50.896,67.8804,0.058231
50.927,67.8361,0.058231
50.958,67.7891,0.058231
50.989,67.7423,0.058231
51.020,67.6960,0.058231
51.051,67.6472,0.058231
51.082,67.5990,0.058231
51.115,67.5473,0.058231
51.145,67.4985,0.063605
51.175,67.4489,0.063605
51.205,67.3977,0.063605
51.237,67.3452,0.063605
51.268,67.2918,0.063605
51.299,67.2367,0.063605
51.330,67.1830,0.063605
51.361,67.1273,0.063605
51.393,67.0709,0.068216
51.423,67.0148,0.068216
51.455,66.9565,0.068216
51.486,66.8975,0.068216
51.516,66.8386,0.068216
51.547,66.7804,0.068216
51.578,66.7200,0.068216
51.609,66.6601,0.068216
51.640,66.6003,0.070710
51.672,66.5396,0.070710
51.703,66.4824,0.070710
51.734,66.4245,0.070710
51.764,66.3699,0.070710
51.795,66.3143,0.070710
51.826,66.2593,0.070710
51.858,66.2043,0.070710
51.889,66.1499,0.078266
51.920,66.0972,0.078266
51.952,66.0443,0.078266
51.983,65.9920,0.078266
52.015,65.9414,0.078266
52.046,65.8909,0.078266
52.077,65.8416,0.078266
52.108,65.7933,0.076563
52.138,65.7453,0.076563
52.170,65.6988,0.076563
52.201,65.6526,0.076563
52.231,65.6084,0.076563
52.263,65.5628,0.076563
52.294,65.5174,0.076563
52.325,65.4757,0.076563
52.356,65.4323,0.041152
52.387,65.3912,0.041152
52.419,65.3486,0.041152
52.449,65.3080,0.041152
52.482,65.2675,0.041152
52.512,65.2284,0.041152
52.542,65.1930,0.041152
52.573,65.1543,0.041152
52.605,65.1176,0.041152
52.636,65.0807,0.013579
52.669,65.0431,0.013579
52.698,65.0105,0.013579
52.729,64.9770,0.013579
52.760,64.9440,0.013579
52.791,64.9124,0.013579
52.821,64.8812,0.013579
52.852,64.8506,0.012121
52.883,64.8201,0.012121
52.914,64.7902,0.012121
52.945,64.7623,0.012121
52.977,64.7339,0.012121
53.007,64.7067,0.012121
53.039,64.6795,0.012121
53.070,64.6540,0.012121
53.101,64.6292,0.012121
53.132,64.6044,0.011547
53.163,64.5805,0.011547
53.195,64.5572,0.011547
53.225,64.5356,0.011547
53.256,64.5141,0.011547
53.288,64.4928,0.011547
53.318,64.4732,0.011547
53.350,64.4541,0.011547
53.381,64.4351,0.011236
53.411,64.4179,0.011236
53.442,64.4005,0.011236
53.473,64.3844,0.011236
53.505,64.3680,0.011236
53.537,64.3534,0.011236
53.567,64.3398,0.011236
53.598,64.3262,0.011236
53.629,64.3136,0.011001
53.660,64.3013,0.011001
53.691,64.2905,0.011001
53.721,64.2801,0.011001
53.753,64.2702,0.011001
53.782,64.2615,0.011001
53.815,64.2528,0.011001
53.845,64.2455,0.011001
53.875,64.2387,0.011001
53.906,64.2325,0.010850
53.937,64.2271,0.010850
53.967,64.2224,0.010850
53.998,64.2185,0.010850
54.028,64.2152,0.010850
54.059,64.2126,0.010850
54.090,64.2108,0.010850
54.121,64.2097,0.010850
54.152,64.2093,0.010700
54.183,64.2093,0.010700
54.214,64.2093,0.010700
54.245,64.2093,0.010700
54.275,64.2093,0.010700
54.307,64.2097,0.010700
54.337,64.2108,0.010700
54.369,64.2128,0.010700
54.400,64.2152,0.010615
54.434,64.2191,0.010615
54.463,64.2227,0.010615
54.493,64.2275,0.010615
54.525,64.2330,0.010615
54.555,64.2392,0.010615
54.587,64.2465,0.010615
54.619,64.2542,0.010615
54.649,64.2627,0.010446
54.681,64.2720,0.010446
54.711,64.2817,0.010446
54.742,64.2923,0.010446
54.773,64.3038,0.010446
54.809,64.3176,0.010446
54.835,64.3284,0.010446
54.866,64.3420,0.010446
54.897,64.3564,0.010267
54.929,64.3714,0.010267
54.959,64.3866,0.010267
54.991,64.4039,0.010267
55.022,64.4206,0.010267
55.053,64.4391,0.010267
55.084,64.4572,0.010267
55.115,64.4766,0.010126
55.146,64.4969,0.010126
55.177,64.5176,0.010126
55.207,64.5389,0.010126
55.238,64.5609,0.010126
55.269,64.5838,0.010126
55.300,64.6078,0.010126
55.331,64.6318,0.010126
55.361,64.6568,0.009947
55.393,64.6828,0.009947
55.424,64.7096,0.009947
55.454,64.7364,0.009947
55.486,64.7652,0.009947
55.516,64.7929,0.009947
55.547,64.8228,0.009947
55.578,64.8526,0.009947
55.608,64.8836,0.009655
55.640,64.9149,0.009655
55.671,64.9478,0.009655
55.703,64.9825,0.009655
55.733,65.0154,0.009655
55.764,65.0493,0.009655
55.794,65.0837,0.009655
55.825,65.1190,0.009655
55.856,65.1566,0.009175
55.888,65.1950,0.009175
55.918,65.2314,0.009175
55.949,65.2709,0.009175
55.980,65.3106,0.009175
56.010,65.3509,0.009175
56.042,65.3928,0.009175
56.073,65.4345,0.009175
56.104,65.4758,0.008526
56.135,65.5192,0.008526
56.165,65.5634,0.008526
56.198,65.6115,0.008526
56.227,65.6538,0.008526
56.259,65.6998,0.008526
56.289,65.7472,0.008526
56.320,65.7938,0.008526
56.351,65.8429,0.008526
56.382,65.8909,0.007660
56.414,65.9425,0.007660
56.445,65.9921,0.007660
56.475,66.0425,0.007660
56.508,66.0993,0.007660
56.536,66.1458,0.007660
56.567,66.1987,0.007660
56.598,66.2531,0.007660
56.629,66.3089,0.006352
56.661,66.3651,0.006352
56.693,66.4247,0.006352
56.722,66.4761,0.006352
56.753,66.5342,0.006352
56.784,66.5943,0.006352
56.816,66.6539,0.006352
56.846,66.7136,0.006352
56.877,66.7738,0.004301
56.908,66.8316,0.004301
56.939,66.8903,0.004301
56.970,66.9465,0.004301
57.001,67.0055,0.004301
57.031,67.0611,0.004301
57.062,67.1149,0.004301
57.094,67.1710,0.004301
57.124,67.2245,0.001139
57.155,67.2784,0.001139
57.185,67.3297,0.001139
57.219,67.3862,0.001139
57.247,67.4318,0.001139
57.277,67.4795,0.001139
57.308,67.5310,0.001139
57.339,67.5788,0.001139
57.370,67.6277,-0.004150
57.401,67.6748,-0.004150
57.432,67.7216,-0.004150
57.462,67.7668,-0.004150
57.494,67.8139,-0.004150
57.525,67.8589,-0.004150
57.556,67.9018,-0.004150
57.588,67.9461,-0.004150
57.618,67.9884,-0.013052
57.649,68.0300,-0.013052
57.681,68.0725,-0.013052
57.713,68.1132,-0.013052
57.744,68.1530,-0.013052
57.775,68.1913,-0.013052
57.806,68.2303,-0.013052
57.837,68.2676,-0.013052
57.868,68.3042,-0.027281
57.900,68.3408,-0.027281
57.930,68.3750,-0.027281
57.962,68.4103,-0.027281
57.992,68.4435,-0.027281
58.022,68.4761,-0.027281
58.054,68.5099,-0.027281
58.085,68.5402,-0.027281
58.117,68.5721,-0.027281
58.147,68.6013,-0.048078
58.178,68.6312,-0.048078
58.209,68.6595,-0.048078
58.240,68.6874,-0.048078
58.272,68.7152,-0.048078
58.303,68.7421,-0.048078
58.334,68.7673,-0.048078
58.366,68.7932,-0.075255
58.396,68.8170,-0.075255
58.427,68.8400,-0.075255
58.457,68.8625,-0.075255
58.488,68.8848,-0.075255
58.520,68.9063,-0.075255
58.551,68.9275,-0.075255
58.582,68.9471,-0.075255
58.613,68.9665,-0.075255
58.645,68.9851,-0.111165
58.675,69.0029,-0.111165
58.707,69.0203,-0.111165
58.737,69.0359,-0.111165
58.769,69.0517,-0.111165
58.799,69.0664,-0.111165
58.831,69.0802,-0.111165
58.862,69.0936,-0.176529
58.892,69.1062,-0.176529
58.923,69.1179,-0.176529
58.954,69.1294,-0.176529
58.986,69.1397,-0.176529
59.017,69.1494,-0.176529
59.048,69.1583,-0.176529
59.078,69.1666,-0.176529
59.109,69.1742,-0.176529
59.141,69.1810,-0.279884
59.172,69.1871,-0.279884
59.202,69.1923,-0.279884
59.233,69.1969,-0.279884
59.265,69.2009,-0.279884
59.296,69.2040,-0.279884
59.327,69.2064,-0.279884
59.358,69.2082,-0.371475
59.390,69.2090,-0.371475
59.421,69.2093,-0.371475
59.453,69.2093,-0.371475
59.484,69.2093,-0.371475
59.514,69.2093,-0.371475
59.545,69.2093,-0.371475
59.577,69.2093,-0.371475
59.607,69.2093,-0.324884
59.639,69.2093,-0.324884
59.669,69.2093,-0.324884
59.701,69.2093,-0.324884
59.731,69.2093,-0.324884
59.763,69.2093,-0.324884
59.793,69.2093,-0.324884
59.824,69.2093,-0.324884
59.855,69.2093,-0.324884
59.886,69.2093,-0.210633
59.917,69.2093,-0.210633
59.949,69.2093,-0.210633
59.980,69.2093,-0.210633
60.010,69.2093,-0.210633
60.042,69.2093,-0.210633
60.073,69.2093,-0.210633
60.104,69.2093,-0.166159
60.135,69.2093,-0.166159
60.166,69.2093,-0.166159
60.198,69.2093,-0.166159
60.228,69.2093,-0.166159
60.259,69.2093,-0.166159
60.290,69.2093,-0.166159
60.322,69.2093,-0.166159
60.351,69.2093,-0.166159
60.382,69.2093,-0.166159
60.414,69.2093,-0.151573
60.450,69.2093,-0.151573
60.479,69.2093,-0.151573
60.509,69.2093,-0.151573
60.540,69.2093,-0.151573
60.571,69.2093,-0.151573
60.602,69.2093,-0.151573
60.632,69.2093,-0.151573
60.663,69.2093,-0.143057
60.701,69.2093,-0.143057
60.741,69.2093,-0.143057
60.773,69.2093,-0.143057
60.804,69.2093,-0.143057
60.835,69.2093,-0.143057
60.866,69.2093,-0.143057
60.897,69.2093,-0.137015
60.928,69.2093,-0.137015
60.959,69.2093,-0.137015
60.991,69.2093,-0.137015
61.021,69.2093,-0.137015
61.052,69.2093,-0.137015
61.085,69.2093,-0.137015
61.116,69.2093,-0.137015
61.147,69.2093,-0.132395
61.178,69.2093,-0.132395
61.209,69.2093,-0.132395
61.239,69.2093,-0.132395
61.271,69.2093,-0.132395
61.301,69.2093,-0.132395
61.333,69.2093,-0.132395
61.362,69.2093,-0.132395
61.393,69.2093,-0.128584
61.425,69.2093,-0.128584
61.456,69.2093,-0.128584
61.487,69.2093,-0.128584
61.517,69.2093,-0.128584
61.548,69.2093,-0.128584
61.580,69.2093,-0.128584
61.611,69.2093,-0.128584
61.643,69.2093,-0.125431
61.675,69.2093,-0.125431
61.706,69.2093,-0.125431
61.737,69.2093,-0.125431
61.767,69.2093,-0.125431
61.798,69.2093,-0.125431
61.830,69.2093,-0.125431
61.860,69.2093,-0.125431
61.892,69.2093,-0.122711
61.924,69.2093,-0.122711
61.955,69.2093,-0.122711
61.985,69.2093,-0.122711
62.018,69.2093,-0.122711
62.048,69.2093,-0.122711
62.078,69.2093,-0.122711
62.108,69.2093,-0.120415
62.139,69.2093,-0.120415
62.169,69.2093,-0.120415
62.203,69.2093,-0.120415
62.231,69.2093,-0.120415
62.264,69.2093,-0.120415
62.295,69.2093,-0.120415
62.325,69.2093,-0.120415
62.356,69.2093,-0.120415
62.387,69.2093,-0.118401
62.419,69.2093,-0.118401
62.451,69.2093,-0.118401
62.481,69.2093,-0.118401
62.511,69.2093,-0.118401
62.542,69.2093,-0.118401
62.576,69.2093,-0.118401
62.604,69.2093,-0.118401
62.635,69.2093,-0.116482
62.666,69.2093,-0.116482
62.698,69.2093,-0.116482
62.728,69.2093,-0.116482
62.764,69.2093,-0.116482
62.790,69.2093,-0.116482
62.821,69.2093,-0.116482
62.853,69.2093,-0.116482
62.883,69.2093,-0.116482
62.914,69.2093,-0.114863
62.946,69.2093,-0.114863
62.977,69.2093,-0.114863
63.008,69.2093,-0.114863
63.039,69.2093,-0.114863
63.070,69.2093,-0.114863
63.100,69.2093,-0.114863
63.130,69.2093,-0.114863
63.159,69.2093,-0.113358
63.190,69.2093,-0.113358
63.221,69.2093,-0.113358
63.252,69.2093,-0.113358
63.282,69.2093,-0.113358
63.313,69.2093,-0.113358
63.344,69.2093,-0.113358
63.376,69.2093,-0.113358
63.407,69.2093,-0.111588
63.437,69.2093,-0.111588
63.468,69.2093,-0.111588
63.499,69.2093,-0.111588
63.530,69.2093,-0.111588
63.561,69.2093,-0.111588
63.591,69.2093,-0.111588
63.622,69.2093,-0.111588
63.653,69.2093,-0.109584
63.685,69.2093,-0.109584
63.716,69.2093,-0.109584
63.746,69.2089,-0.109584
63.778,69.2078,-0.109584
63.808,69.2059,-0.109584
63.839,69.2035,-0.109584
63.871,69.2001,-0.109584
63.902,69.1960,-0.107090
63.934,69.1911,-0.107090
63.965,69.1857,-0.107090
63.997,69.1792,-0.107090
64.027,69.1725,-0.107090
64.059,69.1646,-0.107090
64.090,69.1563,-0.107090
64.121,69.1470,-0.107090
64.151,69.1376,0.064574
64.182,69.1264,0.064574
64.213,69.1153,0.064574
64.244,69.1034,0.064574
64.276,69.0905,0.064574
64.306,69.0763,0.064574
64.338,69.0626,0.064574
64.368,69.0478,0.064574
64.399,69.0326,0.117460
64.430,69.0159,0.117460
64.462,68.9983,0.117460
64.492,68.9810,0.117460
64.523,68.9621,0.117460
64.553,68.9436,0.117460
64.585,68.9229,0.117460
64.616,68.9026,0.006634
64.651,68.8779,0.006634
64.678,68.8583,0.006634
64.708,68.8359,0.006634
64.739,68.8125,0.006634
64.771,68.7864,0.006634
64.800,68.7641,0.006634
64.831,68.7380,0.006634
64.862,68.7117,0.022933
64.893,68.6841,0.022933
64.923,68.6562,0.022933
64.954,68.6285,0.022933
64.985,68.5987,0.022933
65.016,68.5687,0.022933
65.047,68.5378,0.022933
65.078,68.5058,0.022933
65.109,68.4743,0.022933
65.139,68.4418,0.039844
65.171,68.4075,0.039844
65.202,68.3730,0.039844
65.232,68.3383,0.039844
65.263,68.3017,0.039844
65.295,68.2650,0.039844
65.326,68.2265,0.039844
65.357,68.1893,0.050976
65.389,68.1491,0.050976
65.420,68.1091,0.050976
65.451,68.0684,0.050976
65.482,68.0281,0.050976
65.514,67.9847,0.050976
65.544,67.9440,0.050976
65.574,67.9010,0.050976
65.606,67.8553,0.057657
65.638,67.8102,0.057657
65.670,67.7627,0.057657
65.701,67.7173,0.057657
65.732,67.6686,0.057657
65.763,67.6219,0.057657
65.795,67.5722,0.057657
65.825,67.5233,0.057657
65.856,67.4733,0.057657
65.888,67.4224,0.062664
65.918,67.3726,0.062664
65.950,67.3189,0.062664
65.981,67.2655,0.062664
66.012,67.2131,0.062664
66.042,67.1599,0.062664
66.073,67.1042,0.062664
66.102,67.0522,0.062664
66.136,66.9914,0.062664
66.168,66.9331,0.067435
66.198,66.8770,0.067435
66.228,66.8186,0.067435
66.259,66.7598,0.067435
66.291,66.6968,0.067435
66.322,66.6388,0.067435
66.353,66.5775,0.067435
66.384,66.5203,0.070107
66.415,66.4606,0.070107
66.446,66.4043,0.070107
66.477,66.3468,0.070107
66.507,66.2919,0.070107
66.539,66.2348,0.070107
66.570,66.1808,0.070107
66.601,66.1271,0.070107
66.631,66.0751,0.070107
66.663,66.0215,0.077203
66.694,65.9688,0.077203
66.725,65.9178,0.077203
66.756,65.8682,0.077203
66.787,65.8186,0.077203
66.818,65.7704,0.077203
66.850,65.7203,0.077203
66.881,65.6738,0.065129
66.913,65.6245,0.065129
66.942,65.5819,0.065129
66.974,65.5362,0.065129
67.003,65.4936,0.065129
67.035,65.4493,0.065129
67.065,65.4069,0.065129
67.096,65.3639,0.065129
67.127,65.3241,0.030160
67.158,65.2821,0.030160
67.189,65.2431,0.030160
67.220,65.2042,0.030160
67.251,65.1638,0.030160
67.282,65.1266,0.030160
67.312,65.0907,0.030160
67.344,65.0539,0.030160
67.375,65.0183,0.013193
67.405,64.9833,0.013193
67.436,64.9500,0.013193
67.467,64.9166,0.013193
67.498,64.8839,0.013193
67.529,64.8507,0.013193
67.560,64.8196,0.013193
67.591,64.7884,0.013193
67.623,64.7585,0.012055
67.656,64.7275,0.012055
67.686,64.6998,0.012055
67.717,64.6726,0.012055
67.748,64.6454,0.012055
67.780,64.6177,0.012055
67.810,64.5934,0.012055
67.841,64.5688,0.012055
67.871,64.5451,0.011603
67.903,64.5213,0.011603
67.935,64.4984,0.011603
67.966,64.4762,0.011603
67.998,64.4547,0.011603
68.028,64.4346,0.011603
68.060,64.4149,0.011603
68.090,64.3959,0.011603
68.121,64.3781,0.011227
68.152,64.3607,0.011227
68.183,64.3436,0.011227
68.216,64.3266,0.011227
68.246,64.3117,0.011227
68.275,64.2980,0.011227
68.309,64.2833,0.011227
68.340,64.2699,0.011227
68.372,64.2574,0.011029
68.403,64.2458,0.011029
68.433,64.2350,0.011029
68.464,64.2252,0.011029
68.495,64.2155,0.011029
68.527,64.2068,0.011029
68.558,64.1989,0.011029
68.589,64.1917,0.011029
68.621,64.1850,0.011029
68.652,64.1793,0.010869
68.682,64.1743,0.010869
68.712,64.1701,0.010869
68.744,64.1664,0.010869
68.775,64.1636,0.010869
68.806,64.1614,0.010869
68.837,64.1601,0.010869
68.868,64.1593,0.010869
68.898,64.1593,0.010700
68.931,64.1593,0.010700
68.962,64.1593,0.010700
68.994,64.1593,0.010700
69.024,64.1594,0.010700
69.054,64.1603,0.010700
69.086,64.1618,0.010700
69.117,64.1641,0.010700
69.147,64.1670,0.010596
69.179,64.1710,0.010596
69.209,64.1752,0.010596
69.240,64.1805,0.010596
69.272,64.1863,0.010596
69.302,64.1929,0.010596
69.334,64.2006,0.010596
69.365,64.2084,0.010455
69.396,64.2176,0.010455
69.427,64.2269,0.010455
69.459,64.2376,0.010455
69.489,64.2482,0.010455
69.520,64.2600,0.010455
69.552,64.2728,0.010455
69.581,64.2857,0.010455
69.613,64.2996,0.010304
69.641,64.3125,0.010304
69.675,64.3296,0.010304
69.706,64.3458,0.010304
69.737,64.3631,0.010304
69.768,64.3802,0.010304
69.800,64.3992,0.010304
69.831,64.4184,0.010304
69.862,64.4384,0.010304
69.893,64.4588,0.010135
69.924,64.4795,0.010135
69.956,64.5025,0.010135
69.987,64.5249,0.010135
70.018,64.5485,0.010135
70.049,64.5723,0.010135
70.080,64.5979,0.010135
70.111,64.6230,0.009909
70.142,64.6499,0.009909
70.173,64.6764,0.009909
70.204,64.7041,0.009909
70.235,64.7330,0.009909
70.268,64.7636,0.009909
70.298,64.7928,0.009909
70.329,64.8235,0.009909
70.362,64.8568,0.009909
70.390,64.8863,0.009909
70.421,64.9199,0.009599
70.453,64.9536,0.009599
70.483,64.9883,0.009599
70.515,65.0231,0.009599
70.546,65.0597,0.009599
70.577,65.0959,0.009599
70.609,65.1345,0.009599
70.640,65.1726,0.009599
70.670,65.2113,0.009147
70.702,65.2500,0.009147
70.732,65.2908,0.009147
70.764,65.3317,0.009147
70.795,65.3728,0.009147
70.826,65.4155,0.009147
70.856,65.4576,0.009147
70.886,65.5012,0.009147
70.917,65.5439,0.008526
70.949,65.5900,0.008526
70.979,65.6356,0.008526
71.010,65.6837,0.008526
71.041,65.7301,0.008526
71.072,65.7782,0.008526
71.103,65.8279,0.008526
71.133,65.8747,0.007641
71.164,65.9243,0.007641
71.196,65.9775,0.007641
71.226,66.0295,0.007641
71.257,66.0817,0.007641
71.289,66.1352,0.007641
71.320,66.1887,0.007641
71.351,66.2441,0.007641
71.382,66.2996,0.007641
71.412,66.3535,0.006333
71.443,66.4124,0.006333
71.476,66.4717,0.006333
71.506,66.5285,0.006333
71.537,66.5868,0.006333
71.568,66.6467,0.006333
71.598,66.7064,0.006333
71.629,66.7644,0.004253
71.661,66.8242,0.004253
71.691,66.8819,0.004253
71.722,66.9398,0.004253
71.753,66.9960,0.004253
71.784,67.0509,0.004253
71.816,67.1073,0.004253
71.851,67.1705,0.004253
71.879,67.2171,0.000998
71.910,67.2702,0.000998
71.941,67.3209,0.000998
71.971,67.3719,0.000998
72.003,67.4236,0.000998
72.034,67.4735,0.000998
72.065,67.5227,0.000998
72.096,67.5716,0.000998
72.126,67.6181,-0.004338
72.157,67.6652,-0.004338
72.189,67.7116,-0.004338
72.220,67.7578,-0.004338
72.251,67.8020,-0.004338
72.281,67.8460,-0.004338
72.312,67.8887,-0.004338
72.343,67.9315,-0.004338
72.375,67.9739,-0.013560
72.407,68.0169,-0.013560
72.437,68.0561,-0.013560
72.468,68.0964,-0.013560
72.499,68.1360,-0.013560
72.530,68.1731,-0.013560
72.561,68.2107,-0.013560
72.592,68.2475,-0.013560
72.625,68.2853,-0.028335
72.655,68.3202,-0.028335
72.686,68.3548,-0.028335
72.717,68.3888,-0.028335
72.749,68.4220,-0.028335
72.780,68.4550,-0.028335
72.810,68.4856,-0.028335
72.841,68.5169,-0.028335
72.871,68.5456,-0.049715
72.903,68.5768,-0.049715
72.933,68.6043,-0.049715
72.965,68.6333,-0.049715
72.996,68.6596,-0.049715
73.027,68.6869,-0.049715
73.057,68.7121,-0.049715
73.089,68.7376,-0.049715
73.120,68.7623,-0.049715
73.151,68.7855,-0.077495
73.181,68.8078,-0.077495
73.212,68.8307,-0.077495
73.242,68.8515,-0.077495
73.275,68.8733,-0.077495
73.305,68.8924,-0.077495
73.336,68.9120,-0.077495
73.367,68.9306,-0.114731
73.399,68.9488,-0.114731
73.429,68.9657,-0.114731
73.460,68.9826,-0.114731
73.491,68.9980,-0.114731
73.522,69.0130,-0.114731
73.553,69.0271,-0.114731
73.585,69.0407,-0.114731
73.615,69.0533,-0.183907
73.647,69.0658,-0.183907
73.677,69.0766,-0.183907
73.707,69.0870,-0.183907
73.738,69.0968,-0.183907
73.769,69.1061,-0.183907
73.800,69.1144,-0.183907
73.835,69.1232,-0.183907
73.861,69.1291,-0.183907
73.893,69.1354,-0.290310
73.923,69.1407,-0.290310
73.954,69.1457,-0.290310
73.985,69.1498,-0.290310
74.016,69.1531,-0.290310
74.047,69.1557,-0.290310
74.077,69.1577,-0.290310
74.109,69.1588,-0.376227
74.140,69.1593,-0.376227
74.171,69.1593,-0.376227
74.203,69.1593,-0.376227
74.235,69.1593,-0.376227
74.266,69.1593,-0.376227
74.298,69.1593,-0.376227
74.327,69.1593,-0.376227
74.359,69.1593,-0.376227
74.389,69.1593,-0.321600
74.420,69.1593,-0.321600
74.452,69.1593,-0.321600
74.484,69.1593,-0.321600
74.515,69.1593,-0.321600
74.552,69.1593,-0.321600
74.592,69.1593,-0.321600
74.622,69.1593,-0.207433
74.655,69.1593,-0.207433
74.684,69.1593,-0.207433
74.716,69.1593,-0.207433
74.747,69.1593,-0.207433
74.784,69.1593,-0.207433
74.810,69.1593,-0.207433
74.840,69.1593,-0.207433
74.872,69.1593,-0.207433
74.902,69.1593,-0.165538
74.935,69.1593,-0.165538
74.965,69.1593,-0.165538
74.996,69.1593,-0.165538
75.027,69.1593,-0.165538
75.057,69.1593,-0.165538
75.090,69.1593,-0.165538
75.119,69.1593,-0.165538
75.150,69.1593,-0.151441
75.181,69.1593,-0.151441
75.213,69.1593,-0.151441
75.243,69.1593,-0.151441
75.276,69.1593,-0.151441
75.305,69.1593,-0.151441
75.335,69.1593,-0.151441
75.366,69.1593,-0.143132
75.398,69.1593,-0.143132
75.428,69.1593,-0.143132
75.459,69.1593,-0.143132
75.489,69.1593,-0.143132
75.521,69.1593,-0.143132
75.552,69.1593,-0.143132
75.583,69.1593,-0.143132
75.614,69.1593,-0.137147
75.644,69.1593,-0.137147
75.676,69.1593,-0.137147
75.710,69.1593,-0.137147
75.736,69.1593,-0.137147
75.767,69.1593,-0.137147
75.797,69.1593,-0.137147
75.828,69.1593,-0.137147
75.859,69.1593,-0.137147
75.891,69.1593,-0.132555
75.921,69.1593,-0.132555
75.952,69.1593,-0.132555
75.982,69.1593,-0.132555
76.014,69.1593,-0.132555
76.043,69.1593,-0.132555
76.074,69.1593,-0.132555
76.105,69.1593,-0.132555
76.141,69.1593,-0.128809
76.169,69.1593,-0.128809
76.199,69.1593,-0.128809
76.228,69.1593,-0.128809
76.259,69.1593,-0.128809
76.290,69.1593,-0.128809
76.321,69.1593,-0.128809
76.352,69.1593,-0.128809
76.384,69.1593,-0.128809
76.414,69.1593,-0.125685
76.445,69.1593,-0.125685
76.477,69.1593,-0.125685
76.508,69.1593,-0.125685
76.539,69.1593,-0.125685
76.570,69.1593,-0.125685
76.604,69.1593,-0.125685
76.631,69.1593,-0.123135
76.663,69.1593,-0.123135
76.694,69.1593,-0.123135
76.725,69.1593,-0.123135
76.755,69.1593,-0.123135
76.786,69.1593,-0.123135
76.817,69.1593,-0.123135
76.848,69.1593,-0.123135
76.878,69.1593,-0.123135
76.909,69.1593,-0.120848
76.941,69.1593,-0.120848
76.971,69.1593,-0.120848
77.002,69.1593,-0.120848
77.034,69.1593,-0.120848
77.064,69.1593,-0.120848
77.095,69.1593,-0.120848
77.127,69.1593,-0.118797
77.158,69.1593,-0.118797
77.189,69.1593,-0.118797
77.220,69.1593,-0.118797
77.252,69.1593,-0.118797
77.284,69.1593,-0.118797
77.315,69.1593,-0.118797
77.348,69.1593,-0.118797
77.379,69.1593,-0.118797
77.410,69.1593,-0.116915
77.440,69.1593,-0.116915
77.471,69.1593,-0.116915
77.503,69.1593,-0.116915
77.534,69.1593,-0.116915
77.565,69.1593,-0.116915
77.596,69.1593,-0.116915
77.627,69.1593,-0.116915
77.658,69.1593,-0.115268
77.690,69.1593,-0.115268
77.721,69.1593,-0.115268
77.752,69.1593,-0.115268
77.783,69.1593,-0.115268
77.815,69.1593,-0.115268
77.846,69.1593,-0.115268
77.877,69.1593,-0.113687
77.907,69.1593,-0.113687
77.937,69.1593,-0.113687
77.969,69.1593,-0.113687
78.000,69.1593,-0.113687
78.033,69.1593,-0.113687
78.062,69.1593,-0.113687
78.094,69.1593,-0.113687
78.123,69.1593,-0.113687
78.155,69.1593,-0.111795
78.185,69.1593,-0.111795
78.216,69.1593,-0.111795
78.246,69.1593,-0.111795
78.278,69.1593,-0.111795
78.308,69.1593,-0.111795
78.341,69.1593,-0.111795
78.371,69.1593,-0.111795
78.403,69.1593,-0.109687
78.434,69.1587,-0.109687
78.465,69.1573,-0.109687
78.496,69.1553,-0.109687
78.528,69.1525,-0.109687
78.559,69.1489,-0.109687
78.590,69.1448,-0.109687
78.621,69.1397,-0.109687
78.651,69.1343,-0.099270
78.683,69.1276,-0.099270
78.713,69.1205,-0.099270
78.746,69.1123,-0.099270
78.775,69.1042,-0.099270
78.806,69.0948,-0.099270
78.837,69.0850,-0.099270
78.868,69.0740,-0.017146
78.899,69.0626,-0.017146
78.931,69.0497,-0.017146
78.962,69.0365,-0.017146
78.993,69.0234,-0.017146
79.024,69.0085,-0.017146
79.052,68.9950,-0.017146
79.086,68.9776,-0.017146
79.116,68.9614,0.028608
79.148,68.9438,0.028608
79.178,68.9265,0.028608
79.208,68.9080,0.028608
79.239,68.8884,0.028608
79.271,68.8676,0.028608
79.302,68.8465,0.028608
79.336,68.8232,0.028608
79.364,68.8024,0.028608
79.397,68.7778,0.010163
79.426,68.7551,0.010163
79.456,68.7312,0.010163
79.488,68.7058,0.010163
79.519,68.6790,0.010163
79.551,68.6526,0.010163
79.583,68.6240,0.010163
79.613,68.5967,0.028109
79.643,68.5682,0.028109
79.675,68.5381,0.028109
79.706,68.5074,0.028109
79.738,68.4753,0.028109
79.768,68.4446,0.028109
79.799,68.4112,0.028109
79.829,68.3792,0.028109
79.861,68.3445,0.028109
79.892,68.3098,0.043476
79.923,68.2735,0.043476
79.955,68.2367,0.043476
79.986,68.1995,0.043476
80.018,68.1607,0.043476
80.049,68.1220,0.043476
80.081,68.0823,0.043476
80.111,68.0426,0.043476
80.141,68.0034,0.052915
80.173,67.9614,0.052915
80.203,67.9198,0.052915
80.234,67.8762,0.052915
80.266,67.8319,0.052915
80.297,67.7874,0.052915
80.328,67.7427,0.052915
80.360,67.6956,0.058674
80.390,67.6512,0.058674
80.421,67.6029,0.058674
80.451,67.5561,0.058674
80.482,67.5081,0.058674
80.513,67.4586,0.058674
80.545,67.4069,0.058674
80.575,67.3579,0.058674
80.606,67.3052,0.058674
80.637,67.2532,0.063445
80.669,67.2004,0.063445
80.699,67.1468,0.063445
80.731,67.0925,0.063445
80.762,67.0365,0.063445
80.793,66.9807,0.063445
80.824,66.9219,0.063445
80.855,66.8667,0.068103
80.886,66.8081,0.068103
80.917,66.7478,0.068103
80.948,66.6894,0.068103
80.979,66.6287,0.068103
81.010,66.5697,0.068103
81.041,66.5091,0.068103
81.072,66.4511,0.068103
81.102,66.3931,0.068103
81.133,66.3358,0.072046
81.164,66.2792,0.072046
81.196,66.2231,0.072046
81.227,66.1679,0.072046
81.258,66.1142,0.072046
81.289,66.0595,0.072046
81.320,66.0059,0.072046
81.352,65.9534,0.072046
81.382,65.9028,0.072046
81.413,65.8528,0.079631
81.449,65.7944,0.079631
81.475,65.7529,0.079631
81.505,65.7053,0.079631
81.536,65.6595,0.079631
81.565,65.6140,0.079631
81.597,65.5675,0.079631
81.628,65.5217,0.079631
81.660,65.4746,0.053677
81.690,65.4320,0.053677
81.721,65.3891,0.053677
81.751,65.3468,0.053677
81.783,65.3039,0.053677
81.814,65.2619,0.053677
81.845,65.2218,0.053677
81.877,65.1803,0.053677
81.907,65.1424,0.017579
81.939,65.1031,0.017579
81.969,65.0659,0.017579
82.001,65.0290,0.017579
82.032,64.9926,0.017579
82.063,64.9563,0.017579
82.095,64.9213,0.017579
82.127,64.8856,0.017579
82.157,64.8535,0.012704
82.188,64.8213,0.012704
82.222,64.7864,0.012704
82.249,64.7591,0.012704
82.280,64.7285,0.012704
82.312,64.6986,0.012704
82.343,64.6689,0.012704
82.374,64.6413,0.011848
82.406,64.6131,0.011848
82.435,64.5876,0.011848
82.467,64.5606,0.011848
82.498,64.5355,0.011848
82.529,64.5104,0.011848
82.561,64.4870,0.011848
82.591,64.4638,0.011848
82.622,64.4418,0.011443
82.653,64.4198,0.011443
82.684,64.3989,0.011443
82.715,64.3795,0.011443
82.747,64.3592,0.011443
82.777,64.3409,0.011443
82.809,64.3225,0.011443
82.837,64.3068,0.011443
82.870,64.2893,0.011198
82.902,64.2729,0.011198
82.933,64.2580,0.011198
82.964,64.2434,0.011198
82.995,64.2298,0.011198
83.026,64.2169,0.011198
83.057,64.2048,0.011198
83.087,64.1938,0.011198
83.118,64.1827,0.011010
83.150,64.1728,0.011010
83.182,64.1633,0.011010
83.212,64.1551,0.011010
83.243,64.1472,0.011010
83.273,64.1403,0.011010
83.305,64.1338,0.011010
83.336,64.1283,0.011010
83.367,64.1232,0.011010
83.397,64.1191,0.011010
83.429,64.1158,0.010775
83.460,64.1130,0.010775
83.491,64.1111,0.010775
83.521,64.1098,0.010775
83.553,64.1093,0.010775
83.585,64.1093,0.010775
83.616,64.1093,0.010775
83.647,64.1093,0.010662
83.677,64.1093,0.010662
83.708,64.1093,0.010662
83.740,64.1093,0.010662
83.770,64.1095,0.010662
83.801,64.1103,0.010662
83.832,64.1118,0.010662
83.864,64.1142,0.010662
83.894,64.1171,0.010662
83.925,64.1209,0.010662
83.958,64.1256,0.010662
83.987,64.1305,0.010662
84.020,64.1367,0.010662
84.049,64.1428,0.010662
84.081,64.1506,0.010662
84.110,64.1581,0.010577
84.140,64.1667,0.010577
84.172,64.1763,0.010577
84.202,64.1865,0.010577
84.236,64.1984,0.010577
84.264,64.2088,0.010577
84.295,64.2213,0.010577
84.329,64.2353,0.010577
84.356,64.2481,0.010577
84.388,64.2627,0.010577
84.419,64.2785,0.010342
84.451,64.2946,0.010342
84.483,64.3117,0.010342
84.512,64.3285,0.010342
84.544,64.3483,0.010342
84.574,64.3654,0.010342
84.605,64.3855,0.010342
84.637,64.4061,0.010154
84.667,64.4273,0.010154
84.699,64.4495,0.010154
84.729,64.4707,0.010154
84.760,64.4950,0.010154
84.791,64.5185,0.010154
84.822,64.5437,0.010154
84.857,64.5721,0.010154
84.883,64.5949,0.010154
84.915,64.6218,0.009975
84.946,64.6496,0.009975
84.977,64.6775,0.009975
85.007,64.7065,0.009975
85.039,64.7369,0.009975
85.069,64.7664,0.009975
85.101,64.7989,0.009975
85.131,64.8299,0.009627
85.167,64.8685,0.009627
85.193,64.8964,0.009627
85.224,64.9311,0.009627
85.255,64.9653,0.009627
85.287,65.0020,0.009627
85.318,65.0386,0.009627
85.350,65.0770,0.009627
85.381,65.1142,0.009119
85.412,65.1529,0.009119
85.442,65.1917,0.009119
85.474,65.2324,0.009119
85.504,65.2728,0.009119
85.536,65.3150,0.009119
85.567,65.3565,0.009119
85.599,65.4009,0.009119
85.629,65.4437,0.008526
85.660,65.4887,0.008526
85.692,65.5355,0.008526
85.722,65.5804,0.008526
85.753,65.6270,0.008526
85.784,65.6736,0.008526
85.816,65.7227,0.008526
85.847,65.7725,0.008526
85.879,65.8222,0.007698
85.910,65.8742,0.007698
85.941,65.9247,0.007698
85.972,65.9763,0.007698
86.002,66.0273,0.007698
86.034,66.0817,0.007698
86.064,66.1331,0.007698
86.094,66.1886,0.007698
86.126,66.2428,0.006333
86.157,66.2997,0.006333
86.188,66.3565,0.006333
86.220,66.4165,0.006333
86.251,66.4742,0.006333
86.282,66.5339,0.006333
86.312,66.5928,0.006333
86.342,66.6504,0.006333
86.373,66.7087,0.004206
86.405,66.7688,0.004206
86.436,66.8269,0.004206
86.468,66.8863,0.004206
86.498,66.9410,0.004206
86.530,66.9981,0.004206
86.560,67.0519,0.004206
86.591,67.1077,0.004206
86.622,67.1596,0.000847
86.653,67.2135,0.000847
86.684,67.2641,0.000847
86.715,67.3164,0.000847
86.744,67.3647,0.000847
86.776,67.4168,0.000847
86.808,67.4666,0.000847
86.838,67.5135,0.000847
86.869,67.5610,-0.004592
86.900,67.6089,-0.004592
86.932,67.6573,-0.004592
86.962,67.6999,-0.004592
86.992,67.7442,-0.004592
87.024,67.7889,-0.004592
87.054,67.8319,-0.004592
87.085,67.8746,-0.004592
87.117,67.9181,-0.004592
87.149,67.9594,-0.013636
87.180,68.0014,-0.013636
87.211,68.0405,-0.013636
87.244,68.0817,-0.013636
87.273,68.1185,-0.013636
87.305,68.1568,-0.013636
87.336,68.1932,-0.013636
87.367,68.2299,-0.013636
87.397,68.2651,-0.028382
87.429,68.2998,-0.028382
87.460,68.3339,-0.028382
87.491,68.3667,-0.028382
87.522,68.3997,-0.028382
87.553,68.4320,-0.028382
87.584,68.4619,-0.028382
87.615,68.4923,-0.028382
87.646,68.5216,-0.028382
87.676,68.5507,-0.049932
87.706,68.5776,-0.049932
87.738,68.6060,-0.049932
87.768,68.6317,-0.049932
87.799,68.6583,-0.049932
87.830,68.6829,-0.049932
87.863,68.7099,-0.049932
87.893,68.7321,-0.077852
87.924,68.7554,-0.077852
87.955,68.7778,-0.077852
87.986,68.7995,-0.077852
88.017,68.8199,-0.077852
88.048,68.8403,-0.077852
88.079,68.8592,-0.077852
88.111,68.8790,-0.077852
88.140,68.8955,-0.077852
88.172,68.9135,-0.115211
88.202,68.9292,-0.115211
88.234,68.9457,-0.115211
88.264,68.9601,-0.115211
88.295,68.9751,-0.115211
88.327,68.9885,-0.115211
88.357,69.0016,-0.115211
88.388,69.0133,-0.185196
88.420,69.0251,-0.185196
88.451,69.0358,-0.185196
88.481,69.0456,-0.185196
88.511,69.0545,-0.185196
88.542,69.0631,-0.185196
88.573,69.0709,-0.185196
88.604,69.0783,-0.185196
88.635,69.0845,-0.294188
88.666,69.0901,-0.294188
88.697,69.0949,-0.294188
88.728,69.0992,-0.294188
88.759,69.1026,-0.294188
88.789,69.1054,-0.294188
88.820,69.1073,-0.294188
88.852,69.1087,-0.294188
88.883,69.1093,-0.380067
88.915,69.1093,-0.380067
88.945,69.1093,-0.380067
88.976,69.1093,-0.380067
89.007,69.1093,-0.380067
89.041,69.1093,-0.380067
