Elapsed Time (s),Position (mm),Force (N)
-0.013,71.9093,-0.173038
0.018,71.9093,-0.173038
0.048,71.9093,-0.131858
0.079,71.9093,-0.131858
0.111,71.9093,-0.131858
0.141,71.9093,-0.131858
0.173,71.9093,-0.131858
0.205,71.9093,-0.131858
0.236,71.9093,-0.131858
0.268,71.9093,-0.121018
0.299,71.9093,-0.121018
0.331,71.9093,-0.121018
0.361,71.9093,-0.121018
0.393,71.9093,-0.121018
0.425,71.9093,-0.121018
0.456,71.9093,-0.121018
0.486,71.9093,-0.121018
0.518,71.9093,-0.114609
0.549,71.9093,-0.114609
0.581,71.9093,-0.114609
0.611,71.9093,-0.114609
0.643,71.9093,-0.114609
0.674,71.9093,-0.114609
0.705,71.9093,-0.114609
0.736,71.9093,-0.114609
0.767,71.9093,-0.114609
0.799,71.9093,-0.109904
0.828,71.9093,-0.109904
0.859,71.9093,-0.109904
0.891,71.9093,-0.109904
0.921,71.9093,-0.109904
0.952,71.9093,-0.109904
0.984,71.9093,-0.109904
1.016,71.9093,-0.106112
1.048,71.9093,-0.106112
1.078,71.9093,-0.106112
1.108,71.9093,-0.106112
1.140,71.9093,-0.106112
1.171,71.9093,-0.106112
1.202,71.9093,-0.106112
1.233,71.9093,-0.106112
1.265,71.9093,-0.106112
1.295,71.9093,-0.103100
1.326,71.9093,-0.103100
1.358,71.9093,-0.103100
1.388,71.9093,-0.103100
1.420,71.9093,-0.103100
1.451,71.9093,-0.103100
1.482,71.9093,-0.103100
1.512,71.9093,-0.100531
1.544,71.9093,-0.100531
1.575,71.9093,-0.100531
1.606,71.9093,-0.100531
1.638,71.9093,-0.100531
1.669,71.9093,-0.100531
1.700,71.9093,-0.100531
1.731,71.9093,-0.100531
1.762,71.9093,-0.100531
1.794,71.9093,-0.098263
1.825,71.9093,-0.098263
1.855,71.9093,-0.098263
1.886,71.9093,-0.098263
1.916,71.9093,-0.098263
1.948,71.9093,-0.098263
1.979,71.9093,-0.098263
2.010,71.9093,-0.098263
2.042,71.9093,-0.096362
2.072,71.9093,-0.096362
2.103,71.9093,-0.096362
2.134,71.9093,-0.096362
2.165,71.9093,-0.096362
2.197,71.9093,-0.096362
2.228,71.9093,-0.096362
2.259,71.9093,-0.094678
2.290,71.9093,-0.094678
2.321,71.9093,-0.094678
2.353,71.9093,-0.094678
2.384,71.9093,-0.094678
2.416,71.9093,-0.094678
2.447,71.9093,-0.094678
2.478,71.9093,-0.094678
2.509,71.9093,-0.094678
2.541,71.9093,-0.093182
2.571,71.9093,-0.093182
2.603,71.9093,-0.093182
2.633,71.9093,-0.093182
2.665,71.9093,-0.093182
2.696,71.9093,-0.093182
2.725,71.9093,-0.093182
2.757,71.9093,-0.091770
2.788,71.9093,-0.091770
2.818,71.9093,-0.091770
2.850,71.9093,-0.091770
2.881,71.9093,-0.091770
2.912,71.9093,-0.091770
2.943,71.9093,-0.091770
2.974,71.9093,-0.091770
3.006,71.9093,-0.091770
3.037,71.9093,-0.091770
3.069,71.9093,-0.090537
3.100,71.9093,-0.090537
3.132,71.9093,-0.090537
3.161,71.9093,-0.090537
3.192,71.9093,-0.090537
3.225,71.9093,-0.090537
3.254,71.9093,-0.090537
3.285,71.9093,-0.089465
3.316,71.9093,-0.089465
3.348,71.9093,-0.089465
3.379,71.9093,-0.089465
3.409,71.9093,-0.089465
3.440,71.9093,-0.089465
3.471,71.9093,-0.089465
3.502,71.9093,-0.089465
3.532,71.9093,-0.088269
3.564,71.9093,-0.088269
3.595,71.9093,-0.088269
3.625,71.9093,-0.088269
3.657,71.9093,-0.088269
3.688,71.9093,-0.088269
3.719,71.9093,-0.088269
3.750,71.9093,-0.088269
3.781,71.9093,-0.088269
3.812,71.9093,-0.086943
3.843,71.9093,-0.086943
3.875,71.9093,-0.086943
3.906,71.9093,-0.086943
3.936,71.9093,-0.086943
3.967,71.9093,-0.086943
4.000,71.9093,-0.086943
4.031,71.9093,-0.085691
4.063,71.9092,-0.085691
4.094,71.9085,-0.085691
4.125,71.9072,-0.085691
4.158,71.9048,-0.085691
4.187,71.9021,-0.085691
4.219,71.8984,-0.085691
4.250,71.8940,-0.085691
4.280,71.8891,-0.085691
4.312,71.8831,-0.063304
4.342,71.8769,-0.063304
4.373,71.8696,-0.063304
4.404,71.8617,-0.063304
4.435,71.8530,-0.063304
4.465,71.8438,-0.063304
4.496,71.8338,-0.063304
4.529,71.8222,-0.063304
4.558,71.8109,-0.024279
4.589,71.7987,-0.024279
4.620,71.7859,-0.024279
4.652,71.7716,-0.024279
4.683,71.7574,-0.024279
4.715,71.7416,-0.024279
4.745,71.7260,-0.024279
4.776,71.7089,-0.024279
4.808,71.6916,-0.006832
4.838,71.6733,-0.006832
4.869,71.6548,-0.006832
4.900,71.6353,-0.006832
4.931,71.6151,-0.006832
4.962,71.5934,-0.006832
4.993,71.5724,-0.006832
5.023,71.5506,-0.006832
5.053,71.5275,0.002710
5.084,71.5042,0.002710
5.115,71.4795,0.002710
5.146,71.4542,0.002710
5.176,71.4286,0.002710
5.207,71.4010,0.002710
5.238,71.3739,0.002710
5.270,71.3445,0.020844
5.301,71.3160,0.020844
5.332,71.2864,0.020844
5.363,71.2553,0.020844
5.395,71.2241,0.020844
5.426,71.1922,0.020844
5.457,71.1589,0.020844
5.488,71.1256,0.020844
5.520,71.0901,0.035618
5.550,71.0567,0.035618
5.581,71.0212,0.035618
5.612,70.9837,0.035618
5.649,70.9410,0.035618
5.674,70.9102,0.035618
5.706,70.8711,0.035618
5.737,70.8309,0.035618
5.768,70.7901,0.035618
5.799,70.7507,0.044718
5.831,70.7082,0.044718
5.862,70.6656,0.044718
5.894,70.6208,0.044718
5.924,70.5783,0.044718
5.956,70.5336,0.044718
5.986,70.4898,0.044718
6.017,70.4432,0.044718
6.049,70.3964,0.050807
6.079,70.3492,0.050807
6.111,70.3008,0.050807
6.143,70.2496,0.050807
6.174,70.2009,0.050807
6.206,70.1480,0.050807
6.236,70.0980,0.050807
6.267,70.0477,0.050807
6.298,69.9949,0.056509
6.329,69.9409,0.056509
6.360,69.8887,0.056509
6.391,69.8319,0.056509
6.422,69.7772,0.056509
6.454,69.7200,0.056509
6.485,69.6640,0.056509
6.516,69.6058,0.056509
6.546,69.5497,0.061911
6.577,69.4893,0.061911
6.608,69.4304,0.061911
6.640,69.3682,0.061911
6.671,69.3090,0.061911
6.702,69.2491,0.061911
6.732,69.1926,0.061911
6.762,69.1366,0.061911
6.794,69.0773,0.061911
6.824,69.0229,0.066513
6.856,68.9660,0.066513
6.886,68.9116,0.066513
6.917,68.8586,0.066513
6.948,68.8045,0.066513
6.980,68.7508,0.066513
7.011,68.6978,0.066513
7.042,68.6472,0.066513
7.073,68.5959,0.060452
7.107,68.5406,0.060452
7.136,68.4957,0.060452
7.167,68.4467,0.060452
7.198,68.3986,0.060452
7.229,68.3522,0.060452
7.260,68.3062,0.060452
7.292,68.2594,0.060452
7.323,68.2138,0.032089
7.355,68.1689,0.032089
7.386,68.1243,0.032089
7.418,68.0818,0.032089
7.449,68.0401,0.032089
7.479,67.9996,0.032089
7.511,67.9586,0.032089
7.540,67.9203,0.010973
7.571,67.8813,0.010973
7.602,67.8440,0.010973
7.634,67.8055,0.010973
7.665,67.7686,0.010973
7.696,67.7325,0.010973
7.727,67.6972,0.010973
7.759,67.6621,0.010973
7.789,67.6290,0.009890
7.820,67.5962,0.009890
7.849,67.5645,0.009890
7.880,67.5335,0.009890
7.911,67.5021,0.009890
7.942,67.4728,0.009890
7.973,67.4426,0.009890
8.002,67.4159,0.009890
8.034,67.3871,0.009486
8.065,67.3601,0.009486
8.096,67.3332,0.009486
8.128,67.3062,0.009486
8.159,67.2812,0.009486
8.190,67.2568,0.009486
8.222,67.2320,0.009486
8.253,67.2097,0.009486
8.284,67.1876,0.009307
8.316,67.1654,0.009307
8.345,67.1457,0.009307
8.377,67.1250,0.009307
8.407,67.1064,0.009307
8.438,67.0876,0.009307
8.469,67.0700,0.009307
8.500,67.0530,0.009307
8.531,67.0364,0.009307
8.562,67.0208,0.009156
8.593,67.0055,0.009156
8.624,66.9916,0.009156
8.655,66.9780,0.009156
8.686,66.9651,0.009156
8.718,66.9527,0.009156
8.749,66.9414,0.009156
8.781,66.9306,0.009015
8.812,66.9208,0.009015
8.843,66.9115,0.009015
8.876,66.9026,0.009015
8.905,66.8956,0.009015
8.936,66.8886,0.009015
8.966,66.8827,0.009015
8.998,66.8770,0.009015
9.029,66.8724,0.009015
9.060,66.8684,0.008930
9.091,66.8651,0.008930
9.122,66.8625,0.008930
9.153,66.8608,0.008930
9.184,66.8597,0.008930
9.217,66.8593,0.008930
9.247,66.8593,0.008930
9.283,66.8593,0.008930
9.324,66.8593,0.008799
9.354,66.8593,0.008799
9.387,66.8593,0.008799
9.417,66.8593,0.008799
9.447,66.8593,0.008799
9.478,66.8593,0.008799
9.509,66.8593,0.008799
9.540,66.8593,0.008770
9.571,66.8593,0.008770
9.602,66.8593,0.008770
9.633,66.8593,0.008770
9.664,66.8593,0.008770
9.695,66.8593,0.008770
9.726,66.8593,0.008770
9.757,66.8593,0.008770
9.787,66.8593,0.008818
9.818,66.8593,0.008818
9.849,66.8593,0.008818
9.880,66.8593,0.008818
9.911,66.8593,0.008818
9.942,66.8597,0.008818
9.974,66.8608,0.008818
10.004,66.8626,0.008818
10.035,66.8650,0.008818
10.067,66.8685,0.008770
10.097,66.8723,0.008770
10.129,66.8772,0.008770
10.159,66.8824,0.008770
10.191,66.8888,0.008770
10.221,66.8956,0.008770
10.253,66.9036,0.008770
10.284,66.9116,0.008676
10.315,66.9211,0.008676
10.346,66.9306,0.008676
10.377,66.9413,0.008676
10.407,66.9522,0.008676
10.438,66.9645,0.008676
10.469,66.9772,0.008676
10.500,66.9903,0.008676
10.531,67.0047,0.008488
10.563,67.0195,0.008488
10.594,67.0352,0.008488
10.625,67.0523,0.008488
10.656,67.0688,0.008488
10.687,67.0870,0.008488
10.718,67.1055,0.008488
10.749,67.1245,0.008488
10.780,67.1446,0.008338
10.811,67.1651,0.008338
10.841,67.1863,0.008338
10.873,67.2087,0.008338
10.904,67.2322,0.008338
10.935,67.2564,0.008338
10.967,67.2810,0.008338
11.000,67.3080,0.008338
11.030,67.3326,0.008187
11.062,67.3599,0.008187
11.093,67.3875,0.008187
11.124,67.4159,0.008187
11.155,67.4439,0.008187
11.185,67.4731,0.008187
11.216,67.5040,0.008187
11.247,67.5337,0.008187
11.277,67.5659,0.007924
11.308,67.5974,0.007924
11.339,67.6312,0.007924
11.371,67.6653,0.007924
11.402,67.7010,0.007924
11.434,67.7374,0.007924
11.465,67.7735,0.007924
11.496,67.8098,0.007924
11.527,67.8468,0.007594
11.557,67.8844,0.007594
11.590,67.9245,0.007594
11.621,67.9652,0.007594
11.652,68.0049,0.007594
11.683,68.0461,0.007594
11.714,68.0881,0.007594
11.745,68.1313,0.007594
11.776,68.1752,0.007133
11.802,68.2110,0.007133
11.838,68.2644,0.007133
11.869,68.3091,0.007133
11.900,68.3561,0.007133
11.933,68.4065,0.007133
11.962,68.4514,0.007133
11.995,68.5029,0.007133
12.025,68.5499,0.006521
12.057,68.6005,0.006521
12.087,68.6502,0.006521
12.117,68.7003,0.006521
12.149,68.7534,0.006521
12.179,68.8066,0.006521
12.211,68.8592,0.006521
12.242,68.9135,0.006521
12.273,68.9688,0.005722
12.304,69.0244,0.005722
12.334,69.0801,0.005722
12.372,69.1503,0.005722
12.411,69.2242,0.005722
12.443,69.2853,0.005722
12.474,69.3437,0.005722
12.505,69.4046,0.005722
12.536,69.4640,0.004451
12.567,69.5216,0.004451
12.597,69.5776,0.004451
12.628,69.6359,0.004451
12.659,69.6934,0.004451
12.690,69.7481,0.004451
12.722,69.8037,0.004451
12.756,69.8634,0.004451
12.783,69.9118,0.002560
12.814,69.9655,0.002560
12.845,70.0159,0.002560
12.876,70.0680,0.002560
12.906,70.1164,0.002560
12.938,70.1677,0.002560
12.968,70.2159,0.002560
13.000,70.2665,0.002560
13.030,70.3117,-0.000442
13.062,70.3612,-0.000442
13.093,70.4077,-0.000442
13.125,70.4544,-0.000442
13.156,70.4988,-0.000442
13.186,70.5414,-0.000442
13.218,70.5873,-0.000442
13.248,70.6279,-0.000442
13.282,70.6746,-0.006089
13.310,70.7112,-0.006089
13.342,70.7525,-0.006089
13.373,70.7918,-0.006089
13.403,70.8315,-0.006089
13.434,70.8680,-0.006089
13.465,70.9073,-0.006089
13.495,70.9424,-0.006089
13.526,70.9786,-0.016638
13.556,71.0128,-0.016638
13.588,71.0487,-0.016638
13.620,71.0837,-0.016638
13.651,71.1168,-0.016638
13.682,71.1495,-0.016638
13.714,71.1821,-0.016638
13.745,71.2134,-0.016638
13.776,71.2429,-0.034000
13.807,71.2728,-0.034000
13.837,71.3010,-0.034000
13.868,71.3294,-0.034000
13.900,71.3568,-0.034000
13.930,71.3831,-0.034000
13.962,71.4098,-0.034000
13.994,71.4359,-0.034000
14.025,71.4604,-0.057817
14.055,71.4831,-0.057817
14.087,71.5071,-0.057817
14.118,71.5288,-0.057817
14.148,71.5502,-0.057817
14.179,71.5707,-0.057817
14.211,71.5922,-0.057817
14.241,71.6104,-0.057817
14.272,71.6289,-0.057817
14.303,71.6470,-0.085794
14.334,71.6643,-0.085794
14.366,71.6817,-0.085794
14.394,71.6955,-0.085794
14.425,71.7110,-0.085794
14.456,71.7246,-0.085794
14.487,71.7386,-0.085794
14.518,71.7513,-0.085794
14.552,71.7647,-0.125873
14.583,71.7763,-0.125873
14.611,71.7856,-0.125873
14.642,71.7958,-0.125873
14.676,71.8061,-0.125873
14.705,71.8139,-0.125873
14.739,71.8222,-0.125873
14.767,71.8284,-0.125873
14.797,71.8347,-0.192245
14.829,71.8405,-0.192245
14.860,71.8454,-0.192245
14.891,71.8494,-0.192245
14.922,71.8529,-0.192245
14.953,71.8556,-0.192245
14.984,71.8576,-0.192245
15.015,71.8588,-0.249799
15.046,71.8593,-0.249799
15.077,71.8593,-0.249799
15.109,71.8593,-0.249799
15.140,71.8593,-0.249799
15.171,71.8593,-0.249799
15.201,71.8593,-0.249799
15.233,71.8593,-0.249799
15.263,71.8593,-0.249799
15.293,71.8593,-0.211508
15.325,71.8593,-0.211508
15.356,71.8593,-0.211508
15.387,71.8593,-0.211508
15.418,71.8593,-0.211508
15.449,71.8593,-0.211508
15.480,71.8593,-0.211508
15.511,71.8593,-0.211508
15.543,71.8593,-0.143913
15.573,71.8593,-0.143913
15.604,71.8593,-0.143913
15.634,71.8593,-0.143913
15.665,71.8593,-0.143913
15.695,71.8593,-0.143913
15.726,71.8593,-0.143913
15.758,71.8593,-0.126052
15.788,71.8593,-0.126052
15.822,71.8593,-0.126052
15.850,71.8593,-0.126052
15.881,71.8593,-0.126052
15.912,71.8593,-0.126052
15.941,71.8593,-0.126052
15.973,71.8593,-0.126052
16.004,71.8593,-0.117667
16.035,71.8593,-0.117667
16.066,71.8593,-0.117667
16.098,71.8593,-0.117667
16.130,71.8593,-0.117667
16.161,71.8593,-0.117667
16.192,71.8593,-0.117667
16.223,71.8593,-0.117667
16.254,71.8593,-0.112002
16.285,71.8593,-0.112002
16.315,71.8593,-0.112002
16.346,71.8593,-0.112002
16.377,71.8593,-0.112002
16.407,71.8593,-0.112002
16.438,71.8593,-0.112002
16.469,71.8593,-0.112002
16.500,71.8593,-0.112002
16.531,71.8593,-0.107740
16.561,71.8593,-0.107740
16.593,71.8593,-0.107740
16.624,71.8593,-0.107740
16.655,71.8593,-0.107740
16.687,71.8593,-0.107740
16.718,71.8593,-0.107740
16.749,71.8593,-0.104314
16.781,71.8593,-0.104314
16.813,71.8593,-0.104314
16.843,71.8593,-0.104314
16.874,71.8593,-0.104314
16.905,71.8593,-0.104314
16.936,71.8593,-0.104314
16.967,71.8593,-0.104314
16.998,71.8593,-0.104314
17.029,71.8593,-0.101425
17.059,71.8593,-0.101425
17.090,71.8593,-0.101425
17.120,71.8593,-0.101425
17.151,71.8593,-0.101425
17.182,71.8593,-0.101425
17.214,71.8593,-0.101425
17.245,71.8593,-0.101425
17.276,71.8593,-0.098997
17.308,71.8593,-0.098997
17.340,71.8593,-0.098997
17.370,71.8593,-0.098997
17.401,71.8593,-0.098997
17.432,71.8593,-0.098997
17.464,71.8593,-0.098997
17.494,71.8593,-0.098997
17.525,71.8593,-0.096861
17.556,71.8593,-0.096861
17.588,71.8593,-0.096861
17.618,71.8593,-0.096861
17.650,71.8593,-0.096861
17.680,71.8593,-0.096861
17.712,71.8593,-0.096861
17.745,71.8593,-0.096861
17.775,71.8593,-0.096861
17.806,71.8593,-0.095026
17.837,71.8593,-0.095026
17.870,71.8593,-0.095026
17.902,71.8593,-0.095026
17.932,71.8593,-0.095026
17.963,71.8593,-0.095026
17.995,71.8593,-0.095026
18.026,71.8593,-0.095026
18.056,71.8593,-0.093492
18.087,71.8593,-0.093492
18.118,71.8593,-0.093492
18.149,71.8593,-0.093492
18.182,71.8593,-0.093492
18.211,71.8593,-0.093492
18.243,71.8593,-0.093492
18.274,71.8593,-0.092081
18.305,71.8593,-0.092081
18.336,71.8593,-0.092081
18.368,71.8593,-0.092081
18.399,71.8593,-0.092081
18.431,71.8593,-0.092081
18.461,71.8593,-0.092081
18.492,71.8593,-0.092081
18.523,71.8593,-0.090820
18.554,71.8593,-0.090820
18.585,71.8593,-0.090820
18.615,71.8593,-0.090820
18.646,71.8593,-0.090820
18.677,71.8593,-0.090820
18.708,71.8593,-0.090820
18.739,71.8593,-0.090820
18.770,71.8593,-0.089643
18.802,71.8593,-0.089643
18.833,71.8593,-0.089643
18.864,71.8593,-0.089643
18.896,71.8593,-0.089643
18.926,71.8593,-0.089643
18.956,71.8593,-0.089643
18.988,71.8593,-0.089643
19.019,71.8593,-0.088279
19.051,71.8593,-0.088279
19.082,71.8593,-0.088279
19.112,71.8593,-0.088279
19.149,71.8593,-0.088279
19.192,71.8593,-0.088279
19.221,71.8593,-0.088279
19.252,71.8593,-0.088279
19.283,71.8593,-0.088279
19.314,71.8593,-0.086896
19.346,71.8593,-0.086896
19.377,71.8593,-0.086896
19.408,71.8587,-0.086896
19.439,71.8574,-0.086896
19.470,71.8555,-0.086896
19.501,71.8527,-0.086896
19.531,71.8491,-0.086529
19.562,71.8450,-0.086529
19.594,71.8400,-0.086529
19.625,71.8343,-0.086529
19.657,71.8278,-0.086529
19.688,71.8205,-0.086529
19.719,71.8127,-0.086529
19.749,71.8041,-0.086529
19.781,71.7949,-0.086529
19.811,71.7848,-0.023996
19.843,71.7741,-0.023996
19.874,71.7623,-0.023996
19.905,71.7500,-0.023996
19.938,71.7363,-0.023996
19.970,71.7225,-0.023996
19.999,71.7081,-0.023996
20.030,71.6936,-0.023996
20.060,71.6780,0.013852
20.092,71.6611,0.013852
20.122,71.6439,0.013852
20.154,71.6254,0.013852
20.185,71.6073,0.013852
20.215,71.5881,0.013852
20.245,71.5678,0.013852
20.277,71.5469,0.013852
20.308,71.5252,-0.002654
20.339,71.5024,-0.002654
20.369,71.4802,-0.002654
20.401,71.4555,-0.002654
20.432,71.4303,-0.002654
20.463,71.4055,-0.002654
20.493,71.3800,-0.002654
20.524,71.3538,-0.002654
20.556,71.3254,0.015122
20.586,71.2978,0.015122
20.619,71.2670,0.015122
20.648,71.2392,0.015122
20.679,71.2097,0.015122
20.710,71.1777,0.015122
20.741,71.1463,0.015122
20.772,71.1127,0.031308
20.806,71.0765,0.031308
20.834,71.0451,0.031308
20.866,71.0109,0.031308
20.897,70.9744,0.031308
20.928,70.9377,0.031308
20.962,70.8970,0.031308
20.989,70.8646,0.031308
21.023,70.8212,0.041660
21.052,70.7863,0.041660
21.082,70.7471,0.041660
21.113,70.7065,0.041660
21.144,70.6648,0.041660
21.175,70.6225,0.041660
21.211,70.5736,0.041660
21.237,70.5370,0.041660
21.269,70.4903,0.041660
21.301,70.4463,0.041660
21.330,70.4026,0.047786
21.364,70.3512,0.047786
21.392,70.3096,0.047786
21.422,70.2623,0.047786
21.454,70.2134,0.047786
21.485,70.1633,0.047786
21.519,70.1088,0.053235
21.548,70.0606,0.053235
21.578,70.0106,0.053235
21.610,69.9570,0.053235
21.643,69.8986,0.053235
21.673,69.8486,0.053235
21.704,69.7933,0.053235
21.735,69.7383,0.053235
21.766,69.6841,0.053235
21.801,69.6187,0.058749
21.828,69.5695,0.058749
21.858,69.5112,0.058749
21.890,69.4528,0.058749
21.924,69.3865,0.058749
21.952,69.3326,0.058749
21.983,69.2702,0.058749
22.015,69.2100,0.064753
22.047,69.1484,0.064753
22.079,69.0915,0.064753
22.109,69.0347,0.064753
22.140,68.9779,0.064753
22.171,68.9226,0.064753
22.202,68.8666,0.064753
22.233,68.8120,0.064753
22.264,68.7586,0.064282
22.295,68.7074,0.064282
22.325,68.6560,0.064282
22.357,68.6031,0.064282
22.387,68.5538,0.064282
22.418,68.5038,0.064282
22.449,68.4549,0.064282
22.480,68.4056,0.064282
22.512,68.3573,0.064282
22.543,68.3101,0.036672
22.574,68.2627,0.036672
22.605,68.2164,0.036672
22.637,68.1713,0.036672
22.668,68.1268,0.036672
22.700,68.0828,0.036672
22.730,68.0405,0.036672
22.762,67.9976,0.011631
22.792,67.9570,0.011631
22.824,67.9165,0.011631
22.855,67.8767,0.011631
22.885,67.8380,0.011631
22.917,67.7987,0.011631
22.948,67.7607,0.011631
22.979,67.7242,0.011631
23.011,67.6878,0.011631
23.041,67.6524,0.010069
23.080,67.6091,0.010069
23.120,67.5657,0.010069
23.151,67.5329,0.010069
23.181,67.5019,0.010069
23.212,67.4714,0.010069
23.243,67.4405,0.010069
23.274,67.4102,0.009636
23.305,67.3808,0.009636
23.335,67.3532,0.009636
23.366,67.3261,0.009636
23.396,67.2996,0.009636
23.427,67.2733,0.009636
23.458,67.2479,0.009636
23.489,67.2227,0.009636
23.520,67.1986,0.009429
23.552,67.1742,0.009429
23.583,67.1516,0.009429
23.615,67.1292,0.009429
23.645,67.1082,0.009429
23.676,67.0881,0.009429
23.706,67.0687,0.009429
23.738,67.0489,0.009429
23.768,67.0308,0.009213
23.800,67.0137,0.009213
23.830,66.9970,0.009213
23.861,66.9808,0.009213
23.892,66.9653,0.009213
23.924,66.9502,0.009213
23.953,66.9364,0.009213
23.985,66.9232,0.009213
24.018,66.9097,0.009213
24.048,66.8989,0.009109
24.078,66.8879,0.009109
24.109,66.8775,0.009109
24.139,66.8682,0.009109
24.171,66.8591,0.009109
24.202,66.8510,0.009109
24.234,66.8433,0.009109
24.264,66.8369,0.009006
24.296,66.8306,0.009006
24.327,66.8256,0.009006
24.359,66.8210,0.009006
24.389,66.8173,0.009006
24.420,66.8143,0.009006
24.452,66.8119,0.009006
24.483,66.8103,0.009006
24.513,66.8094,0.009006
24.544,66.8093,0.008836
24.575,66.8093,0.008836
24.605,66.8093,0.008836
24.639,66.8093,0.008836
24.667,66.8093,0.008836
24.697,66.8094,0.008836
24.728,66.8102,0.008836
24.764,66.8122,0.008836
24.790,66.8139,0.008855
24.821,66.8169,0.008855
24.852,66.8206,0.008855
24.881,66.8248,0.008855
24.912,66.8298,0.008855
24.943,66.8357,0.008855
24.974,66.8421,0.008855
25.006,66.8499,0.008855
25.035,66.8572,0.008855
25.066,66.8659,0.008752
25.097,66.8755,0.008752
25.128,66.8855,0.008752
25.159,66.8965,0.008752
25.192,66.9087,0.008752
25.222,66.9209,0.008752
25.254,66.9347,0.008752
25.284,66.9479,0.008554
25.315,66.9622,0.008554
25.345,66.9772,0.008554
25.382,66.9961,0.008554
25.409,67.0105,0.008554
25.439,67.0283,0.008554
25.471,67.0467,0.008554
25.501,67.0654,0.008554
25.532,67.0843,0.008413
25.568,67.1080,0.008413
25.608,67.1359,0.008413
25.645,67.1634,0.008413
25.686,67.1935,0.008413
25.718,67.2176,0.008413
25.751,67.2445,0.008413
25.779,67.2671,0.008215
25.810,67.2934,0.008215
25.841,67.3204,0.008215
25.872,67.3480,0.008215
25.904,67.3767,0.008215
25.934,67.4050,0.008215
25.965,67.4355,0.008215
25.996,67.4652,0.008215
26.028,67.4975,0.008027
26.058,67.5294,0.008027
26.089,67.5614,0.008027
26.120,67.5961,0.008027
26.152,67.6302,0.008027
26.182,67.6642,0.008027
26.215,67.7015,0.008027
26.244,67.7364,0.008027
26.276,67.7743,0.007745
26.306,67.8112,0.007745
26.338,67.8502,0.007745
26.369,67.8894,0.007745
26.400,67.9302,0.007745
26.431,67.9713,0.007745
26.462,68.0131,0.007745
26.493,68.0539,0.007745
26.523,68.0962,0.007745
26.554,68.1395,0.007274
26.585,68.1845,0.007274
26.616,68.2290,0.007274
26.648,68.2773,0.007274
26.679,68.3243,0.007274
26.711,68.3726,0.007274
26.742,68.4188,0.007274
26.775,68.4719,0.006672
26.805,68.5195,0.006672
26.837,68.5721,0.006672
26.868,68.6220,0.006672
26.899,68.6749,0.006672
26.931,68.7287,0.006672
26.963,68.7823,0.006672
26.994,68.8376,0.006672
27.024,68.8901,0.005834
27.055,68.9444,0.005834
27.086,69.0019,0.005834
27.116,69.0565,0.005834
27.147,69.1147,0.005834
27.178,69.1723,0.005834
27.209,69.2308,0.005834
27.239,69.2904,0.005834
27.270,69.3496,0.005834
27.302,69.4100,0.004555
27.332,69.4684,0.004555
27.364,69.5267,0.004555
27.395,69.5862,0.004555
27.427,69.6428,0.004555
27.458,69.6996,0.004555
27.489,69.7550,0.004555
27.519,69.8065,0.004555
27.550,69.8605,0.002757
27.582,69.9144,0.002757
27.612,69.9648,0.002757
27.643,70.0169,0.002757
27.674,70.0672,0.002757
27.705,70.1173,0.002757
27.736,70.1665,0.002757
27.766,70.2144,0.002757
27.798,70.2625,-0.000104
27.830,70.3126,-0.000104
27.859,70.3549,-0.000104
27.890,70.4005,-0.000104
27.921,70.4456,-0.000104
27.953,70.4903,-0.000104
27.984,70.5344,-0.000104
28.015,70.5771,-0.005458
28.046,70.6191,-0.005458
28.076,70.6590,-0.005458
28.107,70.6993,-0.005458
28.137,70.7381,-0.005458
28.168,70.7776,-0.005458
28.199,70.8147,-0.005458
28.230,70.8527,-0.005458
28.260,70.8883,-0.015461
28.291,70.9254,-0.015461
28.322,70.9608,-0.015461
28.354,70.9962,-0.015461
28.385,71.0311,-0.015461
28.416,71.0644,-0.015461
28.447,71.0967,-0.015461
28.478,71.1287,-0.015461
28.509,71.1593,-0.015461
28.539,71.1891,-0.015461
28.571,71.2196,-0.032184
28.603,71.2492,-0.032184
28.632,71.2753,-0.032184
28.663,71.3036,-0.032184
28.693,71.3291,-0.032184
28.724,71.3554,-0.032184
28.754,71.3798,-0.032184
28.785,71.4045,-0.055502
28.816,71.4282,-0.055502
28.847,71.4510,-0.055502
28.878,71.4745,-0.055502
28.910,71.4964,-0.055502
28.941,71.5175,-0.055502
28.972,71.5381,-0.055502
29.004,71.5576,-0.055502
29.035,71.5763,-0.055502
29.065,71.5944,-0.083103
29.096,71.6115,-0.083103
29.127,71.6282,-0.083103
29.159,71.6440,-0.083103
29.192,71.6601,-0.083103
29.222,71.6744,-0.083103
29.253,71.6877,-0.083103
29.283,71.7004,-0.121742
29.315,71.7128,-0.121742
29.345,71.7240,-0.121742
29.376,71.7347,-0.121742
29.406,71.7448,-0.121742
29.437,71.7540,-0.121742
29.470,71.7629,-0.121742
29.499,71.7705,-0.121742
29.530,71.7777,-0.121742
29.561,71.7839,-0.186561
29.592,71.7899,-0.186561
29.624,71.7948,-0.186561
29.655,71.7992,-0.186561
29.686,71.8026,-0.186561
29.716,71.8054,-0.186561
29.748,71.8073,-0.186561
29.779,71.8087,-0.247691
29.810,71.8093,-0.247691
29.841,71.8093,-0.247691
29.873,71.8093,-0.247691
29.904,71.8093,-0.247691
29.935,71.8093,-0.247691
29.966,71.8093,-0.247691
29.997,71.8093,-0.247691
30.028,71.8093,-0.214933
30.059,71.8093,-0.214933
30.091,71.8093,-0.214933
30.122,71.8093,-0.214933
30.151,71.8093,-0.214933
30.184,71.8093,-0.214933
30.214,71.8093,-0.214933
30.246,71.8093,-0.214933
30.277,71.8093,-0.145522
30.309,71.8093,-0.145522
30.340,71.8093,-0.145522
30.371,71.8093,-0.145522
30.402,71.8093,-0.145522
30.433,71.8093,-0.145522
30.465,71.8093,-0.145522
30.494,71.8093,-0.124923
30.525,71.8093,-0.124923
30.561,71.8093,-0.124923
30.587,71.8093,-0.124923
30.618,71.8093,-0.124923
30.654,71.8093,-0.124923
30.696,71.8093,-0.124923
30.726,71.8093,-0.124923
30.756,71.8093,-0.117357
30.788,71.8093,-0.117357
30.818,71.8093,-0.117357
30.849,71.8093,-0.117357
30.880,71.8093,-0.117357
30.911,71.8093,-0.117357
30.943,71.8093,-0.117357
30.974,71.8093,-0.117357
31.005,71.8093,-0.117357
31.036,71.8093,-0.111673
31.067,71.8093,-0.111673
31.098,71.8093,-0.111673
31.130,71.8093,-0.111673
31.161,71.8093,-0.111673
31.192,71.8093,-0.111673
31.224,71.8093,-0.111673
31.254,71.8093,-0.107335
31.285,71.8093,-0.107335
31.316,71.8093,-0.107335
31.347,71.8093,-0.107335
31.377,71.8093,-0.107335
31.408,71.8093,-0.107335
31.441,71.8093,-0.107335
31.471,71.8093,-0.107335
31.502,71.8093,-0.107335
31.533,71.8093,-0.107335
31.564,71.8093,-0.103881
31.595,71.8093,-0.103881
31.626,71.8093,-0.103881
31.656,71.8093,-0.103881
31.687,71.8093,-0.103881
31.718,71.8093,-0.103881
31.752,71.8093,-0.103881
31.781,71.8093,-0.101086
31.814,71.8093,-0.101086
31.843,71.8093,-0.101086
31.874,71.8093,-0.101086
31.905,71.8093,-0.101086
31.937,71.8093,-0.101086
31.968,71.8093,-0.101086
32.003,71.8093,-0.101086
32.030,71.8093,-0.098715
32.061,71.8093,-0.098715
32.092,71.8093,-0.098715
32.123,71.8093,-0.098715
32.155,71.8093,-0.098715
32.185,71.8093,-0.098715
32.215,71.8093,-0.098715
32.247,71.8093,-0.098715
32.277,71.8093,-0.096663
32.309,71.8093,-0.096663
32.339,71.8093,-0.096663
32.371,71.8093,-0.096663
32.402,71.8093,-0.096663
32.433,71.8093,-0.096663
32.463,71.8093,-0.096663
32.498,71.8093,-0.096663
32.526,71.8093,-0.094894
32.558,71.8093,-0.094894
32.589,71.8093,-0.094894
32.620,71.8093,-0.094894
32.651,71.8093,-0.094894
32.682,71.8093,-0.094894
32.713,71.8093,-0.094894
32.744,71.8093,-0.094894
32.774,71.8093,-0.093229
32.807,71.8093,-0.093229
32.836,71.8093,-0.093229
32.866,71.8093,-0.093229
32.897,71.8093,-0.093229
32.928,71.8093,-0.093229
32.959,71.8093,-0.093229
32.990,71.8093,-0.093229
33.021,71.8093,-0.091742
33.052,71.8093,-0.091742
33.083,71.8093,-0.091742
33.113,71.8093,-0.091742
33.144,71.8093,-0.091742
33.176,71.8093,-0.091742
33.206,71.8093,-0.091742
33.237,71.8093,-0.091742
33.268,71.8093,-0.090462
33.298,71.8093,-0.090462
33.329,71.8093,-0.090462
33.360,71.8093,-0.090462
33.391,71.8093,-0.090462
33.423,71.8093,-0.090462
33.457,71.8093,-0.090462
33.484,71.8093,-0.090462
33.514,71.8093,-0.090462
33.546,71.8093,-0.089276
33.577,71.8093,-0.089276
33.609,71.8093,-0.089276
33.639,71.8093,-0.089276
33.671,71.8093,-0.089276
33.701,71.8093,-0.089276
33.732,71.8093,-0.089276
33.762,71.8093,-0.089276
33.793,71.8093,-0.088194
33.824,71.8093,-0.088194
33.856,71.8093,-0.088194
33.886,71.8093,-0.088194
33.918,71.8093,-0.088194
33.948,71.8093,-0.088194
33.979,71.8093,-0.088194
34.010,71.8093,-0.088194
34.041,71.8093,-0.087008
34.073,71.8093,-0.087008
34.105,71.8093,-0.087008
34.135,71.8093,-0.087008
34.166,71.8093,-0.087008
34.197,71.8093,-0.087008
34.228,71.8093,-0.087008
34.259,71.8093,-0.087008
34.290,71.8093,-0.085691
34.321,71.8093,-0.085691
34.354,71.8093,-0.085691
34.383,71.8093,-0.085691
34.415,71.8086,-0.085691
34.445,71.8072,-0.085691
34.477,71.8051,-0.085691
34.509,71.8020,-0.085691
34.539,71.7987,-0.085691
34.572,71.7938,-0.081485
34.601,71.7892,-0.081485
34.632,71.7834,-0.081485
34.663,71.7771,-0.081485
34.693,71.7700,-0.081485
34.725,71.7619,-0.081485
34.755,71.7535,-0.081485
34.786,71.7441,-0.081485
34.817,71.7340,-0.027412
34.849,71.7229,-0.027412
34.881,71.7107,-0.027412
34.910,71.6992,-0.027412
34.942,71.6858,-0.027412
34.973,71.6720,-0.027412
35.005,71.6574,-0.027412
35.035,71.6425,0.006192
35.066,71.6266,0.006192
35.096,71.6103,0.006192
35.128,71.5922,0.006192
35.159,71.5744,0.006192
35.190,71.5557,0.006192
35.221,71.5362,0.006192
35.251,71.5156,0.006192
35.282,71.4953,-0.002409
35.313,71.4736,-0.002409
35.344,71.4515,-0.002409
35.376,71.4263,-0.002409
35.405,71.4048,-0.002409
35.437,71.3787,-0.002409
35.470,71.3522,-0.002409
35.498,71.3289,-0.002409
35.529,71.3016,0.015179
35.559,71.2749,0.015179
35.593,71.2437,0.015179
35.621,71.2182,0.015179
35.652,71.1887,0.015179
35.684,71.1572,0.015179
35.714,71.1263,0.015179
35.750,71.0894,0.015179
35.777,71.0616,0.015179
35.808,71.0276,0.031195
35.839,70.9937,0.031195
35.871,70.9573,0.031195
35.902,70.9227,0.031195
35.933,70.8852,0.031195
35.964,70.8483,0.031195
35.995,70.8104,0.031195
36.026,70.7727,0.031195
36.057,70.7339,0.041425
36.088,70.6937,0.041425
36.120,70.6527,0.041425
36.151,70.6103,0.041425
36.182,70.5686,0.041425
36.213,70.5249,0.041425
36.243,70.4833,0.041425
36.275,70.4373,0.041425
36.304,70.3953,0.047522
36.335,70.3497,0.047522
36.366,70.3038,0.047522
36.397,70.2556,0.047522
36.428,70.2081,0.047522
36.459,70.1593,0.047522
36.489,70.1100,0.047522
36.522,70.0585,0.047522
36.552,70.0084,0.052773
36.584,69.9558,0.052773
36.614,69.9041,0.052773
36.649,69.8452,0.052773
36.677,69.7968,0.052773
36.708,69.7412,0.052773
36.739,69.6860,0.052773
36.770,69.6321,0.052773
36.804,69.5674,0.058043
36.832,69.5182,0.058043
36.864,69.4565,0.058043
36.893,69.4030,0.058043
36.924,69.3411,0.058043
36.955,69.2809,0.058043
36.987,69.2205,0.058043
37.018,69.1606,0.063831
37.049,69.1020,0.063831
37.079,69.0442,0.063831
37.110,68.9877,0.063831
37.141,68.9302,0.063831
37.173,68.8738,0.063831
37.204,68.8191,0.063831
37.236,68.7629,0.063831
37.266,68.7112,0.062127
37.295,68.6611,0.062127
37.327,68.6074,0.062127
37.358,68.5561,0.062127
37.388,68.5074,0.062127
37.419,68.4571,0.062127
37.450,68.4077,0.062127
37.481,68.3574,0.062127
37.513,68.3098,0.062127
37.543,68.2636,0.034847
37.574,68.2183,0.034847
37.605,68.1712,0.034847
37.636,68.1269,0.034847
37.667,68.0818,0.034847
37.698,68.0389,0.034847
37.730,67.9942,0.034847
37.762,67.9526,0.011396
37.792,67.9109,0.011396
37.823,67.8706,0.011396
37.854,67.8309,0.011396
37.886,67.7918,0.011396
37.917,67.7531,0.011396
37.947,67.7158,0.011396
37.978,67.6788,0.011396
38.008,67.6440,0.011396
38.039,67.6086,0.010069
38.069,67.5744,0.010069
38.100,67.5401,0.010069
38.131,67.5076,0.010069
38.162,67.4746,0.010069
38.194,67.4413,0.010069
38.224,67.4112,0.010069
38.255,67.3816,0.010069
38.285,67.3524,0.009674
38.315,67.3241,0.009674
38.346,67.2964,0.009674
38.377,67.2676,0.009674
38.409,67.2409,0.009674
38.439,67.2155,0.009674
38.470,67.1898,0.009674
38.500,67.1654,0.009674
38.531,67.1422,0.009674
38.562,67.1185,0.009429
38.594,67.0959,0.009429
38.625,67.0745,0.009429
38.655,67.0536,0.009429
38.686,67.0334,0.009429
38.717,67.0135,0.009429
38.748,66.9946,0.009429
38.779,66.9767,0.009429
38.811,66.9588,0.009232
38.841,66.9420,0.009232
38.872,66.9264,0.009232
38.904,66.9110,0.009232
38.935,66.8960,0.009232
38.966,66.8824,0.009232
38.998,66.8692,0.009232
39.029,66.8572,0.009053
39.060,66.8454,0.009053
39.092,66.8342,0.009053
39.123,66.8242,0.009053
39.153,66.8150,0.009053
39.184,66.8062,0.009053
39.215,66.7985,0.009053
39.250,66.7905,0.009053
39.277,66.7848,0.008921
39.309,66.7791,0.008921
39.339,66.7741,0.008921
39.370,66.7699,0.008921
39.401,66.7663,0.008921
39.432,66.7636,0.008921
39.470,66.7609,0.008921
39.511,66.7596,0.008836
39.541,66.7593,0.008836
39.572,66.7593,0.008836
39.603,66.7593,0.008836
39.633,66.7593,0.008836
39.666,66.7593,0.008836
39.696,66.7593,0.008836
39.729,66.7593,0.008836
39.760,66.7593,0.008874
39.791,66.7593,0.008874
39.825,66.7593,0.008874
39.854,66.7593,0.008874
39.888,66.7593,0.008874
39.915,66.7593,0.008874
39.945,66.7593,0.008874
39.976,66.7593,0.008874
40.007,66.7593,0.008874
40.039,66.7593,0.008930
40.071,66.7593,0.008930
40.102,66.7593,0.008930
40.133,66.7593,0.008930
40.163,66.7600,0.008930
40.194,66.7613,0.008930
40.226,66.7634,0.008930
40.258,66.7663,0.008930
40.288,66.7698,0.008865
40.319,66.7741,0.008865
40.350,66.7789,0.008865
40.381,66.7848,0.008865
40.413,66.7912,0.008865
40.444,66.7984,0.008865
40.475,66.8062,0.008865
40.506,66.8150,0.008865
40.537,66.8244,0.008714
40.567,66.8342,0.008714
40.599,66.8450,0.008714
40.630,66.8567,0.008714
40.661,66.8688,0.008714
40.692,66.8821,0.008714
40.723,66.8955,0.008714
40.754,66.9105,0.008714
40.784,66.9250,0.008526
40.815,66.9410,0.008526
40.846,66.9573,0.008526
40.877,66.9750,0.008526
40.907,66.9924,0.008526
40.939,67.0120,0.008526
40.970,67.0311,0.008526
41.000,67.0508,0.008526
41.031,67.0715,0.008366
41.062,67.0940,0.008366
41.094,67.1168,0.008366
41.125,67.1396,0.008366
41.156,67.1637,0.008366
41.187,67.1882,0.008366
41.218,67.2131,0.008366
41.250,67.2399,0.008366
41.280,67.2663,0.008366
41.311,67.2945,0.008168
41.342,67.3224,0.008168
41.375,67.3533,0.008168
41.405,67.3817,0.008168
41.437,67.4134,0.008168
41.467,67.4437,0.008168
41.499,67.4767,0.008168
41.529,67.5083,0.007933
41.560,67.5417,0.007933
41.591,67.5758,0.007933
41.622,67.6110,0.007933
41.653,67.6460,0.007933
41.684,67.6826,0.007933
41.715,67.7201,0.007933
41.746,67.7567,0.007933
41.777,67.7957,0.007575
41.808,67.8345,0.007575
41.839,67.8747,0.007575
41.871,67.9155,0.007575
41.901,67.9563,0.007575
41.933,68.0002,0.007575
41.964,68.0426,0.007575
41.995,68.0869,0.007575
42.025,68.1297,0.007095
42.056,68.1748,0.007095
42.088,68.2217,0.007095
42.121,68.2708,0.007095
42.152,68.3174,0.007095
42.182,68.3649,0.007095
42.213,68.4138,0.007095
42.244,68.4637,0.007095
42.275,68.5133,0.006465
42.307,68.5646,0.006465
42.338,68.6176,0.006465
42.370,68.6712,0.006465
42.401,68.7239,0.006465
42.431,68.7769,0.006465
42.462,68.8304,0.006465
42.493,68.8862,0.006465
42.524,68.9415,0.005627
42.556,69.0004,0.005627
42.586,69.0559,0.005627
42.617,69.1148,0.005627
42.647,69.1717,0.005627
42.684,69.2427,0.005627
42.724,69.3198,0.005627
42.754,69.3783,0.005627
42.786,69.4375,0.004329
42.817,69.4964,0.004329
42.848,69.5531,0.004329
42.880,69.6099,0.004329
42.912,69.6674,0.004329
42.943,69.7225,0.004329
42.977,69.7832,0.004329
43.004,69.8287,0.002371
43.036,69.8841,0.002371
43.067,69.9343,0.002371
43.098,69.9874,0.002371
43.130,70.0370,0.002371
43.160,70.0875,0.002371
43.191,70.1357,0.002371
43.222,70.1852,0.002371
43.254,70.2311,0.002371
43.285,70.2797,-0.000828
43.315,70.3234,-0.000828
43.346,70.3699,-0.000828
43.377,70.4137,-0.000828
43.408,70.4570,-0.000828
43.439,70.5005,-0.000828
43.470,70.5425,-0.000828
43.501,70.5846,-0.000828
43.533,70.6266,-0.006860
43.564,70.6671,-0.006860
43.594,70.7059,-0.006860
43.625,70.7445,-0.006860
43.661,70.7892,-0.006860
43.687,70.8200,-0.006860
43.718,70.8562,-0.006860
43.749,70.8920,-0.006860
43.780,70.9279,-0.006860
43.811,70.9620,-0.018124
43.843,70.9970,-0.018124
43.874,71.0291,-0.018124
43.906,71.0626,-0.018124
43.936,71.0930,-0.018124
43.967,71.1240,-0.018124
43.998,71.1537,-0.018124
44.029,71.1842,-0.018124
44.061,71.2125,-0.036399
44.091,71.2394,-0.036399
44.122,71.2672,-0.036399
44.153,71.2930,-0.036399
44.183,71.3188,-0.036399
44.214,71.3435,-0.036399
44.245,71.3683,-0.036399
44.276,71.3909,-0.036399
44.309,71.4151,-0.060876
44.338,71.4361,-0.060876
44.370,71.4580,-0.060876
44.401,71.4786,-0.060876
44.433,71.4988,-0.060876
44.464,71.5177,-0.060876
44.495,71.5368,-0.060876
44.525,71.5535,-0.089568
44.556,71.5707,-0.089568
44.588,71.5872,-0.089568
44.622,71.6041,-0.089568
44.650,71.6173,-0.089568
44.681,71.6317,-0.089568
44.712,71.6446,-0.089568
44.742,71.6571,-0.089568
44.773,71.6686,-0.089568
44.804,71.6798,-0.133185
44.835,71.6903,-0.133185
44.866,71.6999,-0.133185
44.898,71.7089,-0.133185
44.929,71.7173,-0.133185
44.960,71.7249,-0.133185
44.991,71.7314,-0.133185
45.022,71.7374,-0.201825
45.053,71.7426,-0.201825
45.084,71.7473,-0.201825
45.115,71.7512,-0.201825
45.146,71.7543,-0.201825
45.177,71.7566,-0.201825
45.208,71.7582,-0.201825
45.239,71.7591,-0.201825
45.271,71.7593,-0.201825
45.301,71.7593,-0.248632
45.332,71.7593,-0.248632
45.364,71.7593,-0.248632
45.394,71.7593,-0.248632
45.425,71.7593,-0.248632
45.455,71.7593,-0.248632
45.486,71.7593,-0.248632
45.517,71.7593,-0.248632
45.548,71.7593,-0.201636
45.579,71.7593,-0.201636
45.610,71.7593,-0.201636
45.641,71.7593,-0.201636
45.672,71.7593,-0.201636
45.704,71.7593,-0.201636
45.735,71.7593,-0.201636
45.766,71.7593,-0.201636
45.796,71.7593,-0.137128
45.827,71.7593,-0.137128
45.859,71.7593,-0.137128
45.889,71.7593,-0.137128
45.921,71.7593,-0.137128
45.952,71.7593,-0.137128
45.984,71.7593,-0.137128
46.016,71.7593,-0.137128
46.046,71.7593,-0.122194
46.078,71.7593,-0.122194
46.108,71.7593,-0.122194
46.139,71.7593,-0.122194
46.171,71.7593,-0.122194
46.202,71.7593,-0.122194
46.233,71.7593,-0.122194
46.263,71.7593,-0.115287
46.294,71.7593,-0.115287
46.326,71.7593,-0.115287
46.355,71.7593,-0.115287
46.388,71.7593,-0.115287
46.418,71.7593,-0.115287
46.449,71.7593,-0.115287
46.484,71.7593,-0.115287
46.512,71.7593,-0.115287
46.543,71.7593,-0.110111
46.575,71.7593,-0.110111
46.608,71.7593,-0.110111
46.636,71.7593,-0.110111
46.671,71.7593,-0.110111
46.698,71.7593,-0.110111
46.729,71.7593,-0.110111
46.760,71.7593,-0.110111
46.792,71.7593,-0.106083
46.822,71.7593,-0.106083
46.855,71.7593,-0.106083
46.884,71.7593,-0.106083
46.916,71.7593,-0.106083
46.947,71.7593,-0.106083
46.978,71.7593,-0.106083
47.010,71.7593,-0.102818
47.041,71.7593,-0.102818
47.073,71.7593,-0.102818
47.104,71.7593,-0.102818
47.133,71.7593,-0.102818
47.164,71.7593,-0.102818
47.195,71.7593,-0.102818
47.226,71.7593,-0.102818
47.257,71.7593,-0.100032
47.288,71.7593,-0.100032
47.319,71.7593,-0.100032
47.350,71.7593,-0.100032
47.384,71.7593,-0.100032
47.412,71.7593,-0.100032
47.442,71.7593,-0.100032
47.474,71.7593,-0.100032
47.505,71.7593,-0.100032
47.537,71.7593,-0.100032
47.568,71.7593,-0.097661
47.599,71.7593,-0.097661
47.629,71.7593,-0.097661
47.661,71.7593,-0.097661
47.692,71.7593,-0.097661
47.723,71.7593,-0.097661
47.754,71.7593,-0.097661
47.786,71.7593,-0.095657
47.817,71.7593,-0.095657
47.848,71.7593,-0.095657
47.880,71.7593,-0.095657
47.912,71.7593,-0.095657
47.940,71.7593,-0.095657
47.973,71.7593,-0.095657
48.002,71.7593,-0.095657
48.033,71.7593,-0.095657
48.065,71.7593,-0.093906
48.095,71.7593,-0.093906
48.127,71.7593,-0.093906
48.157,71.7593,-0.093906
48.187,71.7593,-0.093906
48.219,71.7593,-0.093906
48.252,71.7593,-0.093906
48.282,71.7593,-0.092372
48.313,71.7593,-0.092372
48.344,71.7593,-0.092372
48.374,71.7593,-0.092372
48.405,71.7593,-0.092372
48.436,71.7593,-0.092372
48.466,71.7593,-0.092372
48.497,71.7593,-0.092372
48.529,71.7593,-0.092372
48.559,71.7593,-0.091017
48.590,71.7593,-0.091017
48.621,71.7593,-0.091017
48.653,71.7593,-0.091017
48.685,71.7593,-0.091017
48.715,71.7593,-0.091017
48.746,71.7593,-0.091017
48.778,71.7593,-0.089766
48.809,71.7593,-0.089766
48.839,71.7593,-0.089766
48.871,71.7593,-0.089766
48.901,71.7593,-0.089766
48.932,71.7593,-0.089766
48.963,71.7593,-0.089766
48.993,71.7593,-0.089766
49.024,71.7593,-0.088608
49.056,71.7593,-0.088608
49.085,71.7593,-0.088608
49.116,71.7593,-0.088608
49.148,71.7593,-0.088608
49.178,71.7593,-0.088608
49.209,71.7593,-0.088608
49.241,71.7593,-0.088608
49.271,71.7593,-0.087460
49.303,71.7593,-0.087460
49.334,71.7593,-0.087460
49.366,71.7593,-0.087460
49.396,71.7593,-0.087460
49.428,71.7593,-0.087460
49.458,71.7593,-0.087460
49.489,71.7593,-0.087460
49.520,71.7593,-0.086171
49.551,71.7593,-0.086171
49.582,71.7593,-0.086171
49.613,71.7593,-0.086171
49.643,71.7593,-0.086171
49.678,71.7593,-0.086171
49.707,71.7593,-0.086171
49.737,71.7593,-0.086171
49.769,71.7593,-0.084938
49.800,71.7593,-0.084938
49.830,71.7593,-0.084938
49.861,71.7593,-0.084938
49.892,71.7592,-0.084938
49.923,71.7583,-0.084938
49.956,71.7567,-0.084938
49.986,71.7545,-0.084938
50.017,71.7514,-0.084938
50.050,71.7474,-0.081428
50.081,71.7428,-0.081428
50.111,71.7378,-0.081428
50.143,71.7314,-0.081428
50.173,71.7251,-0.081428
50.203,71.7178,-0.081428
50.234,71.7099,-0.081428
50.266,71.7002,-0.081428
50.296,71.6913,-0.027572
50.328,71.6810,-0.027572
50.358,71.6700,-0.027572
50.396,71.6558,-0.027572
50.435,71.6395,-0.027572
50.466,71.6261,-0.027572
50.498,71.6110,-0.027572
50.527,71.5971,-0.027572
50.560,71.5803,0.006277
50.590,71.5646,0.006277
50.621,71.5474,0.006277
50.652,71.5298,0.006277
50.683,71.5107,0.006277
50.712,71.4927,0.006277
50.743,71.4725,0.006277
50.774,71.4519,-0.002343
50.806,71.4298,-0.002343
50.836,71.4072,-0.002343
50.869,71.3834,-0.002343
50.899,71.3607,-0.002343
50.930,71.3365,-0.002343
50.959,71.3119,-0.002343
50.990,71.2871,-0.002343
51.021,71.2599,0.015518
51.052,71.2327,0.015518
51.082,71.2045,0.015518
51.114,71.1761,0.015518
51.145,71.1469,0.015518
51.174,71.1180,0.015518
51.205,71.0871,0.015518
51.237,71.0543,0.015518
51.268,71.0220,0.031845
51.299,70.9894,0.031845
51.330,70.9555,0.031845
51.361,70.9204,0.031845
51.392,70.8853,0.031845
51.423,70.8488,0.031845
51.454,70.8132,0.031845
51.485,70.7755,0.031845
51.516,70.7365,0.042441
51.546,70.7001,0.042441
51.577,70.6583,0.042441
51.608,70.6189,0.042441
51.639,70.5771,0.042441
51.671,70.5350,0.042441
51.701,70.4934,0.042441
51.733,70.4495,0.042441
51.764,70.4053,0.048962
51.795,70.3606,0.048962
51.826,70.3156,0.048962
51.856,70.2686,0.048962
51.887,70.2231,0.048962
51.918,70.1748,0.048962
51.950,70.1258,0.048962
51.983,70.0721,0.048962
52.011,70.0269,0.054458
52.042,69.9764,0.054458
52.073,69.9265,0.054458
52.103,69.8759,0.054458
52.137,69.8179,0.054458
52.166,69.7686,0.054458
52.196,69.7157,0.054458
52.227,69.6604,0.054458
52.257,69.6069,0.054458
52.288,69.5515,0.059483
52.318,69.4952,0.059483
52.354,69.4271,0.059483
52.381,69.3765,0.059483
52.413,69.3165,0.059483
52.444,69.2561,0.059483
52.476,69.1944,0.059483
52.506,69.1351,0.059483
52.538,69.0747,0.064678
52.570,69.0146,0.064678
52.602,68.9564,0.064678
52.632,68.9010,0.064678
52.663,68.8439,0.064678
52.694,68.7898,0.064678
52.726,68.7329,0.064678
52.755,68.6822,0.064678
52.787,68.6282,0.064678
52.818,68.5744,0.064386
52.849,68.5238,0.064386
52.880,68.4719,0.064386
52.911,68.4215,0.064386
52.942,68.3719,0.064386
52.972,68.3236,0.064386
53.004,68.2756,0.064386
53.034,68.2285,0.064386
53.065,68.1821,0.037180
53.096,68.1357,0.037180
53.128,68.0899,0.037180
53.160,68.0440,0.037180
53.190,68.0018,0.037180
53.223,67.9570,0.037180
53.253,67.9161,0.037180
53.285,67.8720,0.037180
53.312,67.8370,0.011810
53.345,67.7941,0.011810
53.376,67.7546,0.011810
53.408,67.7148,0.011810
53.439,67.6775,0.011810
53.469,67.6406,0.011810
53.501,67.6036,0.011810
53.532,67.5677,0.010135
53.563,67.5331,0.010135
53.593,67.4995,0.010135
53.623,67.4665,0.010135
53.660,67.4279,0.010135
53.702,67.3850,0.010135
53.732,67.3545,0.010135
53.763,67.3249,0.010135
53.794,67.2956,0.009712
53.825,67.2663,0.009712
53.856,67.2377,0.009712
53.887,67.2108,0.009712
53.918,67.1841,0.009712
53.950,67.1581,0.009712
53.981,67.1326,0.009712
54.012,67.1076,0.009712
54.043,67.0842,0.009476
54.075,67.0603,0.009476
54.105,67.0389,0.009476
54.136,67.0173,0.009476
54.167,66.9965,0.009476
54.199,66.9755,0.009476
54.229,66.9572,0.009476
54.260,66.9381,0.009476
54.292,66.9203,0.009250
54.325,66.9018,0.009250
54.354,66.8867,0.009250
54.384,66.8715,0.009250
54.416,66.8560,0.009250
54.447,66.8418,0.009250
54.479,66.8278,0.009250
54.509,66.8153,0.009250
54.539,66.8036,0.009166
54.571,66.7922,0.009166
54.603,66.7810,0.009166
54.633,66.7712,0.009166
54.664,66.7623,0.009166
54.696,66.7536,0.009166
54.726,66.7463,0.009166
54.756,66.7392,0.009166
54.788,66.7332,0.009166
54.819,66.7275,0.009025
54.850,66.7227,0.009025
54.882,66.7185,0.009025
54.914,66.7152,0.009025
54.944,66.7127,0.009025
54.975,66.7108,0.009025
55.005,66.7097,0.009025
55.036,66.7094,0.009025
55.068,66.7094,0.008883
55.098,66.7094,0.008883
55.129,66.7094,0.008883
55.160,66.7094,0.008883
55.191,66.7094,0.008883
55.222,66.7094,0.008883
55.254,66.7094,0.008883
55.285,66.7094,0.008883
55.315,66.7094,0.008902
55.346,66.7094,0.008902
55.375,66.7094,0.008902
55.406,66.7094,0.008902
55.439,66.7094,0.008902
55.468,66.7094,0.008902
55.499,66.7094,0.008902
55.530,66.7094,0.008912
55.564,66.7094,0.008912
55.594,66.7094,0.008912
55.625,66.7095,0.008912
55.656,66.7103,0.008912
55.686,66.7120,0.008912
55.718,66.7143,0.008912
55.749,66.7173,0.008846
55.780,66.7211,0.008846
55.811,66.7256,0.008846
55.842,66.7308,0.008846
55.873,66.7366,0.008846
55.903,66.7433,0.008846
55.934,66.7510,0.008846
55.965,66.7587,0.008846
55.995,66.7673,0.008846
56.026,66.7768,0.008846
56.058,66.7872,0.008733
56.088,66.7983,0.008733
56.119,66.8096,0.008733
56.149,66.8220,0.008733
56.181,66.8352,0.008733
56.212,66.8493,0.008733
56.243,66.8643,0.008733
56.281,66.8830,0.008733
56.323,66.9048,0.008554
56.353,66.9219,0.008554
56.387,66.9413,0.008554
56.416,66.9588,0.008554
56.447,66.9782,0.008554
56.477,66.9977,0.008554
56.508,67.0189,0.008554
56.538,67.0394,0.008394
56.570,67.0624,0.008394
56.601,67.0851,0.008394
56.632,67.1100,0.008394
56.663,67.1341,0.008394
56.695,67.1597,0.008394
56.726,67.1857,0.008394
56.757,67.2125,0.008394
56.788,67.2401,0.008243
56.819,67.2682,0.008243
56.850,67.2973,0.008243
56.886,67.3317,0.008243
56.912,67.3568,0.008243
56.944,67.3889,0.008243
56.975,67.4211,0.008243
57.005,67.4529,0.008243
57.035,67.4850,0.008008
57.068,67.5200,0.008008
57.097,67.5537,0.008008
57.129,67.5900,0.008008
57.163,67.6296,0.008008
57.191,67.6633,0.008008
57.224,67.7034,0.008008
57.252,67.7383,0.008008
57.286,67.7809,0.007613
57.313,67.8149,0.007613
57.345,67.8569,0.007613
57.376,67.8980,0.007613
57.407,67.9400,0.007613
57.437,67.9812,0.007613
57.470,68.0293,0.007613
57.499,68.0690,0.007613
57.530,68.1140,0.007124
57.561,68.1604,0.007124
57.593,68.2057,0.007124
57.623,68.2523,0.007124
57.655,68.3005,0.007124
57.685,68.3482,0.007124
57.717,68.3997,0.007124
57.746,68.4466,0.007124
57.777,68.4965,0.006493
57.808,68.5470,0.006493
57.838,68.5986,0.006493
57.870,68.6518,0.006493
57.900,68.7063,0.006493
57.932,68.7602,0.006493
57.962,68.8151,0.006493
57.992,68.8684,0.006493
58.023,68.9255,0.005618
58.055,68.9830,0.005618
58.086,69.0426,0.005618
58.117,69.1000,0.005618
58.149,69.1603,0.005618
58.179,69.2187,0.005618
58.209,69.2766,0.005618
58.239,69.3342,0.005618
58.274,69.4007,0.005618
58.302,69.4521,0.004197
58.333,69.5083,0.004197
58.363,69.5631,0.004197
58.393,69.6166,0.004197
58.424,69.6720,0.004197
58.455,69.7266,0.004197
58.486,69.7792,0.004197
58.516,69.8305,0.004197
58.547,69.8825,0.002070
58.578,69.9337,0.002070
58.608,69.9823,0.002070
58.639,70.0318,0.002070
58.670,70.0807,0.002070
58.706,70.1385,0.002070
58.748,70.2002,0.002070
58.779,70.2469,0.002070
58.809,70.2918,-0.001289
58.840,70.3370,-0.001289
58.871,70.3811,-0.001289
58.902,70.4252,-0.001289
58.933,70.4680,-0.001289
58.965,70.5108,-0.001289
58.996,70.5523,-0.001289
59.028,70.5941,-0.007622
59.058,70.6338,-0.007622
59.089,70.6726,-0.007622
59.121,70.7127,-0.007622
59.152,70.7495,-0.007622
59.183,70.7863,-0.007622
59.213,70.8220,-0.007622
59.244,70.8577,-0.007622
59.276,70.8935,-0.019385
59.307,70.9273,-0.019385
59.339,70.9617,-0.019385
59.370,70.9944,-0.019385
59.401,71.0269,-0.019385
59.432,71.0571,-0.019385
59.465,71.0904,-0.019385
59.495,71.1181,-0.019385
59.525,71.1465,-0.019385
59.556,71.1751,-0.038131
59.587,71.2035,-0.038131
59.620,71.2306,-0.038131
59.650,71.2567,-0.038131
59.681,71.2821,-0.038131
59.713,71.3069,-0.038131
59.743,71.3298,-0.038131
59.775,71.3539,-0.038131
59.806,71.3761,-0.062852
59.837,71.3982,-0.062852
59.868,71.4186,-0.062852
59.899,71.4392,-0.062852
59.930,71.4586,-0.062852
59.961,71.4771,-0.062852
59.992,71.4949,-0.062852
60.023,71.5127,-0.062852
60.054,71.5288,-0.091845
60.085,71.5453,-0.091845
60.116,71.5598,-0.091845
60.148,71.5747,-0.091845
60.178,71.5879,-0.091845
60.209,71.6008,-0.091845
60.239,71.6127,-0.091845
60.270,71.6244,-0.091845
60.301,71.6351,-0.137091
60.333,71.6452,-0.137091
60.364,71.6547,-0.137091
60.396,71.6635,-0.137091
60.427,71.6713,-0.137091
60.457,71.6781,-0.137091
60.488,71.6844,-0.137091
60.519,71.6901,-0.137091
60.550,71.6951,-0.206078
60.581,71.6994,-0.206078
60.612,71.7028,-0.206078
60.644,71.7056,-0.206078
60.676,71.7076,-0.206078
60.707,71.7089,-0.206078
60.738,71.7094,-0.206078
60.769,71.7094,-0.206078
60.799,71.7094,-0.245743
60.830,71.7094,-0.245743
60.861,71.7094,-0.245743
60.892,71.7094,-0.245743
60.924,71.7094,-0.245743
60.955,71.7094,-0.245743
60.985,71.7094,-0.245743
61.017,71.7094,-0.245743
61.049,71.7094,-0.195021
61.080,71.7094,-0.195021
61.110,71.7094,-0.195021
61.142,71.7094,-0.195021
61.173,71.7094,-0.195021
61.204,71.7094,-0.195021
61.234,71.7094,-0.195021
61.265,71.7094,-0.195021
61.295,71.7094,-0.134305
61.326,71.7094,-0.134305
61.352,71.7094,-0.134305
61.388,71.7094,-0.134305
61.419,71.7094,-0.134305
61.456,71.7094,-0.134305
61.496,71.7094,-0.134305
61.527,71.7094,-0.134305
61.558,71.7094,-0.120895
61.589,71.7094,-0.120895
61.620,71.7094,-0.120895
61.651,71.7094,-0.120895
61.682,71.7094,-0.120895
61.713,71.7094,-0.120895
61.744,71.7094,-0.120895
61.774,71.7094,-0.120895
61.805,71.7094,-0.120895
61.837,71.7094,-0.114082
61.868,71.7094,-0.114082
61.899,71.7094,-0.114082
61.930,71.7094,-0.114082
61.961,71.7094,-0.114082
61.993,71.7094,-0.114082
62.023,71.7094,-0.114082
62.053,71.7094,-0.109010
62.084,71.7094,-0.109010
62.114,71.7094,-0.109010
62.144,71.7094,-0.109010
62.176,71.7094,-0.109010
62.207,71.7094,-0.109010
62.238,71.7094,-0.109010
62.270,71.7094,-0.109010
62.300,71.7094,-0.105048
62.331,71.7094,-0.105048
62.362,71.7094,-0.105048
62.394,71.7094,-0.105048
62.425,71.7094,-0.105048
62.456,71.7094,-0.105048
62.486,71.7094,-0.105048
62.519,71.7094,-0.105048
62.548,71.7094,-0.101811
62.579,71.7094,-0.101811
62.610,71.7094,-0.101811
62.641,71.7094,-0.101811
62.672,71.7094,-0.101811
62.705,71.7094,-0.101811
62.735,71.7094,-0.101811
62.765,71.7094,-0.101811
62.797,71.7094,-0.099073
62.828,71.7094,-0.099073
62.858,71.7094,-0.099073
62.889,71.7094,-0.099073
62.921,71.7094,-0.099073
62.952,71.7094,-0.099073
62.983,71.7094,-0.099073
63.014,71.7094,-0.099073
63.046,71.7094,-0.096739
63.078,71.7094,-0.096739
63.108,71.7094,-0.096739
63.138,71.7094,-0.096739
63.169,71.7094,-0.096739
63.201,71.7094,-0.096739
63.231,71.7094,-0.096739
63.263,71.7094,-0.096739
63.293,71.7094,-0.094753
63.324,71.7094,-0.094753
63.354,71.7094,-0.094753
63.385,71.7094,-0.094753
63.416,71.7094,-0.094753
63.448,71.7094,-0.094753
63.478,71.7094,-0.094753
63.512,71.7094,-0.094753
63.540,71.7094,-0.094753
63.571,71.7094,-0.093078
63.601,71.7094,-0.093078
63.632,71.7094,-0.093078
63.664,71.7094,-0.093078
63.698,71.7094,-0.093078
63.725,71.7094,-0.093078
63.756,71.7094,-0.093078
63.788,71.7094,-0.091685
63.824,71.7094,-0.091685
63.852,71.7094,-0.091685
63.881,71.7094,-0.091685
63.913,71.7094,-0.091685
63.949,71.7094,-0.091685
63.975,71.7094,-0.091685
64.006,71.7094,-0.091685
64.037,71.7094,-0.090349
64.069,71.7094,-0.090349
64.099,71.7094,-0.090349
64.130,71.7094,-0.090349
64.162,71.7094,-0.090349
64.193,71.7094,-0.090349
64.224,71.7094,-0.090349
64.254,71.7094,-0.090349
64.286,71.7094,-0.089060
64.316,71.7094,-0.089060
64.347,71.7094,-0.089060
64.378,71.7094,-0.089060
64.409,71.7094,-0.089060
64.440,71.7094,-0.089060
64.471,71.7094,-0.089060
64.502,71.7094,-0.089060
64.532,71.7094,-0.087959
64.563,71.7094,-0.087959
64.594,71.7094,-0.087959
64.626,71.7094,-0.087959
64.656,71.7094,-0.087959
64.687,71.7094,-0.087959
64.719,71.7094,-0.087959
64.750,71.7094,-0.087959
64.781,71.7094,-0.086764
64.812,71.7094,-0.086764
64.844,71.7094,-0.086764
64.874,71.7094,-0.086764
64.905,71.7094,-0.086764
64.937,71.7094,-0.086764
64.969,71.7094,-0.086764
65.000,71.7094,-0.086764
65.031,71.7094,-0.085437
65.063,71.7094,-0.085437
65.095,71.7094,-0.085437
65.125,71.7094,-0.085437
65.156,71.7094,-0.085437
65.187,71.7094,-0.085437
65.218,71.7094,-0.085437
65.249,71.7094,-0.085437
65.280,71.7094,-0.084214
65.311,71.7092,-0.084214
65.342,71.7085,-0.084214
65.374,71.7069,-0.084214
65.404,71.7046,-0.084214
65.435,71.7017,-0.084214
65.466,71.6979,-0.084214
65.498,71.6932,-0.084214
65.528,71.6884,-0.053169
65.561,71.6821,-0.053169
65.589,71.6760,-0.053169
65.620,71.6688,-0.053169
65.651,71.6609,-0.053169
65.681,71.6521,-0.053169
65.712,71.6425,-0.053169
65.743,71.6325,-0.053169
65.773,71.6218,-0.016242
65.804,71.6101,-0.016242
65.835,71.5977,-0.016242
65.870,71.5831,-0.016242
65.898,71.5706,-0.016242
65.928,71.5564,-0.016242
65.960,71.5403,-0.016242
65.991,71.5246,-0.016242
66.022,71.5073,-0.008093
66.057,71.4880,-0.008093
66.084,71.4722,-0.008093
66.115,71.4533,-0.008093
66.146,71.4337,-0.008093
66.183,71.4091,-0.008093
66.225,71.3796,-0.008093
66.255,71.3584,-0.008093
66.286,71.3362,-0.008093
66.317,71.3119,0.002889
66.348,71.2882,0.002889
66.378,71.2628,0.002889
66.409,71.2381,0.002889
66.443,71.2082,0.002889
66.471,71.1834,0.002889
66.502,71.1558,0.002889
66.532,71.1277,0.021117
66.562,71.0995,0.021117
66.593,71.0690,0.021117
66.624,71.0375,0.021117
66.655,71.0059,0.021117
66.686,70.9743,0.021117
66.717,70.9412,0.021117
66.749,70.9069,0.021117
66.779,70.8728,0.035807
66.810,70.8374,0.035807
66.841,70.8023,0.035807
66.872,70.7648,0.035807
66.902,70.7287,0.035807
66.933,70.6896,0.035807
66.965,70.6513,0.035807
66.996,70.6119,0.035807
67.026,70.5723,0.044671
67.057,70.5311,0.044671
67.087,70.4902,0.044671
67.118,70.4475,0.044671
67.150,70.4038,0.044671
67.180,70.3595,0.044671
67.212,70.3152,0.044671
67.246,70.2618,0.044671
67.273,70.2247,0.050618
67.304,70.1768,0.050618
67.336,70.1289,0.050618
67.366,70.0827,0.050618
67.397,70.0327,0.050618
67.429,69.9822,0.050618
67.458,69.9332,0.050618
67.489,69.8819,0.050618
67.520,69.8318,0.056199
67.550,69.7797,0.056199
67.581,69.7268,0.056199
67.613,69.6707,0.056199
67.644,69.6158,0.056199
67.675,69.5607,0.056199
67.706,69.5043,0.056199
67.744,69.4354,0.056199
67.784,69.3596,0.061760
67.815,69.3011,0.061760
67.846,69.2422,0.061760
67.877,69.1803,0.061760
67.907,69.1225,0.061760
67.939,69.0608,0.061760
67.970,69.0021,0.061760
68.001,68.9435,0.061760
68.033,68.8853,0.065732
68.063,68.8305,0.065732
68.095,68.7731,0.065732
68.126,68.7193,0.065732
68.158,68.6622,0.065732
68.189,68.6096,0.065732
68.220,68.5559,0.065732
68.252,68.5020,0.065732
68.283,68.4495,0.057432
68.314,68.3982,0.057432
68.344,68.3511,0.057432
68.376,68.3012,0.057432
68.406,68.2531,0.057432
68.437,68.2066,0.057432
68.468,68.1577,0.057432
68.499,68.1123,0.057432
68.530,68.0663,0.029869
68.561,68.0223,0.029869
68.593,67.9764,0.029869
68.623,67.9336,0.029869
68.658,67.8855,0.029869
68.686,67.8474,0.029869
68.718,67.8060,0.029869
68.748,67.7660,0.029869
68.781,67.7242,0.011010
68.811,67.6855,0.011010
68.843,67.6466,0.011010
68.874,67.6098,0.011010
68.907,67.5690,0.011010
68.936,67.5368,0.011010
68.966,67.5024,0.011010
68.997,67.4678,0.011010
69.029,67.4328,0.011010
69.059,67.3986,0.010013
69.090,67.3683,0.010013
69.121,67.3358,0.010013
69.152,67.3052,0.010013
69.183,67.2747,0.010013
69.214,67.2458,0.010013
69.244,67.2174,0.010013
69.277,67.1873,0.010013
69.305,67.1633,0.009664
69.336,67.1365,0.009664
69.367,67.1100,0.009664
69.398,67.0845,0.009664
69.428,67.0613,0.009664
69.459,67.0376,0.009664
69.489,67.0149,0.009664
69.525,66.9889,0.009664
69.551,66.9709,0.009664
69.584,66.9487,0.009457
69.614,66.9292,0.009457
69.646,66.9095,0.009457
69.675,66.8914,0.009457
69.708,66.8727,0.009457
69.737,66.8563,0.009457
69.769,66.8391,0.009457
69.799,66.8238,0.009241
69.830,66.8088,0.009241
69.861,66.7946,0.009241
69.893,66.7800,0.009241
69.923,66.7674,0.009241
69.954,66.7555,0.009241
69.985,66.7441,0.009241
70.017,66.7330,0.009241
70.049,66.7230,0.009081
70.079,66.7136,0.009081
70.111,66.7050,0.009081
70.142,66.6972,0.009081
70.173,66.6901,0.009081
70.204,66.6837,0.009081
70.235,66.6783,0.009081
70.267,66.6733,0.009081
70.298,66.6692,0.008959
70.329,66.6657,0.008959
70.360,66.6631,0.008959
70.390,66.6611,0.008959
70.421,66.6599,0.008959
70.453,66.6594,0.008959
70.482,66.6594,0.008959
70.513,66.6594,0.008959
70.543,66.6594,0.008902
70.580,66.6594,0.008902
70.622,66.6594,0.008902
70.652,66.6594,0.008902
70.683,66.6594,0.008902
70.715,66.6594,0.008902
70.745,66.6594,0.008902
70.776,66.6594,0.008902
70.806,66.6594,0.008902
70.837,66.6594,0.008902
70.869,66.6594,0.008902
70.900,66.6594,0.008902
70.931,66.6594,0.008902
70.962,66.6594,0.008902
70.993,66.6594,0.008902
71.024,66.6599,0.008893
71.055,66.6611,0.008893
71.088,66.6632,0.008893
71.118,66.6659,0.008893
71.149,66.6694,0.008893
71.180,66.6736,0.008893
71.212,66.6787,0.008893
71.244,66.6844,0.008893
71.275,66.6909,0.008893
71.305,66.6978,0.008818
71.337,66.7061,0.008818
71.368,66.7146,0.008818
71.399,66.7239,0.008818
71.429,66.7338,0.008818
71.461,66.7448,0.008818
71.492,66.7562,0.008818
71.524,66.7691,0.008658
71.555,66.7819,0.008658
71.587,66.7960,0.008658
71.617,66.8102,0.008658
71.649,66.8258,0.008658
71.680,66.8417,0.008658
71.711,66.8579,0.008658
71.742,66.8760,0.008658
71.773,66.8932,0.008658
71.803,66.9116,0.008535
71.835,66.9315,0.008535
71.865,66.9513,0.008535
71.895,66.9718,0.008535
71.929,66.9958,0.008535
71.958,67.0167,0.008535
71.992,67.0425,0.008535
72.021,67.0647,0.008347
72.052,67.0892,0.008347
72.082,67.1138,0.008347
72.114,67.1403,0.008347
72.145,67.1676,0.008347
72.176,67.1957,0.008347
72.207,67.2236,0.008347
72.238,67.2520,0.008347
72.268,67.2811,0.008084
72.299,67.3121,0.008084
72.330,67.3427,0.008084
72.362,67.3755,0.008084
72.392,67.4067,0.008084
72.423,67.4412,0.008084
72.454,67.4740,0.008084
72.485,67.5097,0.008084
72.515,67.5437,0.007811
72.547,67.5814,0.007811
72.578,67.6186,0.007811
72.610,67.6570,0.007811
72.640,67.6946,0.007811
72.672,67.7366,0.007811
72.703,67.7748,0.007811
72.733,67.8148,0.007811
72.764,67.8556,0.007397
72.795,67.8975,0.007397
72.826,67.9407,0.007397
72.857,67.9834,0.007397
72.888,68.0283,0.007397
72.918,68.0718,0.007397
72.949,68.1168,0.007397
72.980,68.1632,0.007397
73.011,68.2105,0.006888
73.041,68.2561,0.006888
73.071,68.3043,0.006888
73.102,68.3537,0.006888
73.136,68.4093,0.006888
73.164,68.4547,0.006888
73.196,68.5092,0.006888
73.226,68.5580,0.006888
73.257,68.6105,0.006888
73.288,68.6640,0.006145
73.319,68.7198,0.006145
73.349,68.7725,0.006145
73.381,68.8307,0.006145
73.411,68.8848,0.006145
73.444,68.9456,0.006145
73.474,69.0003,0.006145
73.505,69.0610,0.006145
73.536,69.1193,0.004988
73.567,69.1805,0.004988
73.598,69.2398,0.004988
73.630,69.3012,0.004988
73.661,69.3591,0.004988
73.692,69.4154,0.004988
73.722,69.4715,0.004988
73.753,69.5278,0.003284
73.784,69.5841,0.003284
73.815,69.6385,0.003284
73.846,69.6909,0.003284
73.877,69.7435,0.003284
73.908,69.7956,0.003284
73.938,69.8471,0.003284
73.969,69.8986,0.003284
74.002,69.9500,0.003284
74.032,69.9983,0.000659
74.062,70.0466,0.000659
74.094,70.0954,0.000659
74.125,70.1433,0.000659
74.155,70.1883,0.000659
74.186,70.2352,0.000659
74.217,70.2787,0.000659
74.248,70.3241,0.000659
74.279,70.3685,0.000659
74.311,70.4110,-0.003952
74.340,70.4528,-0.003952
74.371,70.4928,-0.003952
74.402,70.5341,-0.003952
74.433,70.5736,-0.003952
74.464,70.6142,-0.003952
74.494,70.6511,-0.003952
74.525,70.6894,-0.012591
74.557,70.7273,-0.012591
74.588,70.7636,-0.012591
74.618,70.7979,-0.012591
74.649,70.8339,-0.012591
74.681,70.8686,-0.012591
74.713,70.9031,-0.012591
74.743,70.9351,-0.012591
74.775,70.9681,-0.012591
74.806,70.9994,-0.027535
74.836,71.0296,-0.027535
74.867,71.0590,-0.027535
74.899,71.0889,-0.027535
74.929,71.1173,-0.027535
74.961,71.1454,-0.027535
74.991,71.1715,-0.027535
75.022,71.1976,-0.027535
75.054,71.2236,-0.027535
75.085,71.2490,-0.049423
75.117,71.2732,-0.049423
75.148,71.2972,-0.049423
75.179,71.3197,-0.049423
75.211,71.3422,-0.049423
75.241,71.3623,-0.049423
75.271,71.3821,-0.049423
75.301,71.4015,-0.076234
75.333,71.4208,-0.076234
75.364,71.4392,-0.076234
75.396,71.4572,-0.076234
75.427,71.4742,-0.076234
75.458,71.4906,-0.076234
75.489,71.5057,-0.076234
75.520,71.5201,-0.076234
75.551,71.5339,-0.110280
75.582,71.5469,-0.110280
75.613,71.5595,-0.110280
75.644,71.5714,-0.110280
75.675,71.5822,-0.110280
75.706,71.5925,-0.110280
75.738,71.6021,-0.110280
75.768,71.6109,-0.110280
75.799,71.6187,-0.168145
75.830,71.6263,-0.168145
75.862,71.6328,-0.168145
75.894,71.6388,-0.168145
75.923,71.6438,-0.168145
75.954,71.6481,-0.168145
75.985,71.6518,-0.168145
76.018,71.6549,-0.168145
76.049,71.6571,-0.235476
76.080,71.6585,-0.235476
76.111,71.6593,-0.235476
76.142,71.6594,-0.235476
76.173,71.6594,-0.235476
76.203,71.6594,-0.235476
76.235,71.6594,-0.235476
76.266,71.6594,-0.235476
76.297,71.6594,-0.222847
76.329,71.6594,-0.222847
76.359,71.6594,-0.222847
76.390,71.6594,-0.222847
76.420,71.6594,-0.222847
76.452,71.6594,-0.222847
76.483,71.6594,-0.222847
76.515,71.6594,-0.222847
76.545,71.6594,-0.155300
76.575,71.6594,-0.155300
76.607,71.6594,-0.155300
76.639,71.6594,-0.155300
76.670,71.6594,-0.155300
76.700,71.6594,-0.155300
76.731,71.6594,-0.155300
76.762,71.6594,-0.155300
76.794,71.6594,-0.125149
76.825,71.6594,-0.125149
76.855,71.6594,-0.125149
76.887,71.6594,-0.125149
76.917,71.6594,-0.125149
76.949,71.6594,-0.125149
76.979,71.6594,-0.125149
77.010,71.6594,-0.125149
77.041,71.6594,-0.117291
77.074,71.6594,-0.117291
77.103,71.6594,-0.117291
77.135,71.6594,-0.117291
77.165,71.6594,-0.117291
77.194,71.6594,-0.117291
77.225,71.6594,-0.117291
77.255,71.6594,-0.117291
77.287,71.6594,-0.111334
77.317,71.6594,-0.111334
77.348,71.6594,-0.111334
77.380,71.6594,-0.111334
77.411,71.6594,-0.111334
77.445,71.6594,-0.111334
77.473,71.6594,-0.111334
77.504,71.6594,-0.111334
77.535,71.6594,-0.106770
77.566,71.6594,-0.106770
77.597,71.6594,-0.106770
77.628,71.6594,-0.106770
77.659,71.6594,-0.106770
77.690,71.6594,-0.106770
77.721,71.6594,-0.106770
77.752,71.6594,-0.106770
77.784,71.6594,-0.103260
77.816,71.6594,-0.103260
77.846,71.6594,-0.103260
77.877,71.6594,-0.103260
77.908,71.6594,-0.103260
77.939,71.6594,-0.103260
77.970,71.6594,-0.103260
78.001,71.6594,-0.103260
78.032,71.6594,-0.100343
78.063,71.6594,-0.100343
78.093,71.6594,-0.100343
78.124,71.6594,-0.100343
78.155,71.6594,-0.100343
78.187,71.6594,-0.100343
78.217,71.6594,-0.100343
78.248,71.6594,-0.100343
78.279,71.6594,-0.097943
78.310,71.6594,-0.097943
78.341,71.6594,-0.097943
78.373,71.6594,-0.097943
78.404,71.6594,-0.097943
78.434,71.6594,-0.097943
78.467,71.6594,-0.097943
78.496,71.6594,-0.097943
78.530,71.6594,-0.097943
78.558,71.6594,-0.095807
78.589,71.6594,-0.095807
78.620,71.6594,-0.095807
78.651,71.6594,-0.095807
78.683,71.6594,-0.095807
78.714,71.6594,-0.095807
78.746,71.6594,-0.095807
78.778,71.6594,-0.095807
78.807,71.6594,-0.093906
78.838,71.6594,-0.093906
78.869,71.6594,-0.093906
78.900,71.6594,-0.093906
78.931,71.6594,-0.093906
78.962,71.6594,-0.093906
78.993,71.6594,-0.093906
79.027,71.6594,-0.093906
79.056,71.6594,-0.093906
79.087,71.6594,-0.092354
79.118,71.6594,-0.092354
79.150,71.6594,-0.092354
79.183,71.6594,-0.092354
79.212,71.6594,-0.092354
79.243,71.6594,-0.092354
79.274,71.6594,-0.090914
79.305,71.6594,-0.090914
79.335,71.6594,-0.090914
79.366,71.6594,-0.090914
79.397,71.6594,-0.090914
79.428,71.6594,-0.090914
79.459,71.6594,-0.090914
79.491,71.6594,-0.090914
79.521,71.6594,-0.089606
79.553,71.6594,-0.089606
79.583,71.6594,-0.089606
79.614,71.6594,-0.089606
79.645,71.6594,-0.089606
79.676,71.6594,-0.089606
79.707,71.6594,-0.089606
79.738,71.6594,-0.089606
79.769,71.6594,-0.088401
79.801,71.6594,-0.088401
79.832,71.6594,-0.088401
79.863,71.6594,-0.088401
79.893,71.6594,-0.088401
79.924,71.6594,-0.088401
79.955,71.6594,-0.088401
79.985,71.6594,-0.088401
80.017,71.6594,-0.087300
80.048,71.6594,-0.087300
80.078,71.6594,-0.087300
80.110,71.6594,-0.087300
80.141,71.6594,-0.087300
80.172,71.6594,-0.087300
80.203,71.6594,-0.087300
80.234,71.6594,-0.087300
80.264,71.6594,-0.086152
80.295,71.6594,-0.086152
80.325,71.6594,-0.086152
80.357,71.6594,-0.086152
80.388,71.6594,-0.086152
80.419,71.6594,-0.086152
80.450,71.6594,-0.086152
80.483,71.6594,-0.086152
80.513,71.6594,-0.086152
80.544,71.6594,-0.084872
80.574,71.6594,-0.084872
80.605,71.6594,-0.084872
80.636,71.6594,-0.084872
80.668,71.6591,-0.084872
80.699,71.6581,-0.084872
80.730,71.6563,-0.084872
80.760,71.6539,-0.082783
80.792,71.6506,-0.082783
80.823,71.6467,-0.082783
80.854,71.6421,-0.082783
80.885,71.6368,-0.082783
80.916,71.6306,-0.082783
80.950,71.6230,-0.082783
80.979,71.6160,-0.082783
81.009,71.6079,-0.082783
81.040,71.5989,-0.082783
81.071,71.5891,-0.023846
81.102,71.5788,-0.023846
81.132,71.5676,-0.023846
81.164,71.5556,-0.023846
81.195,71.5430,-0.023846
81.226,71.5298,-0.023846
81.259,71.5145,-0.023846
81.288,71.5008,0.010831
81.319,71.4850,0.010831
81.350,71.4688,0.010831
81.382,71.4510,0.010831
81.413,71.4333,0.010831
81.443,71.4153,0.010831
81.474,71.3960,0.010831
81.505,71.3766,0.010831
81.536,71.3559,-0.003839
81.567,71.3341,-0.003839
81.598,71.3126,-0.003839
81.628,71.2895,-0.003839
81.659,71.2663,-0.003839
81.691,71.2419,-0.003839
81.721,71.2172,-0.003839
81.752,71.1913,-0.003839
81.784,71.1646,0.013692
81.815,71.1370,0.013692
81.845,71.1098,0.013692
81.876,71.0816,0.013692
81.907,71.0525,0.013692
81.937,71.0228,0.013692
81.968,70.9916,0.013692
81.999,70.9610,0.013692
82.030,70.9285,0.013692
82.060,70.8968,0.030029
82.091,70.8624,0.030029
82.122,70.8290,0.030029
82.153,70.7931,0.030029
82.184,70.7583,0.030029
82.215,70.7208,0.030029
82.245,70.6846,0.030029
82.276,70.6456,0.030029
82.307,70.6083,0.040625
82.339,70.5669,0.040625
82.370,70.5270,0.040625
82.401,70.4857,0.040625
82.433,70.4433,0.040625
82.467,70.3957,0.040625
82.493,70.3606,0.040625
82.525,70.3142,0.040625
82.555,70.2723,0.046883
82.586,70.2264,0.046883
82.617,70.1800,0.046883
82.648,70.1341,0.046883
82.678,70.0885,0.046883
82.709,70.0394,0.046883
82.739,69.9925,0.046883
82.770,69.9438,0.046883
82.801,69.8925,0.052237
82.835,69.8349,0.052237
82.863,69.7889,0.052237
82.895,69.7354,0.052237
82.928,69.6790,0.052237
82.957,69.6273,0.052237
82.989,69.5711,0.052237
83.020,69.5171,0.057752
83.052,69.4596,0.057752
83.083,69.4019,0.057752
83.113,69.3451,0.057752
83.143,69.2884,0.057752
83.175,69.2285,0.057752
83.206,69.1684,0.057752
83.237,69.1057,0.057752
83.268,69.0479,0.063285
83.299,68.9880,0.063285
83.329,68.9316,0.063285
83.360,68.8734,0.063285
83.390,68.8185,0.063285
83.421,68.7618,0.063285
83.451,68.7084,0.063285
83.484,68.6487,0.063285
83.514,68.5982,0.062918
83.545,68.5447,0.062918
83.575,68.4938,0.062918
83.607,68.4395,0.062918
83.637,68.3897,0.062918
83.668,68.3406,0.062918
83.698,68.2902,0.062918
83.729,68.2413,0.062918
83.760,68.1927,0.062918
83.791,68.1454,0.036503
83.822,68.1003,0.036503
83.853,68.0539,0.036503
83.883,68.0094,0.036503
83.914,67.9639,0.036503
83.946,67.9198,0.036503
83.977,67.8751,0.036503
84.007,67.8342,0.036503
84.041,67.7894,0.011848
84.070,67.7510,0.011848
84.100,67.7100,0.011848
84.134,67.6674,0.011848
84.163,67.6317,0.011848
84.195,67.5917,0.011848
84.224,67.5566,0.011848
84.255,67.5189,0.011848
84.286,67.4843,0.011848
84.317,67.4485,0.010182
84.348,67.4148,0.010182
84.379,67.3798,0.010182
84.410,67.3472,0.010182
84.441,67.3145,0.010182
84.472,67.2830,0.010182
84.506,67.2480,0.010182
84.534,67.2223,0.009721
84.565,67.1925,0.009721
84.595,67.1643,0.009721
84.627,67.1357,0.009721
84.658,67.1076,0.009721
84.689,67.0813,0.009721
84.721,67.0558,0.009721
84.752,67.0305,0.009721
84.782,67.0059,0.009476
84.814,66.9818,0.009476
84.845,66.9594,0.009476
84.876,66.9372,0.009476
84.907,66.9157,0.009476
84.938,66.8946,0.009476
84.968,66.8752,0.009476
84.999,66.8558,0.009476
85.031,66.8372,0.009373
85.061,66.8196,0.009373
85.091,66.8027,0.009373
85.122,66.7861,0.009373
85.154,66.7706,0.009373
85.186,66.7550,0.009373
85.216,66.7411,0.009373
85.247,66.7277,0.009373
85.278,66.7146,0.009269
85.309,66.7029,0.009269
85.341,66.6912,0.009269
85.372,66.6808,0.009269
85.403,66.6709,0.009269
85.435,66.6616,0.009269
85.466,66.6533,0.009269
85.497,66.6456,0.009269
85.528,66.6387,0.009119
85.559,66.6326,0.009119
85.590,66.6271,0.009119
85.621,66.6223,0.009119
85.652,66.6184,0.009119
85.683,66.6151,0.009119
85.714,66.6126,0.009119
85.746,66.6108,0.009119
85.777,66.6098,0.008996
85.808,66.6094,0.008996
85.839,66.6094,0.008996
85.869,66.6094,0.008996
85.901,66.6094,0.008996
85.932,66.6094,0.008996
85.964,66.6094,0.008996
85.994,66.6094,0.008996
86.025,66.6094,0.008940
86.056,66.6094,0.008940
86.086,66.6094,0.008940
86.116,66.6094,0.008940
86.147,66.6094,0.008940
86.178,66.6094,0.008940
86.210,66.6094,0.008940
86.240,66.6095,0.008940
86.272,66.6103,0.008902
86.303,66.6119,0.008902
86.334,66.6141,0.008902
86.365,66.6170,0.008902
86.397,66.6208,0.008902
86.428,66.6253,0.008902
86.459,66.6305,0.008902
86.489,66.6362,0.008902
86.521,66.6429,0.008780
86.552,66.6503,0.008780
86.583,66.6586,0.008780
86.615,66.6673,0.008780
86.645,66.6767,0.008780
86.676,66.6869,0.008780
86.708,66.6983,0.008780
86.738,66.7099,0.008780
86.770,66.7226,0.008780
86.801,66.7360,0.008695
86.832,66.7499,0.008695
86.863,66.7644,0.008695
86.894,66.7798,0.008695
86.925,66.7958,0.008695
86.957,66.8134,0.008695
86.987,66.8304,0.008695
87.019,66.8489,0.008695
87.049,66.8677,0.008507
87.080,66.8870,0.008507
87.111,66.9078,0.008507
87.142,66.9290,0.008507
87.173,66.9513,0.008507
87.203,66.9729,0.008507
87.234,66.9965,0.008507
87.265,67.0203,0.008507
87.296,67.0450,0.008338
87.327,67.0708,0.008338
87.358,67.0969,0.008338
87.389,67.1237,0.008338
87.420,67.1512,0.008338
87.451,67.1798,0.008338
87.483,67.2099,0.008338
87.513,67.2389,0.008338
87.545,67.2707,0.008187
87.574,67.3003,0.008187
87.606,67.3333,0.008187
87.637,67.3664,0.008187
87.668,67.3995,0.008187
87.699,67.4337,0.008187
87.730,67.4685,0.008187
87.760,67.5041,0.008187
87.791,67.5401,0.007886
87.823,67.5784,0.007886
87.853,67.6152,0.007886
87.884,67.6533,0.007886
87.915,67.6920,0.007886
87.946,67.7332,0.007886
87.977,67.7734,0.007886
88.009,67.8161,0.007500
88.038,67.8562,0.007500
88.070,67.9004,0.007500
88.099,67.9418,0.007500
88.132,67.9890,0.007500
88.163,68.0343,0.007500
88.194,68.0794,0.007500
88.225,68.1256,0.007500
88.255,68.1720,0.006983
88.286,68.2203,0.006983
88.318,68.2709,0.006983
88.349,68.3202,0.006983
88.380,68.3708,0.006983
88.411,68.4209,0.006983
88.441,68.4726,0.006983
88.473,68.5247,0.006983
88.504,68.5788,0.006983
88.534,68.6307,0.006154
88.566,68.6870,0.006154
88.596,68.7405,0.006154
88.629,68.7987,0.006154
88.658,68.8520,0.006154
88.691,68.9134,0.006154
88.722,68.9734,0.006154
88.753,69.0308,0.004922
88.784,69.0915,0.004922
88.815,69.1514,0.004922
88.846,69.2114,0.004922
88.878,69.2721,0.004922
88.908,69.3267,0.004922
88.939,69.3853,0.004922
88.970,69.4402,0.004922
89.000,69.4952,0.004922
89.032,69.5511,0.003228
89.063,69.6057,0.003228
89.093,69.6591,0.003228
89.125,69.7126,0.003228
89.155,69.7647,0.003228
89.187,69.8161,0.003228
89.217,69.8659,0.003228
89.249,69.9172,0.003228
89.279,69.9648,0.000668
89.310,70.0136,0.000668
89.343,70.0656,0.000668
89.371,70.1082,0.000668
89.402,70.1537,0.000668
89.432,70.1990,0.000668
89.463,70.2429,0.000668
89.494,70.2877,0.000668
89.525,70.3307,-0.004046
89.557,70.3746,-0.004046
89.587,70.4154,-0.004046
89.618,70.4562,-0.004046
89.649,70.4965,-0.004046
89.679,70.5366,-0.004046
89.709,70.5750,-0.004046
89.742,70.6142,-0.004046
89.773,70.6527,-0.012958
89.803,70.6879,-0.012958
89.835,70.7250,-0.012958
89.865,70.7598,-0.012958
89.896,70.7949,-0.012958
89.927,70.8294,-0.012958
89.959,70.8625,-0.012958
89.989,70.8948,-0.012958
90.020,70.9269,-0.012958
90.051,70.9581,-0.028203
90.081,70.9877,-0.028203
90.113,71.0181,-0.028203
90.143,71.0457,-0.028203
90.174,71.0740,-0.028203
90.211,71.1070,-0.028203
90.237,71.1295,-0.028203
90.268,71.1555,-0.028203
90.299,71.1809,-0.050299
90.330,71.2055,-0.050299
90.361,71.2293,-0.050299
90.392,71.2523,-0.050299
90.423,71.2754,-0.050299
90.454,71.2965,-0.050299
90.485,71.3178,-0.050299
90.519,71.3396,-0.077250
90.547,71.3575,-0.077250
90.578,71.3761,-0.077250
90.612,71.3952,-0.077250
90.641,71.4116,-0.077250
90.672,71.4286,-0.077250
90.703,71.4443,-0.077250
90.734,71.4596,-0.077250
90.764,71.4736,-0.112435
90.794,71.4866,-0.112435
90.826,71.5001,-0.112435
90.857,71.5120,-0.112435
90.887,71.5237,-0.112435
90.918,71.5342,-0.112435
90.948,71.5443,-0.112435
90.984,71.5548,-0.112435
91.011,71.5623,-0.172248
91.042,71.5703,-0.172248
91.074,71.5776,-0.172248
91.105,71.5842,-0.172248
91.137,71.5900,-0.172248
91.169,71.5951,-0.172248
91.200,71.5994,-0.172248
91.230,71.6026,-0.172248
91.261,71.6054,-0.172248
91.292,71.6075,-0.240059
91.324,71.6088,-0.240059
91.356,71.6094,-0.240059
91.387,71.6094,-0.240059
91.418,71.6094,-0.240059
91.450,71.6094,-0.240059
91.480,71.6094,-0.240059
91.512,71.6094,-0.240059
91.542,71.6094,-0.223017
91.573,71.6094,-0.223017
91.604,71.6094,-0.223017
91.635,71.6094,-0.223017
91.666,71.6094,-0.223017
91.698,71.6094,-0.223017
