Elapsed Time (s),Position (mm),Force (N)
-0.020,81.8092,-0.018962
0.011,81.8092,-0.018962
0.042,81.8092,-0.018962
0.073,81.8092,-0.018962
0.103,81.8092,-0.018040
0.135,81.8092,-0.018040
0.166,81.8092,-0.018040
0.197,81.8092,-0.018040
0.227,81.8092,-0.018040
0.260,81.8092,-0.018040
0.289,81.8092,-0.018040
0.317,81.8092,-0.018040
0.353,81.8092,-0.016487
0.384,81.8092,-0.016487
0.415,81.8092,-0.016487
0.446,81.8092,-0.016487
0.478,81.8092,-0.016487
0.510,81.8092,-0.016487
0.542,81.8092,-0.016487
0.573,81.8092,-0.016487
0.603,81.8092,-0.015386
0.634,81.8092,-0.015386
0.660,81.8092,-0.015386
0.698,81.8092,-0.015386
0.729,81.8092,-0.015386
0.760,81.8092,-0.015386
0.791,81.8092,-0.015386
0.822,81.8092,-0.015386
0.853,81.8092,-0.015386
0.884,81.8092,-0.014577
0.914,81.8092,-0.014577
0.945,81.8092,-0.014577
0.976,81.8092,-0.014577
1.007,81.8092,-0.014577
1.039,81.8092,-0.014577
1.071,81.8092,-0.014577
1.101,81.8092,-0.013918
1.133,81.8092,-0.013918
1.163,81.8092,-0.013918
1.195,81.8092,-0.013918
1.226,81.8092,-0.013918
1.257,81.8092,-0.013918
1.288,81.8092,-0.013918
1.319,81.8092,-0.013918
1.350,81.8092,-0.013391
1.381,81.8092,-0.013391
1.412,81.8092,-0.013391
1.443,81.8092,-0.013391
1.474,81.8092,-0.013391
1.505,81.8092,-0.013391
1.537,81.8092,-0.013391
1.568,81.8092,-0.013391
1.599,81.8092,-0.012996
1.630,81.8092,-0.012996
1.661,81.8092,-0.012996
1.693,81.8092,-0.012996
1.722,81.8092,-0.012996
1.753,81.8092,-0.012996
1.784,81.8092,-0.012996
1.814,81.8092,-0.012996
1.845,81.8092,-0.012591
1.876,81.8092,-0.012591
1.906,81.8092,-0.012591
1.938,81.8092,-0.012591
1.968,81.8092,-0.012591
1.999,81.8092,-0.012591
2.031,81.8092,-0.012591
2.061,81.8092,-0.012591
2.092,81.8092,-0.012234
2.124,81.8092,-0.012234
2.155,81.8092,-0.012234
2.187,81.8092,-0.012234
2.218,81.8092,-0.012234
2.249,81.8092,-0.012234
2.280,81.8092,-0.012234
2.310,81.8092,-0.012234
2.341,81.8092,-0.011904
2.372,81.8092,-0.011904
2.404,81.8092,-0.011904
2.436,81.8092,-0.011904
2.467,81.8092,-0.011904
2.498,81.8092,-0.011904
2.530,81.8092,-0.011904
2.560,81.8092,-0.011904
2.590,81.8092,-0.011659
2.621,81.8092,-0.011659
2.652,81.8092,-0.011659
2.684,81.8092,-0.011659
2.714,81.8092,-0.011659
2.745,81.8092,-0.011659
2.777,81.8092,-0.011659
2.809,81.8092,-0.011659
2.840,81.8092,-0.011434
2.870,81.8092,-0.011434
2.901,81.8092,-0.011434
2.933,81.8092,-0.011434
2.964,81.8092,-0.011434
2.995,81.8092,-0.011434
3.027,81.8092,-0.011434
3.058,81.8092,-0.011434
3.089,81.8092,-0.011255
3.120,81.8092,-0.011255
3.151,81.8092,-0.011255
3.182,81.8092,-0.011255
3.213,81.8092,-0.011255
3.243,81.8092,-0.011255
3.274,81.8092,-0.011255
3.305,81.8092,-0.011255
3.336,81.8092,-0.011255
3.367,81.8092,-0.011255
3.399,81.8092,-0.011048
3.430,81.8092,-0.011048
3.462,81.8092,-0.011048
3.493,81.8092,-0.011048
3.524,81.8092,-0.011048
3.555,81.8092,-0.011048
3.585,81.8092,-0.011048
3.618,81.8092,-0.010775
3.649,81.8092,-0.010775
3.680,81.8092,-0.010775
3.711,81.8092,-0.010775
3.742,81.8092,-0.010775
3.772,81.8092,-0.010775
3.803,81.8092,-0.010775
3.833,81.8092,-0.010775
3.864,81.8092,-0.010615
3.900,81.8092,-0.010615
3.926,81.8092,-0.010615
3.957,81.8092,-0.010615
3.989,81.8092,-0.010615
4.021,81.8092,-0.010615
4.053,81.8092,-0.010615
4.082,81.8092,-0.010615
4.113,81.8092,-0.010455
4.144,81.8087,-0.010455
4.175,81.8076,-0.010455
4.207,81.8056,-0.010455
4.237,81.8030,-0.010455
4.269,81.7995,-0.010455
4.301,81.7954,-0.010455
4.331,81.7906,-0.010455
4.363,81.7850,-0.010154
4.393,81.7787,-0.010154
4.424,81.7719,-0.010154
4.455,81.7641,-0.010154
4.488,81.7550,-0.010154
4.516,81.7466,-0.010154
4.547,81.7365,-0.010154
4.578,81.7260,-0.007406
4.609,81.7145,-0.007406
4.637,81.7039,-0.007406
4.672,81.6894,-0.007406
4.703,81.6759,-0.007406
4.734,81.6616,-0.007406
4.765,81.6465,-0.007406
4.795,81.6311,-0.007406
4.827,81.6141,-0.007406
4.858,81.5970,-0.001016
4.889,81.5791,-0.001016
4.920,81.5602,-0.001016
4.951,81.5411,-0.001016
4.988,81.5173,-0.001016
5.030,81.4889,-0.001016
5.060,81.4676,-0.001016
5.094,81.4420,0.006550
5.122,81.4209,0.006550
5.153,81.3966,0.006550
5.184,81.3721,0.006550
5.215,81.3472,0.006550
5.245,81.3209,0.006550
5.276,81.2943,0.006550
5.307,81.2662,0.006550
5.338,81.2381,0.006550
5.370,81.2086,0.012704
5.401,81.1778,0.012704
5.431,81.1482,0.012704
5.462,81.1174,0.012704
5.493,81.0865,0.012704
5.524,81.0550,0.012704
5.555,81.0249,0.012704
5.586,80.9930,0.012704
5.617,80.9624,0.016628
5.648,80.9305,0.016628
5.679,80.9005,0.016628
5.710,80.8695,0.016628
5.741,80.8377,0.016628
5.772,80.8071,0.016628
5.803,80.7763,0.016628
5.834,80.7451,0.016628
5.865,80.7140,0.020345
5.896,80.6825,0.020345
5.928,80.6514,0.020345
5.960,80.6190,0.020345
5.990,80.5889,0.020345
6.021,80.5574,0.020345
6.052,80.5273,0.020345
6.083,80.4960,0.020345
6.114,80.4660,0.025352
6.146,80.4335,0.025352
6.177,80.4027,0.025352
6.207,80.3714,0.025352
6.238,80.3410,0.025352
6.269,80.3104,0.025352
6.300,80.2788,0.025352
6.331,80.2480,0.030527
6.362,80.2167,0.030527
6.394,80.1856,0.030527
6.425,80.1544,0.030527
6.457,80.1229,0.030527
6.488,80.0919,0.030527
6.519,80.0610,0.030527
6.550,80.0295,0.030527
6.582,79.9980,0.030527
6.611,79.9677,0.033670
6.642,79.9373,0.033670
6.672,79.9071,0.033670
6.703,79.8758,0.033670
6.734,79.8450,0.033670
6.765,79.8143,0.033670
6.796,79.7827,0.033670
6.827,79.7527,0.025653
6.858,79.7218,0.025653
6.888,79.6909,0.025653
6.920,79.6598,0.025653
6.950,79.6288,0.025653
6.981,79.5989,0.025653
7.012,79.5671,0.025653
7.046,79.5340,0.025653
7.074,79.5045,0.025653
7.106,79.4735,0.013984
7.138,79.4414,0.013984
7.169,79.4106,0.013984
7.201,79.3782,0.013984
7.231,79.3478,0.013984
7.262,79.3163,0.013984
7.294,79.2857,0.013984
7.324,79.2548,0.013984
7.354,79.2253,0.010822
7.385,79.1942,0.010822
7.416,79.1637,0.010822
7.447,79.1325,0.010822
7.478,79.1012,0.010822
7.508,79.0710,0.010822
7.540,79.0390,0.010822
7.571,79.0083,0.010822
7.602,78.9769,0.010380
7.632,78.9475,0.010380
7.664,78.9150,0.010380
7.695,78.8847,0.010380
7.727,78.8517,0.010380
7.755,78.8238,0.010380
7.786,78.7932,0.010380
7.817,78.7622,0.010380
7.849,78.7297,0.010041
7.879,78.7001,0.010041
7.910,78.6692,0.010041
7.941,78.6376,0.010041
7.972,78.6072,0.010041
8.002,78.5764,0.010041
8.035,78.5443,0.010041
8.064,78.5149,0.010041
8.096,78.4834,0.010041
8.126,78.4524,0.009768
8.158,78.4219,0.009768
8.188,78.3901,0.009768
8.219,78.3601,0.009768
8.251,78.3291,0.009768
8.282,78.2969,0.009768
8.312,78.2677,0.009768
8.343,78.2361,0.009768
8.374,78.2053,0.009486
8.406,78.1732,0.009486
8.436,78.1431,0.009486
8.467,78.1119,0.009486
8.498,78.0823,0.009486
8.529,78.0502,0.009486
8.560,78.0194,0.009486
8.591,77.9877,0.009486
8.623,77.9567,0.009213
8.655,77.9236,0.009213
8.685,77.8943,0.009213
8.717,77.8618,0.009213
8.748,77.8317,0.009213
8.780,77.7997,0.009213
8.810,77.7691,0.009213
8.842,77.7373,0.009213
8.873,77.7060,0.008996
8.904,77.6753,0.008996
8.936,77.6429,0.008996
8.966,77.6132,0.008996
8.999,77.5796,0.008996
9.029,77.5502,0.008996
9.058,77.5205,0.008996
9.090,77.4892,0.008996
9.124,77.4547,0.008733
9.153,77.4268,0.008733
9.183,77.3957,0.008733
9.214,77.3663,0.008733
9.246,77.3361,0.008733
9.278,77.3072,0.008733
9.309,77.2789,0.008733
9.339,77.2527,0.008733
9.370,77.2268,0.008441
9.400,77.2012,0.008441
9.431,77.1761,0.008441
9.462,77.1515,0.008441
9.493,77.1288,0.008441
9.524,77.1056,0.008441
9.555,77.0839,0.008441
9.586,77.0618,0.008441
9.617,77.0417,0.008149
9.650,77.0207,0.008149
9.679,77.0023,0.008149
9.710,76.9837,0.008149
9.741,76.9665,0.008149
9.773,76.9489,0.008149
9.806,76.9312,0.008149
9.835,76.9169,0.008149
9.866,76.9022,0.007867
9.894,76.8896,0.007867
9.929,76.8743,0.007867
9.959,76.8620,0.007867
9.992,76.8493,0.007867
10.022,76.8390,0.007867
10.053,76.8286,0.007867
10.084,76.8188,0.007867
10.117,76.8092,0.007585
10.146,76.8014,0.007585
10.176,76.7943,0.007585
10.207,76.7876,0.007585
10.238,76.7814,0.007585
10.270,76.7761,0.007585
10.301,76.7715,0.007585
10.332,76.7675,0.007585
10.363,76.7646,0.007368
10.395,76.7621,0.007368
10.425,76.7605,0.007368
10.456,76.7595,0.007368
10.487,76.7592,0.007368
10.519,76.7592,0.007368
10.550,76.7592,0.007368
10.580,76.7592,0.007265
10.611,76.7592,0.007265
10.642,76.7592,0.007265
10.672,76.7595,0.007265
10.703,76.7605,0.007265
10.738,76.7624,0.007265
10.764,76.7644,0.007265
10.795,76.7677,0.007265
10.826,76.7714,0.007265
10.857,76.7762,0.007218
10.890,76.7815,0.007218
10.922,76.7881,0.007218
10.951,76.7943,0.007218
10.982,76.8020,0.007218
11.013,76.8102,0.007218
11.044,76.8191,0.007218
11.075,76.8288,0.007048
11.106,76.8393,0.007048
11.137,76.8504,0.007048
11.169,76.8624,0.007048
11.199,76.8749,0.007048
11.231,76.8883,0.007048
11.262,76.9027,0.007048
11.293,76.9176,0.007048
11.325,76.9332,0.006794
11.355,76.9493,0.006794
11.385,76.9660,0.006794
11.416,76.9840,0.006794
11.447,77.0019,0.006794
11.478,77.0213,0.006794
11.509,77.0411,0.006794
11.540,77.0617,0.006794
11.571,77.0828,0.006794
11.602,77.1050,0.006794
11.633,77.1272,0.006691
11.665,77.1520,0.006691
11.696,77.1762,0.006691
11.726,77.2010,0.006691
11.758,77.2265,0.006691
11.789,77.2541,0.006691
11.821,77.2812,0.006691
11.852,77.3098,0.006691
11.882,77.3373,0.006550
11.913,77.3671,0.006550
11.944,77.3967,0.006550
11.976,77.4287,0.006550
12.007,77.4586,0.006550
12.039,77.4912,0.006550
12.069,77.5213,0.006550
12.100,77.5526,0.006550
12.131,77.5826,0.006408
12.162,77.6145,0.006408
12.192,77.6446,0.006408
12.225,77.6771,0.006408
12.255,77.7071,0.006408
12.287,77.7393,0.006408
12.317,77.7698,0.006408
12.348,77.8003,0.006408
12.379,77.8304,0.006427
12.408,77.8602,0.006427
12.440,77.8924,0.006427
12.471,77.9237,0.006427
12.503,77.9549,0.006427
12.533,77.9856,0.006427
12.565,78.0168,0.006427
12.595,78.0471,0.006427
12.626,78.0776,0.006512
12.657,78.1096,0.006512
12.688,78.1397,0.006512
12.719,78.1715,0.006512
12.751,78.2029,0.006512
12.784,78.2356,0.006512
12.813,78.2656,0.006512
12.844,78.2960,0.006512
12.875,78.3279,0.006456
12.906,78.3586,0.006456
12.937,78.3885,0.006456
12.967,78.4200,0.006456
12.999,78.4508,0.006456
13.029,78.4809,0.006456
13.060,78.5127,0.006456
13.090,78.5424,0.006456
13.121,78.5737,0.006456
13.151,78.6038,0.006427
13.183,78.6350,0.006427
13.214,78.6662,0.006427
13.245,78.6970,0.006427
13.276,78.7283,0.006427
13.307,78.7586,0.006427
13.337,78.7892,0.006427
13.368,78.8201,0.006437
13.401,78.8529,0.006437
13.430,78.8823,0.006437
13.462,78.9140,0.006437
13.493,78.9450,0.006437
13.524,78.9769,0.006437
13.555,79.0075,0.006437
13.587,79.0391,0.006437
13.618,79.0700,0.006456
13.649,79.1014,0.006456
13.680,79.1322,0.006456
13.711,79.1633,0.006456
13.742,79.1945,0.006456
13.774,79.2260,0.006456
13.805,79.2568,0.006456
13.836,79.2881,0.006456
13.867,79.3188,0.006503
13.898,79.3506,0.006503
13.929,79.3808,0.006503
13.959,79.4122,0.006503
13.990,79.4423,0.006503
14.022,79.4743,0.006503
14.053,79.5051,0.006503
14.084,79.5370,0.006503
14.115,79.5674,0.006465
14.147,79.5999,0.006465
14.178,79.6304,0.006465
14.210,79.6620,0.006465
14.241,79.6926,0.006465
14.272,79.7241,0.006465
14.303,79.7555,0.006465
14.333,79.7850,0.006465
14.364,79.8164,0.006352
14.395,79.8480,0.006352
14.426,79.8785,0.006352
14.457,79.9094,0.006352
14.488,79.9398,0.006352
14.519,79.9716,0.006352
14.550,80.0019,0.006352
14.583,80.0353,0.006352
14.612,80.0647,0.006041
14.644,80.0958,0.006041
14.675,80.1263,0.006041
14.705,80.1572,0.006041
14.736,80.1880,0.006041
14.767,80.2189,0.006041
14.798,80.2502,0.006041
14.829,80.2807,0.006041
14.860,80.3121,0.005383
14.890,80.3425,0.005383
14.921,80.3736,0.005383
14.952,80.4045,0.005383
14.983,80.4354,0.005383
15.014,80.4665,0.005383
15.045,80.4980,0.005383
15.077,80.5287,0.005383
15.108,80.5610,0.004432
15.139,80.5909,0.004432
15.170,80.6226,0.004432
15.201,80.6532,0.004432
15.231,80.6832,0.004432
15.262,80.7149,0.004432
15.293,80.7452,0.004432
15.324,80.7763,0.004432
15.356,80.8076,0.003152
15.387,80.8388,0.003152
15.418,80.8699,0.003152
15.450,80.9017,0.003152
15.480,80.9320,0.003152
15.512,80.9639,0.003152
15.543,80.9951,0.003152
15.574,81.0264,0.003152
15.605,81.0573,0.001308
15.636,81.0885,0.001308
15.666,81.1190,0.001308
15.703,81.1541,0.001308
15.729,81.1781,0.001308
15.760,81.2073,0.001308
15.791,81.2349,0.001308
15.822,81.2626,0.001308
15.852,81.2879,0.001308
15.883,81.3137,-0.001355
15.914,81.3389,-0.001355
15.945,81.3638,-0.001355
15.976,81.3868,-0.001355
16.007,81.4100,-0.001355
16.038,81.4318,-0.001355
16.069,81.4539,-0.001355
16.098,81.4736,-0.004988
16.129,81.4934,-0.004988
16.161,81.5132,-0.004988
16.196,81.5340,-0.004988
16.223,81.5490,-0.004988
16.254,81.5665,-0.004988
16.285,81.5826,-0.004988
16.315,81.5981,-0.004988
16.345,81.6126,-0.009627
16.377,81.6273,-0.009627
16.407,81.6402,-0.009627
16.438,81.6533,-0.009627
16.470,81.6653,-0.009627
16.502,81.6774,-0.009627
16.531,81.6870,-0.009627
16.562,81.6970,-0.009627
16.593,81.7060,-0.014511
16.624,81.7146,-0.014511
16.655,81.7221,-0.014511
16.684,81.7290,-0.014511
16.715,81.7352,-0.014511
16.746,81.7406,-0.014511
16.777,81.7456,-0.014511
16.808,81.7496,-0.014511
16.839,81.7529,-0.017983
16.871,81.7558,-0.017983
16.897,81.7574,-0.017983
16.931,81.7587,-0.017983
16.963,81.7592,-0.017983
16.993,81.7592,-0.017983
17.023,81.7592,-0.017983
17.055,81.7592,-0.017983
17.084,81.7592,-0.018793
17.118,81.7592,-0.018793
17.146,81.7592,-0.018793
17.177,81.7592,-0.018793
17.210,81.7592,-0.018793
17.240,81.7592,-0.018793
17.272,81.7592,-0.018793
17.303,81.7592,-0.018793
17.334,81.7592,-0.017550
17.364,81.7592,-0.017550
17.395,81.7592,-0.017550
17.426,81.7592,-0.017550
17.458,81.7592,-0.017550
17.491,81.7592,-0.017550
17.521,81.7592,-0.017550
17.551,81.7592,-0.017550
17.582,81.7592,-0.016092
17.614,81.7592,-0.016092
17.645,81.7592,-0.016092
17.676,81.7592,-0.016092
17.707,81.7592,-0.016092
17.738,81.7592,-0.016092
17.772,81.7592,-0.016092
17.799,81.7592,-0.016092
17.830,81.7592,-0.016092
17.862,81.7592,-0.015066
17.895,81.7592,-0.015066
17.923,81.7592,-0.015066
17.954,81.7592,-0.015066
17.984,81.7592,-0.015066
18.015,81.7592,-0.015066
18.048,81.7592,-0.015066
18.077,81.7592,-0.015066
18.107,81.7592,-0.014323
18.139,81.7592,-0.014323
18.169,81.7592,-0.014323
18.199,81.7592,-0.014323
18.231,81.7592,-0.014323
18.262,81.7592,-0.014323
18.293,81.7592,-0.014323
18.324,81.7592,-0.014323
18.354,81.7592,-0.013786
18.385,81.7592,-0.013786
18.416,81.7592,-0.013786
18.447,81.7592,-0.013786
18.478,81.7592,-0.013786
18.509,81.7592,-0.013786
18.539,81.7592,-0.013786
18.571,81.7592,-0.013786
18.602,81.7592,-0.013278
18.632,81.7592,-0.013278
18.663,81.7592,-0.013278
18.695,81.7592,-0.013278
18.725,81.7592,-0.013278
18.756,81.7592,-0.013278
18.788,81.7592,-0.013278
18.820,81.7592,-0.013278
18.850,81.7592,-0.012817
18.881,81.7592,-0.012817
18.912,81.7592,-0.012817
18.944,81.7592,-0.012817
18.975,81.7592,-0.012817
19.006,81.7592,-0.012817
19.037,81.7592,-0.012817
19.068,81.7592,-0.012817
19.099,81.7592,-0.012817
19.130,81.7592,-0.012450
19.161,81.7592,-0.012450
19.192,81.7592,-0.012450
19.223,81.7592,-0.012450
19.254,81.7592,-0.012450
19.285,81.7592,-0.012450
19.316,81.7592,-0.012450
19.347,81.7592,-0.012111
19.378,81.7592,-0.012111
19.409,81.7592,-0.012111
19.440,81.7592,-0.012111
19.471,81.7592,-0.012111
19.501,81.7592,-0.012111
19.532,81.7592,-0.012111
19.564,81.7592,-0.012111
19.595,81.7592,-0.011848
19.626,81.7592,-0.011848
19.658,81.7592,-0.011848
19.690,81.7592,-0.011848
19.720,81.7592,-0.011848
19.751,81.7592,-0.011848
19.782,81.7592,-0.011848
19.813,81.7592,-0.011848
19.844,81.7592,-0.011565
19.875,81.7592,-0.011565
19.906,81.7592,-0.011565
19.936,81.7592,-0.011565
19.967,81.7592,-0.011565
20.002,81.7592,-0.011565
20.030,81.7592,-0.011565
20.062,81.7592,-0.011565
20.092,81.7592,-0.011565
20.123,81.7592,-0.011311
20.154,81.7592,-0.011311
20.185,81.7592,-0.011311
20.216,81.7592,-0.011311
20.248,81.7592,-0.011311
20.278,81.7592,-0.011311
20.309,81.7592,-0.011311
20.340,81.7592,-0.011151
20.372,81.7592,-0.011151
20.403,81.7592,-0.011151
20.433,81.7592,-0.011151
20.465,81.7592,-0.011151
20.497,81.7592,-0.011151
20.528,81.7592,-0.011151
20.559,81.7592,-0.011151
20.590,81.7592,-0.011151
20.621,81.7592,-0.010963
20.652,81.7592,-0.010963
20.683,81.7592,-0.010963
20.714,81.7592,-0.010963
20.746,81.7592,-0.010963
20.776,81.7592,-0.010963
20.808,81.7592,-0.010963
20.839,81.7592,-0.010756
20.870,81.7592,-0.010756
20.900,81.7592,-0.010756
20.932,81.7592,-0.010756
20.962,81.7592,-0.010756
20.993,81.7592,-0.010756
21.024,81.7592,-0.010756
21.055,81.7592,-0.010756
21.087,81.7592,-0.010549
21.117,81.7592,-0.010549
21.150,81.7592,-0.010549
21.180,81.7592,-0.010549
21.212,81.7592,-0.010549
21.243,81.7592,-0.010549
21.273,81.7591,-0.010549
21.304,81.7585,-0.010549
21.335,81.7570,-0.010549
21.366,81.7548,-0.010361
21.398,81.7518,-0.010361
21.429,81.7482,-0.010361
21.460,81.7438,-0.010361
21.491,81.7386,-0.010361
21.524,81.7326,-0.010361
21.554,81.7261,-0.010361
21.586,81.7185,-0.010361
21.616,81.7106,-0.009335
21.647,81.7018,-0.009335
21.678,81.6925,-0.009335
21.710,81.6821,-0.009335
21.741,81.6708,-0.009335
21.772,81.6593,-0.009335
21.804,81.6464,-0.009335
21.834,81.6337,-0.005082
21.865,81.6197,-0.005082
21.897,81.6051,-0.005082
21.927,81.5901,-0.005082
21.958,81.5741,-0.005082
21.989,81.5569,-0.005082
22.020,81.5398,-0.005082
22.051,81.5212,-0.005082
22.081,81.5029,-0.005082
22.113,81.4824,0.002080
22.145,81.4618,0.002080
22.175,81.4410,0.002080
22.205,81.4195,0.002080
22.237,81.3971,0.002080
22.270,81.3713,0.002080
22.298,81.3497,0.002080
22.331,81.3230,0.002080
22.359,81.3006,0.002080
22.392,81.2727,0.009250
22.423,81.2461,0.009250
22.453,81.2181,0.009250
22.485,81.1896,0.009250
22.516,81.1599,0.009250
22.548,81.1302,0.009250
22.579,81.0984,0.009250
22.610,81.0683,0.014464
22.641,81.0370,0.014464
22.671,81.0068,0.014464
22.702,80.9754,0.014464
22.733,80.9446,0.014464
22.764,80.9140,0.014464
22.795,80.8832,0.014464
22.826,80.8517,0.014464
22.857,80.8206,0.018021
22.890,80.7885,0.018021
22.921,80.7572,0.018021
22.951,80.7264,0.018021
22.983,80.6954,0.018021
23.014,80.6639,0.018021
23.045,80.6327,0.018021
23.076,80.6020,0.018021
23.108,80.5705,0.022227
23.139,80.5391,0.022227
23.170,80.5083,0.022227
23.200,80.4774,0.022227
23.231,80.4471,0.022227
23.267,80.4096,0.022227
23.307,80.3709,0.022227
23.338,80.3399,0.027619
23.371,80.3063,0.027619
23.399,80.2780,0.027619
23.431,80.2469,0.027619
23.463,80.2146,0.027619
23.494,80.1841,0.027619
23.525,80.1524,0.027619
23.556,80.1224,0.027619
23.588,80.0904,0.032221
23.618,80.0600,0.032221
23.649,80.0290,0.032221
23.680,79.9986,0.032221
23.711,79.9663,0.032221
23.745,79.9331,0.032221
23.773,79.9048,0.032221
23.804,79.8742,0.032221
23.836,79.8424,0.032221
23.867,79.8114,0.033821
23.897,79.7811,0.033821
23.929,79.7494,0.033821
23.960,79.7184,0.033821
23.991,79.6864,0.033821
24.023,79.6553,0.033821
24.054,79.6243,0.033821
24.085,79.5933,0.022895
24.115,79.5633,0.022895
24.146,79.5319,0.022895
24.176,79.5020,0.022895
24.207,79.4705,0.022895
24.239,79.4387,0.022895
24.270,79.4084,0.022895
24.301,79.3775,0.022895
24.332,79.3462,0.011462
24.362,79.3157,0.011462
24.393,79.2857,0.011462
24.424,79.2541,0.011462
24.455,79.2227,0.011462
24.485,79.1922,0.011462
24.516,79.1624,0.011462
24.547,79.1307,0.011462
24.578,79.1003,0.011462
24.610,79.0679,0.010558
24.641,79.0367,0.010558
24.673,79.0054,0.010558
24.703,78.9745,0.010558
24.735,78.9427,0.010558
24.767,78.9105,0.010558
24.797,78.8806,0.010558
24.828,78.8501,0.010558
24.859,78.8185,0.010144
24.890,78.7880,0.010144
24.921,78.7566,0.010144
24.952,78.7264,0.010144
24.982,78.6960,0.010144
25.013,78.6647,0.010144
25.043,78.6340,0.010144
25.075,78.6027,0.010144
25.106,78.5715,0.009815
25.137,78.5413,0.009815
25.168,78.5104,0.009815
25.198,78.4800,0.009815
25.229,78.4495,0.009815
25.260,78.4180,0.009815
25.290,78.3880,0.009815
25.322,78.3563,0.009815
25.353,78.3254,0.009599
25.387,78.2908,0.009599
25.415,78.2636,0.009599
25.445,78.2324,0.009599
25.476,78.2027,0.009599
25.506,78.1718,0.009599
25.537,78.1413,0.009599
25.568,78.1101,0.009599
25.598,78.0802,0.009316
25.629,78.0491,0.009316
25.660,78.0179,0.009316
25.691,77.9861,0.009316
25.721,77.9560,0.009316
25.752,77.9265,0.009316
25.783,77.8952,0.009316
25.814,77.8638,0.009316
25.846,77.8324,0.009081
25.877,77.8005,0.009081
25.908,77.7704,0.009081
25.939,77.7385,0.009081
25.970,77.7085,0.009081
26.001,77.6777,0.009081
26.031,77.6472,0.009081
26.062,77.6167,0.009081
26.093,77.5855,0.008874
26.124,77.5537,0.008874
26.155,77.5231,0.008874
26.187,77.4915,0.008874
26.217,77.4607,0.008874
26.248,77.4297,0.008874
26.279,77.3993,0.008874
26.309,77.3687,0.008874
26.340,77.3377,0.008611
26.371,77.3088,0.008611
26.402,77.2794,0.008611
26.436,77.2479,0.008611
26.464,77.2233,0.008611
26.495,77.1957,0.008611
26.527,77.1692,0.008611
26.558,77.1434,0.008611
26.589,77.1194,0.008611
26.619,77.0951,0.008291
26.651,77.0721,0.008291
26.682,77.0487,0.008291
26.713,77.0270,0.008291
26.744,77.0057,0.008291
26.775,76.9854,0.008291
26.807,76.9653,0.008291
26.838,76.9466,0.007924
26.869,76.9279,0.007924
26.899,76.9113,0.007924
26.929,76.8948,0.007924
26.960,76.8788,0.007924
26.991,76.8635,0.007924
27.022,76.8485,0.007924
27.053,76.8349,0.007924
27.084,76.8217,0.007688
27.115,76.8096,0.007688
27.145,76.7982,0.007688
27.175,76.7875,0.007688
27.206,76.7771,0.007688
27.237,76.7675,0.007688
27.268,76.7587,0.007688
27.298,76.7508,0.007688
27.330,76.7432,0.007688
27.361,76.7364,0.007462
27.395,76.7301,0.007462
27.423,76.7254,0.007462
27.455,76.7208,0.007462
27.486,76.7171,0.007462
27.519,76.7138,0.007462
27.548,76.7118,0.007462
27.579,76.7102,0.007462
27.609,76.7094,0.007462
27.641,76.7092,0.007265
27.672,76.7092,0.007265
27.703,76.7092,0.007265
27.734,76.7092,0.007265
27.765,76.7092,0.007265
27.796,76.7092,0.007265
27.826,76.7094,0.007265
27.857,76.7101,0.007180
27.889,76.7117,0.007180
27.920,76.7141,0.007180
27.952,76.7172,0.007180
27.982,76.7208,0.007180
28.013,76.7252,0.007180
28.044,76.7304,0.007180
28.075,76.7363,0.007180
28.107,76.7432,0.007011
28.138,76.7505,0.007011
28.169,76.7588,0.007011
28.200,76.7674,0.007011
28.230,76.7770,0.007011
28.262,76.7875,0.007011
28.292,76.7980,0.007011
28.323,76.8098,0.007011
28.354,76.8225,0.006832
28.384,76.8354,0.006832
28.416,76.8493,0.006832
28.446,76.8634,0.006832
28.477,76.8787,0.006832
28.508,76.8947,0.006832
28.539,76.9119,0.006832
28.570,76.9290,0.006832
28.601,76.9476,0.006832
28.631,76.9661,0.006738
28.664,76.9872,0.006738
28.693,77.0059,0.006738
28.724,77.0272,0.006738
28.754,77.0484,0.006738
28.786,77.0720,0.006738
28.817,77.0952,0.006738
28.848,77.1188,0.006597
28.881,77.1456,0.006597
28.910,77.1694,0.006597
28.942,77.1964,0.006597
28.973,77.2228,0.006597
29.004,77.2506,0.006597
29.034,77.2784,0.006597
29.065,77.3075,0.006597
29.096,77.3374,0.006484
29.128,77.3689,0.006484
29.159,77.3996,0.006484
29.190,77.4308,0.006484
29.221,77.4616,0.006484
29.252,77.4933,0.006484
29.283,77.5238,0.006484
29.315,77.5566,0.006484
29.346,77.5870,0.006418
29.378,77.6187,0.006418
29.408,77.6487,0.006418
29.438,77.6801,0.006418
29.472,77.7137,0.006418
29.501,77.7420,0.006418
29.532,77.7736,0.006418
29.564,77.8046,0.006418
29.595,77.8357,0.006418
29.626,77.8677,0.006427
29.657,77.8986,0.006427
29.688,77.9296,0.006427
29.719,77.9596,0.006427
29.749,77.9904,0.006427
29.781,78.0224,0.006427
29.811,78.0530,0.006427
29.843,78.0837,0.006427
29.874,78.1147,0.006465
29.908,78.1493,0.006465
29.935,78.1762,0.006465
29.966,78.2071,0.006465
29.999,78.2404,0.006465
30.029,78.2707,0.006465
30.060,78.3016,0.006465
30.092,78.3331,0.006465
30.123,78.3645,0.006418
30.154,78.3951,0.006418
30.185,78.4263,0.006418
30.216,78.4566,0.006418
30.246,78.4871,0.006418
30.278,78.5185,0.006418
30.308,78.5496,0.006418
30.339,78.5804,0.006418
30.371,78.6123,0.006418
30.403,78.6434,0.006380
30.433,78.6738,0.006380
30.464,78.7054,0.006380
30.494,78.7350,0.006380
30.525,78.7663,0.006380
30.556,78.7972,0.006380
30.587,78.8289,0.006380
30.619,78.8597,0.006399
30.650,78.8908,0.006399
30.680,78.9213,0.006399
30.712,78.9533,0.006399
30.742,78.9836,0.006399
30.773,79.0140,0.006399
30.803,79.0450,0.006399
30.834,79.0756,0.006399
30.865,79.1066,0.006399
30.896,79.1376,0.006399
30.927,79.1685,0.006399
30.958,79.1988,0.006399
30.988,79.2298,0.006399
31.020,79.2604,0.006399
31.051,79.2925,0.006399
31.083,79.3239,0.006399
31.116,79.3576,0.006399
31.145,79.3863,0.006371
31.177,79.4182,0.006371
31.207,79.4488,0.006371
31.238,79.4792,0.006371
31.269,79.5094,0.006371
31.300,79.5409,0.006371
31.331,79.5716,0.006371
31.362,79.6035,0.006371
31.393,79.6336,0.006371
31.425,79.6665,0.006371
31.456,79.6967,0.006371
31.487,79.7286,0.006371
31.518,79.7589,0.006371
31.550,79.7913,0.006371
31.581,79.8221,0.006371
31.616,79.8578,0.006371
31.643,79.8837,0.006277
31.674,79.9151,0.006277
31.705,79.9456,0.006277
31.736,79.9771,0.006277
31.765,80.0065,0.006277
31.796,80.0378,0.006277
31.829,80.0713,0.006277
31.858,80.0995,0.005919
31.890,80.1306,0.005919
31.920,80.1612,0.005919
31.952,80.1929,0.005919
31.983,80.2241,0.005919
32.014,80.2554,0.005919
32.045,80.2858,0.005919
32.076,80.3163,0.005919
32.106,80.3470,0.005242
32.138,80.3796,0.005242
32.169,80.4097,0.005242
32.201,80.4420,0.005242
32.232,80.4726,0.005242
32.262,80.5029,0.005242
32.293,80.5351,0.005242
32.325,80.5664,0.005242
32.356,80.5970,0.004178
32.387,80.6283,0.004178
32.417,80.6577,0.004178
32.448,80.6896,0.004178
32.479,80.7195,0.004178
32.510,80.7509,0.004178
32.540,80.7806,0.004178
32.571,80.8124,0.004178
32.602,80.8423,0.002767
32.632,80.8736,0.002767
32.662,80.9028,0.002767
32.693,80.9347,0.002767
32.723,80.9647,0.002767
32.754,80.9965,0.002767
32.785,81.0260,0.002767
32.816,81.0569,0.002767
32.847,81.0878,0.000696
32.880,81.1195,0.000696
32.910,81.1474,0.000696
32.941,81.1754,0.000696
32.972,81.2027,0.000696
33.003,81.2295,0.000696
33.035,81.2559,0.000696
33.067,81.2825,0.000696
33.097,81.3059,0.000696
33.128,81.3301,-0.002371
33.158,81.3526,-0.002371
33.189,81.3749,-0.002371
33.220,81.3963,-0.002371
33.252,81.4183,-0.002371
33.282,81.4375,-0.002371
33.313,81.4572,-0.002371
33.344,81.4761,-0.006380
33.375,81.4942,-0.006380
33.407,81.5123,-0.006380
33.438,81.5288,-0.006380
33.469,81.5443,-0.006380
33.500,81.5594,-0.006380
33.531,81.5738,-0.006380
33.562,81.5877,-0.006380
33.594,81.6012,-0.006380
33.625,81.6131,-0.011245
33.657,81.6248,-0.011245
33.687,81.6352,-0.011245
33.718,81.6455,-0.011245
33.750,81.6549,-0.011245
33.782,81.6637,-0.011245
33.812,81.6713,-0.011245
33.843,81.6785,-0.011245
33.874,81.6846,-0.015885
33.905,81.6904,-0.015885
33.936,81.6952,-0.015885
33.967,81.6993,-0.015885
33.997,81.7027,-0.015885
34.029,81.7055,-0.015885
34.060,81.7075,-0.015885
34.092,81.7087,-0.018586
34.122,81.7092,-0.018586
34.152,81.7092,-0.018586
34.184,81.7092,-0.018586
34.215,81.7092,-0.018586
34.247,81.7092,-0.018586
34.277,81.7092,-0.018586
34.308,81.7092,-0.018586
34.340,81.7092,-0.018435
34.370,81.7092,-0.018435
34.400,81.7092,-0.018435
34.432,81.7092,-0.018435
34.462,81.7092,-0.018435
34.493,81.7092,-0.018435
34.524,81.7092,-0.018435
34.555,81.7092,-0.018435
34.586,81.7092,-0.016863
34.617,81.7092,-0.016863
34.647,81.7092,-0.016863
34.679,81.7092,-0.016863
34.709,81.7092,-0.016863
34.739,81.7092,-0.016863
34.771,81.7092,-0.016863
34.802,81.7092,-0.016863
34.833,81.7092,-0.015621
34.864,81.7092,-0.015621
34.895,81.7092,-0.015621
34.927,81.7092,-0.015621
34.957,81.7092,-0.015621
34.989,81.7092,-0.015621
35.020,81.7092,-0.015621
35.050,81.7092,-0.015621
35.081,81.7092,-0.015621
35.111,81.7092,-0.014746
35.142,81.7092,-0.014746
35.174,81.7092,-0.014746
35.207,81.7092,-0.014746
35.236,81.7092,-0.014746
35.267,81.7092,-0.014746
35.298,81.7092,-0.014746
35.329,81.7092,-0.014746
35.360,81.7092,-0.014040
35.391,81.7092,-0.014040
35.422,81.7092,-0.014040
35.454,81.7092,-0.014040
35.487,81.7092,-0.014040
35.517,81.7092,-0.014040
35.549,81.7092,-0.014040
35.580,81.7092,-0.013457
35.611,81.7092,-0.013457
35.642,81.7092,-0.013457
35.674,81.7092,-0.013457
35.705,81.7092,-0.013457
35.736,81.7092,-0.013457
35.767,81.7092,-0.013457
35.798,81.7092,-0.013457
35.828,81.7092,-0.013457
35.860,81.7092,-0.012968
35.891,81.7092,-0.012968
35.922,81.7092,-0.012968
35.954,81.7092,-0.012968
35.984,81.7092,-0.012968
36.015,81.7092,-0.012968
36.045,81.7092,-0.012968
36.076,81.7092,-0.012968
36.108,81.7092,-0.012968
36.140,81.7092,-0.012582
36.170,81.7092,-0.012582
36.201,81.7092,-0.012582
36.232,81.7092,-0.012582
36.263,81.7092,-0.012582
36.295,81.7092,-0.012582
36.326,81.7092,-0.012582
36.356,81.7092,-0.012224
36.387,81.7092,-0.012224
36.419,81.7092,-0.012224
36.450,81.7092,-0.012224
36.481,81.7092,-0.012224
36.512,81.7092,-0.012224
36.543,81.7092,-0.012224
36.573,81.7092,-0.012224
36.604,81.7092,-0.011895
36.636,81.7092,-0.011895
36.667,81.7092,-0.011895
36.698,81.7092,-0.011895
36.729,81.7092,-0.011895
36.761,81.7092,-0.011895
36.791,81.7092,-0.011895
36.822,81.7092,-0.011895
36.853,81.7092,-0.011612
36.884,81.7092,-0.011612
36.916,81.7092,-0.011612
36.947,81.7092,-0.011612
36.978,81.7092,-0.011612
37.009,81.7092,-0.011612
37.040,81.7092,-0.011612
37.071,81.7092,-0.011612
37.102,81.7092,-0.011612
37.133,81.7092,-0.011368
37.164,81.7092,-0.011368
37.195,81.7092,-0.011368
37.226,81.7092,-0.011368
37.257,81.7092,-0.011368
37.288,81.7092,-0.011368
37.321,81.7092,-0.011368
37.351,81.7092,-0.011368
37.383,81.7092,-0.011189
37.413,81.7092,-0.011189
37.444,81.7092,-0.011189
37.475,81.7092,-0.011189
37.506,81.7092,-0.011189
37.536,81.7092,-0.011189
37.566,81.7092,-0.011189
37.598,81.7092,-0.011189
37.627,81.7092,-0.011010
37.659,81.7092,-0.011010
37.690,81.7092,-0.011010
37.720,81.7092,-0.011010
37.751,81.7092,-0.011010
37.782,81.7092,-0.011010
37.812,81.7092,-0.011010
37.843,81.7092,-0.011010
37.874,81.7092,-0.010794
37.905,81.7092,-0.010794
37.936,81.7092,-0.010794
37.968,81.7092,-0.010794
37.999,81.7092,-0.010794
38.030,81.7092,-0.010794
38.062,81.7092,-0.010794
38.092,81.7092,-0.010794
38.124,81.7092,-0.010568
38.156,81.7092,-0.010568
38.186,81.7092,-0.010568
38.217,81.7092,-0.010568
38.248,81.7092,-0.010568
38.279,81.7092,-0.010568
38.310,81.7092,-0.010568
38.341,81.7092,-0.010568
38.372,81.7092,-0.010380
38.403,81.7090,-0.010380
38.434,81.7081,-0.010380
38.464,81.7065,-0.010380
38.496,81.7040,-0.010380
38.527,81.7009,-0.010380
38.559,81.6970,-0.010380
38.591,81.6921,-0.010380
38.622,81.6869,-0.010135
38.653,81.6808,-0.010135
38.683,81.6743,-0.010135
38.714,81.6668,-0.010135
38.745,81.6586,-0.010135
38.776,81.6495,-0.010135
38.807,81.6397,-0.010135
38.837,81.6296,-0.010135
38.869,81.6185,-0.007622
38.900,81.6066,-0.007622
38.931,81.5940,-0.007622
38.962,81.5808,-0.007622
38.993,81.5667,-0.007622
39.024,81.5517,-0.007622
39.055,81.5366,-0.007622
39.085,81.5205,-0.007622
39.116,81.5036,-0.001515
39.147,81.4858,-0.001515
39.179,81.4672,-0.001515
39.211,81.4471,-0.001515
39.241,81.4278,-0.001515
39.273,81.4064,-0.001515
39.303,81.3860,-0.001515
39.335,81.3635,-0.001515
39.365,81.3413,0.005938
39.397,81.3171,0.005938
39.428,81.2929,0.005938
39.458,81.2678,0.005938
39.489,81.2419,0.005938
39.520,81.2158,0.005938
39.552,81.1886,0.005938
39.583,81.1606,0.005938
39.613,81.1323,0.012271
39.645,81.1029,0.012271
39.676,81.0724,0.012271
39.707,81.0414,0.012271
39.738,81.0110,0.012271
39.769,80.9797,0.012271
39.801,80.9481,0.012271
39.832,80.9169,0.016487
39.864,80.8850,0.016487
39.894,80.8545,0.016487
39.925,80.8235,0.016487
39.957,80.7922,0.016487
39.988,80.7613,0.016487
40.019,80.7296,0.016487
40.050,80.6980,0.016487
40.079,80.6692,0.016487
40.112,80.6366,0.020317
40.143,80.6054,0.020317
40.173,80.5757,0.020317
40.205,80.5444,0.020317
40.237,80.5123,0.020317
40.267,80.4815,0.020317
40.299,80.4494,0.020317
40.329,80.4198,0.020317
40.360,80.3888,0.025474
40.394,80.3549,0.025474
40.421,80.3276,0.025474
40.453,80.2965,0.025474
40.483,80.2652,0.025474
40.514,80.2346,0.025474
40.546,80.2035,0.025474
40.577,80.1721,0.025474
40.605,80.1437,0.030951
40.640,80.1090,0.030951
40.670,80.0790,0.030951
40.700,80.0486,0.030951
40.731,80.0182,0.030951
40.761,79.9873,0.030951
40.792,79.9558,0.030951
40.823,79.9260,0.030951
40.854,79.8942,0.034470
40.886,79.8628,0.034470
40.917,79.8317,0.034470
40.947,79.8013,0.034470
40.979,79.7693,0.034470
41.011,79.7384,0.034470
41.042,79.7063,0.034470
41.073,79.6764,0.034470
41.105,79.6436,0.028975
41.137,79.6125,0.028975
41.166,79.5826,0.028975
41.197,79.5519,0.028975
41.228,79.5211,0.028975
41.258,79.4903,0.028975
41.289,79.4603,0.028975
41.319,79.4294,0.028975
41.350,79.3984,0.016863
41.381,79.3682,0.016863
41.412,79.3369,0.016863
41.444,79.3049,0.016863
41.475,79.2734,0.016863
41.506,79.2430,0.016863
41.537,79.2118,0.016863
41.567,79.1819,0.016863
41.599,79.1503,0.010860
41.629,79.1188,0.010860
41.660,79.0883,0.010860
41.691,79.0584,0.010860
41.722,79.0264,0.010860
41.752,78.9970,0.010860
41.783,78.9655,0.010860
41.814,78.9348,0.010860
41.846,78.9022,0.010333
41.877,78.8716,0.010333
41.909,78.8403,0.010333
41.940,78.8096,0.010333
41.970,78.7784,0.010333
42.002,78.7468,0.010333
42.032,78.7164,0.010333
42.063,78.6860,0.010333
42.094,78.6548,0.010333
42.125,78.6240,0.009956
42.156,78.5924,0.009956
42.188,78.5614,0.009956
42.219,78.5302,0.009956
42.249,78.5006,0.009956
42.280,78.4686,0.009956
42.311,78.4384,0.009956
42.342,78.4070,0.009956
42.373,78.3757,0.009674
42.403,78.3459,0.009674
42.434,78.3147,0.009674
42.465,78.2837,0.009674
42.497,78.2522,0.009674
42.527,78.2220,0.009674
42.559,78.1901,0.009674
42.590,78.1581,0.009674
42.621,78.1273,0.009457
42.651,78.0974,0.009457
42.682,78.0670,0.009457
42.713,78.0353,0.009457
42.744,78.0047,0.009457
42.774,77.9742,0.009457
42.806,77.9431,0.009457
42.837,77.9114,0.009457
42.868,77.8814,0.009147
42.904,77.8453,0.009147
42.930,77.8195,0.009147
42.961,77.7884,0.009147
42.991,77.7577,0.009147
43.022,77.7267,0.009147
43.053,77.6960,0.009147
43.083,77.6661,0.009147
43.115,77.6345,0.008865
43.145,77.6038,0.008865
43.177,77.5716,0.008865
43.208,77.5413,0.008865
43.239,77.5098,0.008865
43.270,77.4784,0.008865
43.301,77.4483,0.008865
43.331,77.4178,0.008865
43.363,77.3865,0.008658
43.393,77.3559,0.008658
43.423,77.3261,0.008658
43.454,77.2955,0.008658
43.485,77.2652,0.008658
43.517,77.2350,0.008658
43.548,77.2067,0.008658
43.579,77.1782,0.008658
43.610,77.1516,0.008366
43.640,77.1250,0.008366
43.672,77.0993,0.008366
43.703,77.0745,0.008366
43.734,77.0496,0.008366
43.761,77.0295,0.008366
43.797,77.0031,0.008366
43.829,76.9802,0.008366
43.860,76.9593,0.008366
43.891,76.9383,0.007980
43.922,76.9190,0.007980
43.951,76.9009,0.007980
43.981,76.8832,0.007980
44.013,76.8653,0.007980
44.043,76.8488,0.007980
44.073,76.8325,0.007980
44.104,76.8170,0.007980
44.136,76.8020,0.007754
44.167,76.7879,0.007754
44.199,76.7744,0.007754
44.230,76.7615,0.007754
44.262,76.7494,0.007754
44.292,76.7388,0.007754
44.322,76.7287,0.007754
44.353,76.7188,0.007754
44.383,76.7101,0.007575
44.415,76.7017,0.007575
44.446,76.6944,0.007575
44.477,76.6873,0.007575
44.508,76.6815,0.007575
44.539,76.6759,0.007575
44.571,76.6714,0.007575
44.602,76.6674,0.007274
44.633,76.6643,0.007274
44.664,76.6619,0.007274
44.694,76.6603,0.007274
44.726,76.6594,0.007274
44.757,76.6591,0.007274
44.788,76.6591,0.007274
44.819,76.6591,0.007274
44.850,76.6591,0.007142
44.881,76.6591,0.007142
44.913,76.6591,0.007142
44.944,76.6591,0.007142
44.973,76.6595,0.007142
45.005,76.6606,0.007142
45.036,76.6626,0.007142
45.068,76.6652,0.007142
45.099,76.6687,0.007105
45.131,76.6728,0.007105
45.163,76.6779,0.007105
45.194,76.6836,0.007105
45.225,76.6896,0.007105
45.255,76.6965,0.007105
45.286,76.7044,0.007105
45.320,76.7137,0.007105
45.348,76.7220,0.007105
45.383,76.7331,0.006907
45.411,76.7427,0.006907
45.442,76.7545,0.006907
45.474,76.7665,0.006907
45.505,76.7798,0.006907
45.536,76.7931,0.006907
45.567,76.8076,0.006907
45.598,76.8223,0.006907
45.629,76.8387,0.006681
45.661,76.8552,0.006681
45.693,76.8741,0.006681
45.723,76.8907,0.006681
45.754,76.9097,0.006681
45.787,76.9296,0.006681
45.819,76.9512,0.006681
45.847,76.9699,0.006681
45.878,76.9911,0.006550
45.909,77.0138,0.006550
45.942,77.0389,0.006550
45.971,77.0612,0.006550
46.002,77.0849,0.006550
46.033,77.1103,0.006550
46.066,77.1390,0.006550
46.095,77.1630,0.006550
46.125,77.1900,0.006503
46.157,77.2184,0.006503
46.189,77.2500,0.006503
46.218,77.2762,0.006503
46.251,77.3089,0.006503
46.281,77.3383,0.006503
46.312,77.3694,0.006503
46.343,77.4005,0.006503
46.375,77.4330,0.006427
46.405,77.4632,0.006427
46.436,77.4937,0.006427
46.468,77.5257,0.006427
46.499,77.5571,0.006427
46.529,77.5872,0.006427
46.562,77.6197,0.006427
46.593,77.6503,0.006427
46.623,77.6806,0.006343
46.654,77.7120,0.006343
46.686,77.7438,0.006343
46.716,77.7744,0.006343
46.747,77.8040,0.006343
46.779,77.8369,0.006343
46.809,77.8668,0.006343
46.839,77.8970,0.006343
46.870,77.9273,0.006343
46.900,77.9583,0.006343
46.932,77.9893,0.006343
46.963,78.0204,0.006343
46.994,78.0512,0.006343
47.024,78.0826,0.006343
47.056,78.1134,0.006343
47.088,78.1453,0.006343
47.118,78.1753,0.006371
47.148,78.2062,0.006371
47.180,78.2378,0.006371
47.212,78.2692,0.006371
47.243,78.3013,0.006371
47.269,78.3268,0.006371
47.304,78.3626,0.006371
47.336,78.3940,0.006371
47.368,78.4258,0.006371
47.398,78.4557,0.006371
47.429,78.4877,0.006371
47.460,78.5182,0.006371
47.491,78.5491,0.006371
47.522,78.5799,0.006371
47.553,78.6106,0.006371
47.583,78.6407,0.006371
47.614,78.6720,0.006361
47.645,78.7035,0.006361
47.678,78.7350,0.006361
47.707,78.7649,0.006361
47.738,78.7961,0.006361
47.770,78.8276,0.006361
47.800,78.8576,0.006361
47.832,78.8893,0.006361
47.863,78.9211,0.006361
47.894,78.9517,0.006380
47.925,78.9828,0.006380
47.956,79.0137,0.006380
47.988,79.0458,0.006380
48.019,79.0767,0.006380
48.050,79.1074,0.006380
48.080,79.1375,0.006380
48.111,79.1681,0.006380
48.141,79.1991,0.006380
48.174,79.2313,0.006380
48.205,79.2628,0.006380
48.235,79.2934,0.006380
48.267,79.3242,0.006380
48.298,79.3557,0.006380
48.329,79.3867,0.006380
48.360,79.4187,0.006352
48.392,79.4495,0.006352
48.423,79.4810,0.006352
48.453,79.5108,0.006352
48.485,79.5428,0.006352
48.515,79.5726,0.006352
48.546,79.6044,0.006352
48.578,79.6354,0.006352
48.609,79.6670,0.006352
48.640,79.6978,0.006352
48.669,79.7267,0.006352
48.702,79.7598,0.006352
48.733,79.7916,0.006352
48.764,79.8220,0.006352
48.796,79.8536,0.006352
48.828,79.8851,0.006352
48.858,79.9159,0.006211
48.889,79.9471,0.006211
48.920,79.9770,0.006211
48.951,80.0084,0.006211
48.982,80.0394,0.006211
49.013,80.0700,0.006211
49.044,80.1010,0.006211
49.075,80.1327,0.006211
49.106,80.1629,0.006211
49.136,80.1934,0.005712
49.168,80.2254,0.005712
49.199,80.2571,0.005712
49.230,80.2877,0.005712
49.262,80.3192,0.005712
49.293,80.3512,0.005712
49.324,80.3813,0.005712
49.354,80.4117,0.004893
49.385,80.4425,0.004893
49.416,80.4738,0.004893
49.447,80.5050,0.004893
49.478,80.5356,0.004893
49.509,80.5672,0.004893
49.540,80.5981,0.004893
49.572,80.6299,0.004893
49.603,80.6608,0.004893
49.634,80.6918,0.003727
49.665,80.7230,0.003727
49.697,80.7550,0.003727
49.728,80.7861,0.003727
49.760,80.8181,0.003727
49.790,80.8479,0.003727
49.822,80.8794,0.003727
49.854,80.9109,0.003727
49.884,80.9419,0.002089
49.915,80.9728,0.002089
49.946,81.0042,0.002089
49.977,81.0341,0.002089
50.008,81.0635,0.002089
50.039,81.0930,0.002089
50.071,81.1217,0.002089
50.102,81.1498,-0.000442
50.133,81.1766,-0.000442
50.164,81.2024,-0.000442
50.194,81.2279,-0.000442
50.225,81.2518,-0.000442
50.256,81.2759,-0.000442
50.287,81.2987,-0.000442
50.318,81.3222,-0.000442
50.348,81.3431,-0.003971
50.381,81.3657,-0.003971
50.411,81.3847,-0.003971
50.442,81.4046,-0.003971
50.473,81.4235,-0.003971
50.505,81.4425,-0.003971
50.535,81.4591,-0.003971
50.567,81.4762,-0.003971
50.599,81.4925,-0.008479
50.630,81.5077,-0.008479
50.661,81.5227,-0.008479
50.692,81.5361,-0.008479
50.723,81.5489,-0.008479
50.754,81.5613,-0.008479
50.785,81.5729,-0.008479
50.817,81.5841,-0.008479
50.848,81.5942,-0.013532
50.879,81.6037,-0.013532
50.910,81.6121,-0.013532
50.941,81.6201,-0.013532
50.973,81.6274,-0.013532
51.003,81.6337,-0.013532
51.033,81.6392,-0.013532
51.064,81.6444,-0.013532
51.095,81.6486,-0.017503
51.125,81.6521,-0.017503
51.158,81.6550,-0.017503
51.189,81.6572,-0.017503
51.220,81.6585,-0.017503
51.251,81.6591,-0.017503
51.282,81.6591,-0.017503
51.313,81.6591,-0.017503
51.344,81.6591,-0.017503
51.374,81.6591,-0.018905
51.406,81.6591,-0.018905
51.436,81.6591,-0.018905
51.467,81.6591,-0.018905
51.500,81.6591,-0.018905
51.530,81.6591,-0.018905
51.561,81.6591,-0.018905
51.593,81.6591,-0.017870
51.624,81.6591,-0.017870
51.655,81.6591,-0.017870
51.685,81.6591,-0.017870
51.716,81.6591,-0.017870
51.748,81.6591,-0.017870
51.778,81.6591,-0.017870
51.808,81.6591,-0.017870
51.839,81.6591,-0.016299
51.870,81.6591,-0.016299
51.901,81.6591,-0.016299
51.933,81.6591,-0.016299
51.962,81.6591,-0.016299
51.994,81.6591,-0.016299
52.024,81.6591,-0.016299
52.055,81.6591,-0.016299
52.086,81.6591,-0.015264
52.118,81.6591,-0.015264
52.149,81.6591,-0.015264
52.179,81.6591,-0.015264
52.210,81.6591,-0.015264
52.240,81.6591,-0.015264
52.271,81.6591,-0.015264
52.302,81.6591,-0.015264
52.333,81.6591,-0.014501
52.365,81.6591,-0.014501
52.396,81.6591,-0.014501
52.426,81.6591,-0.014501
52.457,81.6591,-0.014501
52.489,81.6591,-0.014501
52.522,81.6591,-0.014501
52.551,81.6591,-0.014501
52.583,81.6591,-0.014501
52.613,81.6591,-0.013927
52.644,81.6591,-0.013927
52.675,81.6591,-0.013927
52.706,81.6591,-0.013927
52.736,81.6591,-0.013927
52.773,81.6591,-0.013927
52.813,81.6591,-0.013927
52.845,81.6591,-0.013419
52.876,81.6591,-0.013419
52.907,81.6591,-0.013419
52.938,81.6591,-0.013419
52.969,81.6591,-0.013419
53.000,81.6591,-0.013419
53.031,81.6591,-0.013419
53.062,81.6591,-0.013419
53.093,81.6591,-0.012949
53.124,81.6591,-0.012949
53.155,81.6591,-0.012949
53.185,81.6591,-0.012949
53.216,81.6591,-0.012949
53.248,81.6591,-0.012949
53.278,81.6591,-0.012949
53.315,81.6591,-0.012949
53.356,81.6591,-0.012535
53.388,81.6591,-0.012535
53.419,81.6591,-0.012535
53.452,81.6591,-0.012535
53.481,81.6591,-0.012535
53.512,81.6591,-0.012535
53.544,81.6591,-0.012535
53.573,81.6591,-0.012535
53.604,81.6591,-0.012186
53.635,81.6591,-0.012186
53.667,81.6591,-0.012186
53.698,81.6591,-0.012186
53.729,81.6591,-0.012186
53.760,81.6591,-0.012186
53.791,81.6591,-0.012186
53.823,81.6591,-0.011895
53.854,81.6591,-0.011895
53.886,81.6591,-0.011895
53.917,81.6591,-0.011895
53.949,81.6591,-0.011895
53.980,81.6591,-0.011895
54.010,81.6591,-0.011895
54.042,81.6591,-0.011895
54.072,81.6591,-0.011895
54.103,81.6591,-0.011631
54.134,81.6591,-0.011631
54.166,81.6591,-0.011631
54.196,81.6591,-0.011631
54.229,81.6591,-0.011631
54.258,81.6591,-0.011631
54.289,81.6591,-0.011631
54.319,81.6591,-0.011631
54.350,81.6591,-0.011405
54.381,81.6591,-0.011405
54.412,81.6591,-0.011405
54.443,81.6591,-0.011405
54.474,81.6591,-0.011405
54.505,81.6591,-0.011405
54.536,81.6591,-0.011405
54.567,81.6591,-0.011405
54.598,81.6591,-0.011161
54.629,81.6591,-0.011161
54.660,81.6591,-0.011161
54.690,81.6591,-0.011161
54.721,81.6591,-0.011161
54.752,81.6591,-0.011161
54.784,81.6591,-0.011161
54.814,81.6591,-0.011161
54.846,81.6591,-0.010982
54.877,81.6591,-0.010982
54.908,81.6591,-0.010982
54.938,81.6591,-0.010982
54.970,81.6591,-0.010982
55.000,81.6591,-0.010982
55.033,81.6591,-0.010982
55.062,81.6591,-0.010982
55.095,81.6591,-0.010982
55.125,81.6591,-0.010982
55.150,81.6591,-0.010831
55.185,81.6591,-0.010831
55.216,81.6591,-0.010831
55.246,81.6591,-0.010831
55.280,81.6591,-0.010831
55.310,81.6591,-0.010831
55.344,81.6591,-0.010643
55.371,81.6591,-0.010643
55.403,81.6591,-0.010643
55.434,81.6591,-0.010643
55.465,81.6591,-0.010643
55.496,81.6591,-0.010643
55.526,81.6588,-0.010643
55.556,81.6578,-0.010643
55.587,81.6559,-0.010643
55.618,81.6536,-0.010464
55.651,81.6500,-0.010464
55.680,81.6462,-0.010464
55.711,81.6415,-0.010464
55.743,81.6359,-0.010464
55.774,81.6297,-0.010464
55.805,81.6228,-0.010464
55.837,81.6151,-0.010464
55.868,81.6066,-0.009241
55.899,81.5976,-0.009241
55.930,81.5878,-0.009241
55.961,81.5773,-0.009241
55.992,81.5660,-0.009241
56.023,81.5538,-0.009241
56.054,81.5412,-0.009241
56.085,81.5278,-0.009241
56.115,81.5139,-0.009241
56.146,81.4988,-0.004856
56.180,81.4814,-0.004856
56.209,81.4667,-0.004856
56.237,81.4513,-0.004856
56.272,81.4312,-0.004856
56.303,81.4127,-0.004856
56.334,81.3931,-0.004856
56.365,81.3733,0.002315
56.396,81.3521,0.002315
56.427,81.3308,0.002315
56.458,81.3086,0.002315
56.488,81.2862,0.002315
56.519,81.2626,0.002315
56.550,81.2380,0.002315
56.583,81.2105,0.009439
56.612,81.1870,0.009439
56.643,81.1612,0.009439
56.675,81.1325,0.009439
56.705,81.1055,0.009439
56.737,81.0752,0.009439
56.764,81.0499,0.009439
56.800,81.0155,0.009439
56.830,80.9853,0.009439
56.862,80.9537,0.014520
56.893,80.9226,0.014520
56.925,80.8906,0.014520
56.956,80.8586,0.014520
56.987,80.8281,0.014520
57.018,80.7973,0.014520
57.048,80.7670,0.014520
57.079,80.7365,0.014520
57.110,80.7048,0.018068
57.141,80.6739,0.018068
57.173,80.6421,0.018068
57.204,80.6110,0.018068
57.235,80.5804,0.018068
57.266,80.5497,0.018068
57.297,80.5178,0.018068
57.328,80.4877,0.018068
57.359,80.4565,0.022378
57.390,80.4259,0.022378
57.421,80.3947,0.022378
57.451,80.3641,0.022378
57.482,80.3318,0.022378
57.513,80.3020,0.022378
57.545,80.2707,0.022378
57.576,80.2392,0.022378
57.607,80.2077,0.027770
57.639,80.1756,0.027770
57.671,80.1446,0.027770
57.702,80.1133,0.027770
57.732,80.0827,0.027770
57.763,80.0523,0.027770
57.795,80.0204,0.027770
57.825,79.9898,0.027770
57.856,79.9583,0.032268
57.889,79.9267,0.032268
57.919,79.8960,0.032268
57.952,79.8633,0.032268
57.981,79.8343,0.032268
58.012,79.8036,0.032268
58.042,79.7739,0.032268
58.072,79.7431,0.032268
58.103,79.7126,0.033539
58.133,79.6815,0.033539
58.164,79.6510,0.033539
58.197,79.6186,0.033539
58.227,79.5879,0.033539
58.258,79.5573,0.033539
58.289,79.5268,0.033539
58.319,79.4958,0.033539
58.350,79.4654,0.033539
58.380,79.4352,0.022472
58.411,79.4044,0.022472
58.442,79.3725,0.022472
58.474,79.3414,0.022472
58.505,79.3093,0.022472
58.536,79.2795,0.022472
58.568,79.2474,0.022472
58.598,79.2172,0.011283
58.629,79.1864,0.011283
58.660,79.1551,0.011283
58.691,79.1241,0.011283
58.722,79.0928,0.011283
58.757,79.0574,0.011283
58.785,79.0303,0.011283
58.816,78.9997,0.011283
58.846,78.9693,0.010436
58.878,78.9373,0.010436
58.909,78.9063,0.010436
58.940,78.8753,0.010436
58.971,78.8443,0.010436
59.002,78.8134,0.010436
59.032,78.7830,0.010436
59.063,78.7524,0.010436
59.094,78.7210,0.010022
59.126,78.6894,0.010022
59.157,78.6580,0.010022
59.188,78.6276,0.010022
59.219,78.5958,0.010022
59.249,78.5662,0.010022
59.280,78.5352,0.010022
59.312,78.5037,0.010022
59.343,78.4725,0.009740
59.374,78.4418,0.009740
59.405,78.4110,0.009740
59.436,78.3788,0.009740
59.467,78.3488,0.009740
59.502,78.3136,0.009740
59.528,78.2874,0.009740
59.559,78.2559,0.009740
59.590,78.2253,0.009486
59.625,78.1905,0.009486
59.654,78.1617,0.009486
59.685,78.1298,0.009486
59.716,78.0992,0.009486
59.749,78.0664,0.009486
59.777,78.0379,0.009486
59.807,78.0076,0.009486
59.838,77.9778,0.009185
59.868,77.9464,0.009185
59.899,77.9157,0.009185
59.930,77.8849,0.009185
59.961,77.8545,0.009185
59.992,77.8228,0.009185
60.024,77.7920,0.009185
60.053,77.7620,0.009185
60.083,77.7321,0.008940
60.114,77.7012,0.008940
60.145,77.6702,0.008940
60.176,77.6397,0.008940
60.206,77.6094,0.008940
60.236,77.5784,0.008940
60.267,77.5481,0.008940
60.304,77.5107,0.008940
60.330,77.4846,0.008714
60.363,77.4525,0.008714
60.393,77.4224,0.008714
60.423,77.3922,0.008714
60.454,77.3607,0.008714
60.485,77.3301,0.008714
60.515,77.2993,0.008714
60.547,77.2686,0.008714
60.578,77.2381,0.008714
60.609,77.2084,0.008469
60.640,77.1793,0.008469
60.670,77.1508,0.008469
60.702,77.1226,0.008469
60.732,77.0968,0.008469
60.763,77.0700,0.008469
60.794,77.0450,0.008469
60.826,77.0193,0.008469
60.857,76.9956,0.008149
60.888,76.9715,0.008149
60.920,76.9484,0.008149
60.951,76.9265,0.008149
60.981,76.9063,0.008149
61.012,76.8855,0.008149
61.043,76.8663,0.008149
61.073,76.8473,0.008149
61.104,76.8297,0.007839
61.135,76.8118,0.007839
61.165,76.7953,0.007839
61.197,76.7788,0.007839
61.228,76.7638,0.007839
61.259,76.7491,0.007839
61.289,76.7355,0.007839
61.320,76.7216,0.007839
61.351,76.7100,0.007557
61.383,76.6980,0.007557
61.414,76.6867,0.007557
61.445,76.6762,0.007557
61.476,76.6667,0.007557
61.513,76.6564,0.007557
61.554,76.6460,0.007557
61.586,76.6390,0.007557
61.616,76.6328,0.007321
61.647,76.6274,0.007321
61.679,76.6224,0.007321
61.710,76.6185,0.007321
61.741,76.6151,0.007321
61.771,76.6126,0.007321
61.803,76.6106,0.007321
61.834,76.6095,0.007321
61.864,76.6092,0.007227
61.895,76.6092,0.007227
61.926,76.6092,0.007227
61.957,76.6092,0.007227
61.988,76.6092,0.007227
62.020,76.6094,0.007227
62.050,76.6103,0.007227
62.081,76.6120,0.007227
62.112,76.6144,0.007227
62.143,76.6175,0.007142
62.173,76.6212,0.007142
62.205,76.6259,0.007142
62.236,76.6311,0.007142
62.267,76.6373,0.007142
62.298,76.6438,0.007142
62.331,76.6518,0.007142
62.361,76.6600,0.006870
62.394,76.6694,0.006870
62.425,76.6792,0.006870
62.457,76.6901,0.006870
62.487,76.7009,0.006870
62.518,76.7131,0.006870
62.548,76.7250,0.006870
62.579,76.7385,0.006870
62.611,76.7529,0.006681
62.640,76.7668,0.006681
62.672,76.7827,0.006681
62.703,76.7990,0.006681
62.735,76.8161,0.006681
62.766,76.8344,0.006681
62.796,76.8522,0.006681
62.828,76.8717,0.006681
62.859,76.8913,0.006653
62.891,76.9130,0.006653
62.921,76.9342,0.006653
62.953,76.9567,0.006653
62.984,76.9791,0.006653
63.015,77.0029,0.006653
63.046,77.0272,0.006653
63.077,77.0524,0.006653
63.109,77.0783,0.006540
63.139,77.1048,0.006540
63.170,77.1310,0.006540
63.201,77.1593,0.006540
63.228,77.1847,0.006540
63.262,77.2167,0.006540
63.293,77.2470,0.006540
63.324,77.2778,0.006540
63.355,77.3089,0.006540
63.386,77.3397,0.006399
63.416,77.3700,0.006399
63.447,77.3999,0.006399
63.477,77.4311,0.006399
63.508,77.4619,0.006399
63.540,77.4933,0.006399
63.571,77.5252,0.006399
63.602,77.5555,0.006380
63.634,77.5872,0.006380
63.664,77.6188,0.006380
63.695,77.6487,0.006380
63.726,77.6800,0.006380
63.758,77.7110,0.006380
63.788,77.7416,0.006380
63.820,77.7731,0.006380
63.851,77.8040,0.006427
63.882,77.8362,0.006427
63.912,77.8664,0.006427
63.944,77.8971,0.006427
63.975,77.9281,0.006427
64.006,77.9599,0.006427
64.038,77.9920,0.006427
64.069,78.0225,0.006427
64.101,78.0543,0.006408
64.131,78.0853,0.006408
64.163,78.1162,0.006408
64.193,78.1474,0.006408
64.224,78.1778,0.006408
64.255,78.2086,0.006408
64.286,78.2393,0.006408
64.318,78.2714,0.006408
64.348,78.3013,0.006390
64.379,78.3323,0.006390
64.410,78.3636,0.006390
64.442,78.3955,0.006390
64.473,78.4261,0.006390
64.505,78.4586,0.006390
64.535,78.4890,0.006390
64.567,78.5202,0.006390
64.598,78.5509,0.006343
64.632,78.5860,0.006343
64.659,78.6129,0.006343
64.690,78.6435,0.006343
64.721,78.6744,0.006343
64.751,78.7048,0.006343
64.782,78.7362,0.006343
64.814,78.7680,0.006343
64.844,78.7972,0.006343
64.876,78.8295,0.006352
64.906,78.8593,0.006352
64.938,78.8918,0.006352
64.969,78.9218,0.006352
64.999,78.9531,0.006352
65.029,78.9832,0.006352
65.061,79.0148,0.006352
65.091,79.0441,0.006361
65.122,79.0757,0.006361
65.152,79.1055,0.006361
65.183,79.1369,0.006361
65.214,79.1681,0.006361
65.244,79.1978,0.006361
65.275,79.2293,0.006361
65.306,79.2593,0.006361
65.337,79.2917,0.006314
65.369,79.3220,0.006314
65.400,79.3532,0.006314
65.431,79.3847,0.006314
65.462,79.4151,0.006314
65.493,79.4463,0.006314
65.524,79.4771,0.006314
65.555,79.5082,0.006314
65.586,79.5395,0.006314
65.616,79.5695,0.006314
65.648,79.6011,0.006314
65.679,79.6327,0.006314
65.710,79.6634,0.006314
65.740,79.6939,0.006314
65.771,79.7244,0.006314
65.802,79.7562,0.006314
65.833,79.7861,0.006248
65.864,79.8171,0.006248
65.896,79.8490,0.006248
65.927,79.8806,0.006248
65.959,79.9121,0.006248
65.990,79.9435,0.006248
66.021,79.9744,0.006248
66.052,80.0058,0.006248
66.082,80.0355,0.005957
66.114,80.0683,0.005957
66.144,80.0981,0.005957
66.175,80.1286,0.005957
66.206,80.1598,0.005957
66.238,80.1918,0.005957
66.268,80.2213,0.005957
66.299,80.2530,0.005957
66.329,80.2829,0.005957
66.360,80.3144,0.005251
66.392,80.3449,0.005251
66.422,80.3757,0.005251
66.453,80.4071,0.005251
66.485,80.4379,0.005251
66.516,80.4701,0.005251
66.547,80.5006,0.005251
66.578,80.5323,0.005251
66.609,80.5629,0.005251
66.640,80.5946,0.004216
66.671,80.6240,0.004216
66.703,80.6570,0.004216
66.734,80.6878,0.004216
66.764,80.7185,0.004216
66.795,80.7489,0.004216
66.827,80.7807,0.004216
66.858,80.8117,0.002757
66.889,80.8424,0.002757
66.920,80.8732,0.002757
66.951,80.9046,0.002757
66.982,80.9357,0.002757
67.011,80.9640,0.002757
67.045,80.9971,0.002757
67.077,81.0280,0.002757
67.107,81.0555,0.000423
67.138,81.0831,0.000423
67.168,81.1101,0.000423
67.199,81.1365,0.000423
67.230,81.1628,0.000423
67.261,81.1876,0.000423
67.292,81.2128,0.000423
67.323,81.2354,0.000423
67.355,81.2593,0.000423
67.385,81.2816,-0.002908
67.419,81.3044,-0.002908
67.448,81.3240,-0.002908
67.479,81.3441,-0.002908
67.511,81.3636,-0.002908
67.542,81.3823,-0.002908
67.573,81.3998,-0.002908
67.604,81.4177,-0.002908
67.635,81.4337,-0.007302
67.667,81.4495,-0.007302
67.698,81.4645,-0.007302
67.728,81.4782,-0.007302
67.760,81.4922,-0.007302
67.790,81.5046,-0.007302
67.822,81.5165,-0.007302
67.853,81.5279,-0.012375
67.884,81.5387,-0.012375
67.915,81.5481,-0.012375
67.945,81.5572,-0.012375
67.976,81.5653,-0.012375
68.007,81.5729,-0.012375
68.037,81.5796,-0.012375
68.070,81.5865,-0.012375
68.100,81.5914,-0.012375
68.129,81.5959,-0.016722
68.159,81.5999,-0.016722
68.191,81.6032,-0.016722
68.222,81.6058,-0.016722
68.253,81.6077,-0.016722
68.284,81.6088,-0.016722
68.316,81.6092,-0.016722
68.347,81.6092,-0.018774
68.380,81.6092,-0.018774
68.408,81.6092,-0.018774
68.440,81.6092,-0.018774
68.471,81.6092,-0.018774
68.502,81.6092,-0.018774
68.533,81.6092,-0.018774
68.563,81.6092,-0.018774
68.594,81.6092,-0.018190
68.626,81.6092,-0.018190
68.657,81.6092,-0.018190
68.689,81.6092,-0.018190
68.719,81.6092,-0.018190
68.750,81.6092,-0.018190
68.781,81.6092,-0.018190
68.812,81.6092,-0.018190
68.844,81.6092,-0.016638
68.875,81.6092,-0.016638
68.907,81.6092,-0.016638
68.938,81.6092,-0.016638
68.969,81.6092,-0.016638
69.000,81.6092,-0.016638
69.031,81.6092,-0.016638
69.062,81.6092,-0.016638
69.093,81.6092,-0.016638
69.123,81.6092,-0.015508
69.155,81.6092,-0.015508
69.187,81.6092,-0.015508
69.218,81.6092,-0.015508
69.249,81.6092,-0.015508
69.280,81.6092,-0.015508
69.312,81.6092,-0.015508
69.341,81.6092,-0.014633
69.372,81.6092,-0.014633
69.404,81.6092,-0.014633
69.435,81.6092,-0.014633
69.467,81.6092,-0.014633
69.497,81.6092,-0.014633
69.528,81.6092,-0.014633
69.559,81.6092,-0.014633
69.591,81.6092,-0.013965
69.622,81.6092,-0.013965
69.652,81.6092,-0.013965
69.683,81.6092,-0.013965
69.714,81.6092,-0.013965
69.746,81.6092,-0.013965
69.777,81.6092,-0.013965
69.807,81.6092,-0.013965
69.838,81.6092,-0.013447
69.868,81.6092,-0.013447
69.900,81.6092,-0.013447
69.931,81.6092,-0.013447
69.962,81.6092,-0.013447
69.993,81.6092,-0.013447
70.024,81.6092,-0.013447
70.055,81.6092,-0.013447
70.086,81.6092,-0.013447
70.117,81.6092,-0.012977
70.148,81.6092,-0.012977
70.179,81.6092,-0.012977
70.209,81.6092,-0.012977
70.240,81.6092,-0.012977
70.271,81.6092,-0.012977
70.302,81.6092,-0.012977
70.333,81.6092,-0.012582
70.364,81.6092,-0.012582
70.395,81.6092,-0.012582
70.426,81.6092,-0.012582
70.457,81.6092,-0.012582
70.490,81.6092,-0.012582
70.519,81.6092,-0.012582
70.550,81.6092,-0.012582
70.581,81.6092,-0.012243
70.616,81.6092,-0.012243
70.643,81.6092,-0.012243
70.674,81.6092,-0.012243
70.705,81.6092,-0.012243
70.736,81.6092,-0.012243
70.767,81.6092,-0.012243
70.798,81.6092,-0.012243
70.830,81.6092,-0.012243
70.860,81.6092,-0.011951
70.891,81.6092,-0.011951
70.922,81.6092,-0.011951
70.952,81.6092,-0.011951
70.983,81.6092,-0.011951
71.014,81.6092,-0.011951
71.045,81.6092,-0.011951
71.076,81.6092,-0.011951
71.108,81.6092,-0.011697
71.139,81.6092,-0.011697
71.170,81.6092,-0.011697
71.201,81.6092,-0.011697
71.232,81.6092,-0.011697
71.262,81.6092,-0.011697
71.294,81.6092,-0.011697
71.325,81.6092,-0.011697
71.356,81.6092,-0.011443
71.386,81.6092,-0.011443
71.418,81.6092,-0.011443
71.449,81.6092,-0.011443
71.480,81.6092,-0.011443
71.511,81.6092,-0.011443
71.542,81.6092,-0.011443
71.572,81.6092,-0.011443
71.604,81.6092,-0.011170
71.634,81.6092,-0.011170
71.665,81.6092,-0.011170
71.696,81.6092,-0.011170
71.727,81.6092,-0.011170
71.757,81.6092,-0.011170
71.788,81.6092,-0.011170
71.819,81.6092,-0.011170
71.850,81.6092,-0.011170
71.881,81.6092,-0.010991
71.912,81.6092,-0.010991
71.943,81.6092,-0.010991
71.974,81.6092,-0.010991
72.006,81.6092,-0.010991
72.036,81.6092,-0.010991
72.068,81.6092,-0.010991
72.098,81.6092,-0.010822
72.129,81.6092,-0.010822
72.160,81.6092,-0.010822
72.192,81.6092,-0.010822
72.223,81.6092,-0.010822
72.254,81.6092,-0.010822
72.285,81.6092,-0.010822
72.317,81.6092,-0.010822
72.349,81.6092,-0.010568
72.379,81.6092,-0.010568
72.410,81.6092,-0.010568
72.440,81.6092,-0.010568
72.471,81.6092,-0.010568
72.502,81.6092,-0.010568
72.532,81.6092,-0.010568
72.563,81.6087,-0.010568
72.594,81.6074,-0.010370
72.626,81.6054,-0.010370
72.657,81.6027,-0.010370
72.688,81.5992,-0.010370
72.719,81.5951,-0.010370
72.750,81.5903,-0.010370
72.781,81.5845,-0.010370
72.812,81.5782,-0.010370
72.845,81.5708,-0.010370
72.875,81.5631,-0.009486
72.906,81.5543,-0.009486
72.937,81.5452,-0.009486
72.968,81.5354,-0.009486
72.999,81.5246,-0.009486
73.029,81.5133,-0.009486
73.061,81.5010,-0.009486
73.091,81.4882,-0.005590
73.123,81.4746,-0.005590
73.154,81.4598,-0.005590
73.185,81.4448,-0.005590
73.216,81.4290,-0.005590
73.248,81.4118,-0.005590
73.280,81.3943,-0.005590
73.311,81.3760,-0.005590
73.342,81.3574,-0.005590
73.373,81.3379,0.001421
73.404,81.3171,0.001421
73.436,81.2961,0.001421
73.466,81.2749,0.001421
73.497,81.2522,0.001421
73.528,81.2295,0.001421
73.559,81.2050,0.001421
73.591,81.1803,0.008714
73.622,81.1549,0.008714
73.653,81.1284,0.008714
73.686,81.1004,0.008714
73.716,81.0729,0.008714
73.747,81.0451,0.008714
73.778,81.0161,0.008714
73.808,80.9873,0.008714
73.839,80.9562,0.014087
73.870,80.9257,0.014087
73.902,80.8932,0.014087
73.933,80.8628,0.014087
73.965,80.8305,0.014087
73.996,80.7998,0.014087
74.027,80.7694,0.014087
74.058,80.7380,0.014087
74.089,80.7075,0.017814
74.120,80.6759,0.017814
74.151,80.6445,0.017814
74.183,80.6131,0.017814
74.214,80.5816,0.017814
74.245,80.5504,0.017814
74.276,80.5197,0.017814
74.308,80.4880,0.017814
74.339,80.4569,0.022190
74.370,80.4259,0.022190
74.401,80.3943,0.022190
74.432,80.3642,0.022190
74.463,80.3327,0.022190
74.494,80.3016,0.022190
74.525,80.2707,0.022190
74.556,80.2397,0.022190
74.588,80.2083,0.027714
74.618,80.1769,0.027714
74.650,80.1463,0.027714
74.682,80.1139,0.027714
74.712,80.0837,0.027714
74.744,80.0513,0.027714
74.775,80.0204,0.027714
74.805,79.9902,0.027714
74.837,79.9594,0.032616
74.868,79.9283,0.032616
74.898,79.8984,0.032616
74.930,79.8663,0.032616
74.961,79.8353,0.032616
74.990,79.8054,0.032616
75.022,79.7734,0.032616
75.053,79.7427,0.032616
75.085,79.7114,0.032616
75.116,79.6798,0.034687
75.148,79.6482,0.034687
75.179,79.6167,0.034687
75.210,79.5861,0.034687
75.241,79.5550,0.034687
75.272,79.5240,0.034687
75.303,79.4933,0.034687
75.334,79.4619,0.023733
75.365,79.4313,0.023733
75.395,79.4013,0.023733
75.426,79.3697,0.023733
75.456,79.3395,0.023733
75.488,79.3075,0.023733
75.519,79.2774,0.023733
75.550,79.2461,0.023733
75.581,79.2149,0.011725
75.613,79.1831,0.011725
75.643,79.1526,0.011725
75.674,79.1224,0.011725
75.704,79.0910,0.011725
75.736,79.0596,0.011725
75.767,79.0286,0.011725
75.800,78.9960,0.011725
75.830,78.9658,0.011725
75.860,78.9363,0.011725
75.891,78.9042,0.010502
75.922,78.8736,0.010502
75.953,78.8421,0.010502
75.984,78.8124,0.010502
76.015,78.7811,0.010502
76.045,78.7505,0.010502
76.076,78.7200,0.010502
76.107,78.6888,0.010502
76.138,78.6583,0.010107
76.169,78.6266,0.010107
76.199,78.5963,0.010107
76.230,78.5654,0.010107
76.262,78.5333,0.010107
76.293,78.5027,0.010107
76.323,78.4722,0.010107
76.355,78.4409,0.009806
76.385,78.4107,0.009806
76.415,78.3802,0.009806
76.450,78.3459,0.009806
76.479,78.3170,0.009806
76.510,78.2856,0.009806
76.541,78.2551,0.009806
76.571,78.2249,0.009806
76.602,78.1943,0.009495
76.633,78.1633,0.009495
76.664,78.1322,0.009495
76.695,78.1013,0.009495
76.725,78.0713,0.009495
76.756,78.0394,0.009495
76.787,78.0090,0.009495
76.818,77.9774,0.009495
76.849,77.9475,0.009203
76.880,77.9162,0.009203
76.911,77.8850,0.009203
76.942,77.8535,0.009203
76.974,77.8221,0.009203
77.006,77.7902,0.009203
77.036,77.7596,0.009203
77.068,77.7278,0.009203
77.098,77.6972,0.008968
77.129,77.6672,0.008968
77.160,77.6361,0.008968
77.191,77.6053,0.008968
77.220,77.5758,0.008968
77.252,77.5443,0.008968
77.282,77.5138,0.008968
77.314,77.4823,0.008968
77.344,77.4519,0.008667
77.375,77.4208,0.008667
77.406,77.3899,0.008667
77.437,77.3588,0.008667
77.468,77.3282,0.008667
77.500,77.2965,0.008667
77.531,77.2655,0.008667
77.562,77.2337,0.008667
77.594,77.2027,0.008422
77.625,77.1712,0.008422
77.656,77.1428,0.008422
77.687,77.1138,0.008422
77.718,77.0860,0.008422
77.749,77.0589,0.008422
77.780,77.0315,0.008422
77.810,77.0065,0.008422
77.842,76.9809,0.008140
77.873,76.9565,0.008140
77.904,76.9329,0.008140
77.934,76.9099,0.008140
77.965,76.8883,0.008140
77.996,76.8664,0.008140
78.028,76.8454,0.008140
78.058,76.8253,0.008140
78.090,76.8055,0.007858
78.120,76.7875,0.007858
78.152,76.7695,0.007858
78.183,76.7518,0.007858
78.214,76.7359,0.007858
78.245,76.7199,0.007858
78.278,76.7044,0.007858
78.308,76.6906,0.007858
78.341,76.6760,0.007632
78.369,76.6647,0.007632
78.402,76.6518,0.007632
78.433,76.6408,0.007632
78.464,76.6302,0.007632
78.495,76.6202,0.007632
78.527,76.6109,0.007632
78.559,76.6025,0.007632
78.591,76.5948,0.007387
78.621,76.5881,0.007387
78.652,76.5819,0.007387
78.683,76.5765,0.007387
78.714,76.5719,0.007387
78.745,76.5680,0.007387
78.776,76.5648,0.007387
78.808,76.5621,0.007387
78.838,76.5605,0.007208
78.869,76.5594,0.007208
78.900,76.5592,0.007208
78.931,76.5592,0.007208
78.963,76.5592,0.007208
78.995,76.5592,0.007208
79.026,76.5592,0.007208
79.058,76.5592,0.007208
79.089,76.5595,0.007208
79.120,76.5607,0.007105
79.151,76.5625,0.007105
79.182,76.5650,0.007105
79.212,76.5682,0.007105
79.244,76.5723,0.007105
79.275,76.5772,0.007105
79.307,76.5827,0.007105
79.339,76.5889,0.007105
79.370,76.5961,0.006888
79.401,76.6038,0.006888
79.431,76.6119,0.006888
79.463,76.6213,0.006888
79.494,76.6310,0.006888
79.525,76.6418,0.006888
79.556,76.6531,0.006888
79.587,76.6655,0.006888
79.619,76.6782,0.006738
79.650,76.6919,0.006738
79.681,76.7061,0.006738
79.711,76.7203,0.006738
79.742,76.7364,0.006738
79.774,76.7530,0.006738
79.805,76.7705,0.006738
79.836,76.7882,0.006738
79.868,76.8073,0.006700
79.900,76.8276,0.006700
79.930,76.8469,0.006700
79.962,76.8686,0.006700
79.993,76.8897,0.006700
80.024,76.9128,0.006700
80.055,76.9357,0.006700
80.086,76.9591,0.006700
80.116,76.9826,0.006606
80.146,77.0080,0.006606
80.178,77.0337,0.006606
80.208,77.0605,0.006606
80.240,77.0875,0.006606
80.269,77.1148,0.006606
80.301,77.1436,0.006606
80.332,77.1741,0.006606
80.363,77.2040,0.006456
80.396,77.2370,0.006456
80.427,77.2673,0.006456
80.458,77.2988,0.006456
80.488,77.3292,0.006456
80.516,77.3566,0.006456
80.550,77.3910,0.006456
80.581,77.4218,0.006456
80.612,77.4533,0.006390
80.643,77.4833,0.006390
80.674,77.5150,0.006390
80.706,77.5473,0.006390
80.736,77.5767,0.006390
80.767,77.6074,0.006390
80.797,77.6389,0.006390
80.828,77.6693,0.006390
80.858,77.6991,0.006390
80.888,77.7298,0.006408
80.918,77.7590,0.006408
80.949,77.7902,0.006408
80.980,77.8206,0.006408
81.011,77.8510,0.006408
81.042,77.8830,0.006408
81.071,77.9115,0.006408
81.105,77.9461,0.006361
81.136,77.9770,0.006361
81.168,78.0084,0.006361
81.198,78.0382,0.006361
81.229,78.0695,0.006361
81.260,78.1015,0.006361
81.291,78.1314,0.006361
81.322,78.1624,0.006361
81.353,78.1938,0.006324
81.384,78.2243,0.006324
81.415,78.2557,0.006324
81.446,78.2863,0.006324
81.477,78.3181,0.006324
81.508,78.3487,0.006324
81.539,78.3802,0.006324
81.570,78.4107,0.006324
81.601,78.4412,0.006324
81.632,78.4725,0.006239
81.662,78.5027,0.006239
81.693,78.5335,0.006239
81.724,78.5648,0.006239
81.755,78.5955,0.006239
81.786,78.6269,0.006239
81.816,78.6576,0.006239
81.848,78.6884,0.006239
81.879,78.7200,0.006296
81.911,78.7514,0.006296
81.941,78.7823,0.006296
81.973,78.8134,0.006296
82.003,78.8446,0.006296
82.034,78.8746,0.006296
82.064,78.9057,0.006296
82.096,78.9371,0.006296
82.125,78.9655,0.006324
82.159,78.9997,0.006324
82.191,79.0317,0.006324
82.221,79.0626,0.006324
82.252,79.0927,0.006324
82.284,79.1247,0.006324
82.314,79.1545,0.006324
82.344,79.1855,0.006277
82.375,79.2166,0.006277
82.407,79.2473,0.006277
82.439,79.2794,0.006277
82.470,79.3104,0.006277
82.501,79.3420,0.006277
82.532,79.3729,0.006277
82.564,79.4054,0.006277
82.596,79.4364,0.006277
82.627,79.4679,0.006324
82.658,79.4988,0.006324
82.689,79.5306,0.006324
82.720,79.5612,0.006324
82.751,79.5917,0.006324
82.782,79.6223,0.006324
82.812,79.6528,0.006324
82.844,79.6847,0.006305
82.875,79.7154,0.006305
82.906,79.7472,0.006305
82.938,79.7782,0.006305
82.969,79.8101,0.006305
83.000,79.8405,0.006305
83.031,79.8713,0.006305
83.062,79.9031,0.006305
83.093,79.9342,0.006032
83.125,79.9655,0.006032
83.156,79.9967,0.006032
83.187,80.0276,0.006032
83.218,80.0579,0.006032
83.251,80.0917,0.006032
83.280,80.1205,0.006032
83.312,80.1521,0.006032
83.342,80.1830,0.005477
83.374,80.2144,0.005477
83.405,80.2453,0.005477
83.436,80.2765,0.005477
83.466,80.3067,0.005477
83.498,80.3387,0.005477
83.529,80.3702,0.005477
83.560,80.4005,0.005477
83.591,80.4316,0.004677
83.622,80.4628,0.004677
83.653,80.4934,0.004677
83.684,80.5249,0.004677
83.715,80.5556,0.004677
83.746,80.5873,0.004677
83.777,80.6170,0.004677
83.809,80.6493,0.004677
83.843,80.6839,0.003312
83.871,80.7123,0.003312
83.903,80.7429,0.003312
83.933,80.7745,0.003312
83.964,80.8045,0.003312
83.996,80.8367,0.003312
84.026,80.8670,0.003312
84.057,80.8976,0.003312
84.088,80.9284,0.003312
84.119,80.9585,0.003312
84.150,80.9874,0.001205
84.180,81.0157,0.001205
84.212,81.0432,0.001205
84.243,81.0709,0.001205
84.274,81.0969,0.001205
84.304,81.1217,0.001205
84.336,81.1472,0.001205
84.366,81.1707,-0.001835
84.398,81.1950,-0.001835
84.429,81.2174,-0.001835
84.462,81.2404,-0.001835
84.493,81.2618,-0.001835
84.524,81.2822,-0.001835
84.555,81.3020,-0.001835
84.585,81.3202,-0.001835
84.616,81.3390,-0.006060
84.647,81.3560,-0.006060
84.678,81.3730,-0.006060
84.710,81.3899,-0.006060
84.741,81.4049,-0.006060
84.773,81.4200,-0.006060
84.803,81.4333,-0.006060
84.833,81.4463,-0.006060
84.864,81.4586,-0.011142
84.895,81.4706,-0.011142
84.926,81.4814,-0.011142
84.959,81.4923,-0.011142
84.988,81.5013,-0.011142
85.019,81.5101,-0.011142
85.049,81.5180,-0.011142
85.081,81.5256,-0.015866
85.115,81.5328,-0.015866
85.143,81.5381,-0.015866
85.174,81.5433,-0.015866
85.205,81.5478,-0.015866
85.236,81.5514,-0.015866
85.268,81.5545,-0.015866
85.299,81.5567,-0.015866
85.329,81.5583,-0.015866
85.360,81.5591,-0.018670
85.392,81.5592,-0.018670
85.425,81.5592,-0.018670
85.455,81.5592,-0.018670
85.488,81.5592,-0.018670
85.518,81.5592,-0.018670
85.549,81.5592,-0.018670
85.580,81.5592,-0.018633
85.610,81.5592,-0.018633
85.641,81.5592,-0.018633
85.673,81.5592,-0.018633
85.704,81.5592,-0.018633
85.735,81.5592,-0.018633
85.765,81.5592,-0.018633
85.796,81.5592,-0.018633
85.827,81.5592,-0.018633
85.857,81.5592,-0.018633
85.888,81.5592,-0.017127
85.919,81.5592,-0.017127
85.950,81.5592,-0.017127
85.981,81.5592,-0.017127
86.012,81.5592,-0.017127
86.043,81.5592,-0.017127
86.074,81.5592,-0.017127
86.105,81.5592,-0.015828
86.136,81.5592,-0.015828
86.167,81.5592,-0.015828
86.198,81.5592,-0.015828
86.229,81.5592,-0.015828
86.261,81.5592,-0.015828
86.292,81.5592,-0.015828
86.323,81.5592,-0.015828
86.353,81.5592,-0.014925
86.384,81.5592,-0.014925
86.416,81.5592,-0.014925
86.447,81.5592,-0.014925
86.478,81.5592,-0.014925
86.509,81.5592,-0.014925
86.540,81.5592,-0.014925
86.571,81.5592,-0.014925
86.602,81.5592,-0.014266
86.633,81.5592,-0.014266
86.664,81.5592,-0.014266
86.696,81.5592,-0.014266
86.726,81.5592,-0.014266
86.758,81.5592,-0.014266
86.789,81.5592,-0.014266
86.820,81.5592,-0.014266
86.851,81.5592,-0.013636
86.881,81.5592,-0.013636
86.912,81.5592,-0.013636
86.943,81.5592,-0.013636
86.974,81.5592,-0.013636
87.004,81.5592,-0.013636
87.035,81.5592,-0.013636
87.066,81.5592,-0.013636
87.097,81.5592,-0.013146
87.128,81.5592,-0.013146
87.158,81.5592,-0.013146
87.190,81.5592,-0.013146
87.221,81.5592,-0.013146
87.252,81.5592,-0.013146
87.283,81.5592,-0.013146
87.313,81.5592,-0.013146
87.344,81.5592,-0.012770
87.375,81.5592,-0.012770
87.406,81.5592,-0.012770
87.442,81.5592,-0.012770
87.468,81.5592,-0.012770
87.499,81.5592,-0.012770
87.530,81.5592,-0.012770
87.561,81.5592,-0.012770
87.592,81.5592,-0.012441
87.622,81.5592,-0.012441
87.654,81.5592,-0.012441
87.685,81.5592,-0.012441
87.716,81.5592,-0.012441
87.747,81.5592,-0.012441
87.778,81.5592,-0.012441
87.809,81.5592,-0.012441
87.840,81.5592,-0.012149
87.873,81.5592,-0.012149
87.903,81.5592,-0.012149
87.934,81.5592,-0.012149
87.966,81.5592,-0.012149
87.997,81.5592,-0.012149
88.028,81.5592,-0.012149
88.059,81.5592,-0.012149
88.090,81.5592,-0.011866
88.121,81.5592,-0.011866
88.153,81.5592,-0.011866
88.183,81.5592,-0.011866
88.213,81.5592,-0.011866
88.244,81.5592,-0.011866
88.275,81.5592,-0.011866
88.307,81.5592,-0.011866
88.337,81.5592,-0.011866
88.368,81.5592,-0.011594
88.399,81.5592,-0.011594
88.430,81.5592,-0.011594
88.461,81.5592,-0.011594
88.493,81.5592,-0.011594
88.524,81.5592,-0.011594
88.555,81.5592,-0.011594
88.587,81.5592,-0.011594
88.617,81.5592,-0.011594
88.649,81.5592,-0.011340
88.680,81.5592,-0.011340
88.711,81.5592,-0.011340
88.741,81.5592,-0.011340
88.773,81.5592,-0.011340
88.803,81.5592,-0.011340
88.834,81.5592,-0.011340
88.866,81.5592,-0.011151
88.896,81.5592,-0.011151
88.927,81.5592,-0.011151
88.958,81.5592,-0.011151
88.989,81.5592,-0.011151
89.020,81.5592,-0.011151
89.052,81.5592,-0.011151
89.083,81.5592,-0.011151
89.113,81.5592,-0.010944
89.144,81.5592,-0.010944
89.175,81.5592,-0.010944
89.206,81.5592,-0.010944
89.237,81.5592,-0.010944
89.268,81.5592,-0.010944
89.299,81.5592,-0.010944
89.331,81.5592,-0.010944
89.361,81.5592,-0.010756
89.393,81.5592,-0.010756
89.424,81.5592,-0.010756
89.455,81.5592,-0.010756
89.486,81.5592,-0.010756
89.521,81.5592,-0.010756
89.548,81.5592,-0.010756
89.579,81.5592,-0.010756
89.611,81.5592,-0.010624
89.642,81.5592,-0.010624
89.674,81.5592,-0.010624
89.704,81.5592,-0.010624
89.734,81.5592,-0.010624
89.766,81.5592,-0.010624
89.796,81.5592,-0.010624
89.827,81.5592,-0.010624
89.859,81.5592,-0.010436
89.890,81.5592,-0.010436
89.921,81.5592,-0.010436
89.952,81.5592,-0.010436
89.983,81.5592,-0.010436
90.015,81.5588,-0.010436
90.046,81.5578,-0.010436
90.077,81.5560,-0.010436
90.108,81.5535,-0.010201
90.138,81.5501,-0.010201
90.169,81.5463,-0.010201
90.200,81.5417,-0.010201
90.231,81.5364,-0.010201
90.262,81.5300,-0.010201
90.293,81.5232,-0.010201
90.324,81.5155,-0.010201
90.356,81.5070,-0.008827
90.387,81.4978,-0.008827
90.418,81.4881,-0.008827
90.449,81.4777,-0.008827
90.480,81.4663,-0.008827
90.510,81.4544,-0.008827
90.542,81.4416,-0.008827
90.573,81.4277,-0.008827
90.604,81.4138,-0.004291
90.635,81.3989,-0.004291
90.666,81.3836,-0.004291
90.697,81.3666,-0.004291
90.729,81.3491,-0.004291
90.759,81.3317,-0.004291
90.790,81.3135,-0.004291
90.821,81.2941,-0.004291
90.851,81.2747,-0.004291
90.882,81.2541,0.002767
90.913,81.2330,0.002767
90.944,81.2108,0.002767
90.974,81.1888,0.002767
91.005,81.1644,0.002767
91.036,81.1406,0.002767
91.069,81.1143,0.002767
91.098,81.0894,0.009806
91.129,81.0632,0.009806
91.160,81.0364,0.009806
91.190,81.0085,0.009806
91.221,80.9805,0.009806
91.252,80.9508,0.009806
91.284,80.9198,0.009806
91.318,80.8857,0.009806
91.346,80.8576,0.014878
91.377,80.8272,0.014878
91.407,80.7973,0.014878
91.438,80.7657,0.014878
91.469,80.7355,0.014878
91.499,80.7050,0.014878
91.531,80.6734,0.014878
91.563,80.6404,0.014878
91.592,80.6118,0.018444
91.624,80.5798,0.018444
91.655,80.5491,0.018444
91.686,80.5184,0.018444
91.717,80.4866,0.018444
91.748,80.4557,0.018444
91.780,80.4239,0.018444
91.810,80.3936,0.018444
91.841,80.3632,0.022858
91.872,80.3325,0.022858
91.903,80.3015,0.022858
91.934,80.2704,0.022858
91.966,80.2387,0.022858
91.997,80.2071,0.022858
92.028,80.1763,0.022858
92.060,80.1444,0.022858
92.090,80.1146,0.028222
92.121,80.0829,0.028222
92.151,80.0528,0.028222
92.183,80.0210,0.028222
92.214,79.9908,0.028222
92.245,79.9595,0.028222
92.276,79.9285,0.028222
92.307,79.8964,0.028222
92.338,79.8658,0.032616
92.371,79.8336,0.032616
92.402,79.8019,0.032616
92.434,79.7701,0.032616
92.464,79.7399,0.032616
92.496,79.7079,0.032616
92.526,79.6780,0.032616
92.558,79.6466,0.032616
92.590,79.6145,0.033501
92.621,79.5827,0.033501
92.651,79.5528,0.033501
92.681,79.5233,0.033501
92.712,79.4912,0.033501
92.744,79.4601,0.033501
92.775,79.4282,0.033501
92.805,79.3986,0.033501
92.837,79.3669,0.022180
92.868,79.3356,0.022180
92.899,79.3047,0.022180
92.929,79.2749,0.022180
92.961,79.2438,0.022180
92.992,79.2120,0.022180
93.023,79.1812,0.022180
93.054,79.1493,0.022180
93.086,79.1184,0.022180
93.117,79.0866,0.011123
93.148,79.0563,0.011123
93.179,79.0253,0.011123
93.210,78.9938,0.011123
93.241,78.9634,0.011123
93.272,78.9319,0.011123
93.303,78.9009,0.011123
93.335,78.8687,0.011123
93.365,78.8388,0.011123
93.396,78.8075,0.010323
93.427,78.7767,0.010323
93.459,78.7446,0.010323
93.489,78.7148,0.010323
93.520,78.6846,0.010323
93.551,78.6531,0.010323
93.580,78.6242,0.010323
93.613,78.5912,0.009947
93.644,78.5605,0.009947
93.674,78.5295,0.009947
93.706,78.4984,0.009947
93.736,78.4675,0.009947
93.768,78.4358,0.009947
93.799,78.4049,0.009947
93.830,78.3741,0.009947
93.861,78.3430,0.009947
93.893,78.3114,0.009664
93.924,78.2796,0.009664
93.954,78.2500,0.009664
93.985,78.2190,0.009664
94.017,78.1874,0.009664
94.049,78.1556,0.009664
94.079,78.1250,0.009664
94.105,78.0995,0.009664
94.142,78.0626,0.009345
94.173,78.0316,0.009345
94.204,78.0001,0.009345
94.235,77.9693,0.009345
94.266,77.9379,0.009345
94.298,77.9066,0.009345
94.328,77.8758,0.009345
94.359,77.8453,0.009345
94.390,77.8140,0.009109
94.421,77.7833,0.009109
94.452,77.7510,0.009109
94.483,77.7214,0.009109
94.514,77.6901,0.009109
94.544,77.6598,0.009109
94.575,77.6287,0.009109
94.606,77.5984,0.009109
94.638,77.5665,0.008855
94.669,77.5354,0.008855
94.700,77.5044,0.008855
94.730,77.4737,0.008855
94.762,77.4421,0.008855
94.793,77.4108,0.008855
94.825,77.3795,0.008855
94.856,77.3486,0.008601
94.886,77.3177,0.008601
94.917,77.2873,0.008601
94.949,77.2554,0.008601
94.979,77.2253,0.008601
95.010,77.1938,0.008601
95.040,77.1643,0.008601
95.072,77.1325,0.008601
95.103,77.1031,0.008601
95.134,77.0730,0.008403
95.166,77.0447,0.008403
95.196,77.0177,0.008403
95.228,76.9909,0.008403
95.259,76.9647,0.008403
95.290,76.9389,0.008403
95.321,76.9146,0.008403
95.352,76.8904,0.008403
95.383,76.8669,0.008121
95.415,76.8441,0.008121
95.446,76.8225,0.008121
95.477,76.8014,0.008121
95.508,76.7815,0.008121
95.538,76.7621,0.008121
95.569,76.7435,0.008121
95.600,76.7255,0.007811
95.631,76.7078,0.007811
95.661,76.6919,0.007811
95.694,76.6750,0.007811
95.723,76.6604,0.007811
95.754,76.6456,0.007811
95.785,76.6321,0.007811
95.817,76.6187,0.007811
95.849,76.6063,0.007557
95.881,76.5941,0.007557
95.911,76.5839,0.007557
95.942,76.5739,0.007557
95.973,76.5646,0.007557
96.004,76.5559,0.007557
96.036,76.5480,0.007557
96.067,76.5408,0.007557
96.098,76.5342,0.007368
96.129,76.5287,0.007368
96.159,76.5238,0.007368
96.190,76.5196,0.007368
96.220,76.5161,0.007368
96.251,76.5133,0.007368
96.282,76.5113,0.007368
96.314,76.5098,0.007368
96.346,76.5092,0.007218
96.378,76.5092,0.007218
96.409,76.5092,0.007218
96.441,76.5092,0.007218
96.472,76.5092,0.007218
96.504,76.5092,0.007218
96.534,76.5096,0.007218
96.565,76.5106,0.007218
96.596,76.5124,0.007218
96.627,76.5149,0.007161
96.658,76.5181,0.007161
96.689,76.5221,0.007161
96.719,76.5266,0.007161
96.750,76.5320,0.007161
96.781,76.5380,0.007161
96.811,76.5449,0.007161
96.843,76.5526,0.006973
96.875,76.5612,0.006973
96.906,76.5701,0.006973
96.937,76.5801,0.006973
96.968,76.5903,0.006973
97.000,76.6021,0.006973
97.031,76.6139,0.006973
97.062,76.6270,0.006973
97.093,76.6402,0.006719
97.125,76.6547,0.006719
97.155,76.6693,0.006719
97.186,76.6847,0.006719
97.218,76.7019,0.006719
97.249,76.7187,0.006719
97.280,76.7363,0.006719
97.310,76.7545,0.006719
97.345,76.7770,0.006653
97.372,76.7938,0.006653
97.405,76.8160,0.006653
97.434,76.8362,0.006653
97.466,76.8593,0.006653
97.496,76.8811,0.006653
97.528,76.9052,0.006653
97.558,76.9290,0.006653
97.592,76.9569,0.006653
97.620,76.9805,0.006578
97.651,77.0068,0.006578
97.682,77.0334,0.006578
97.717,77.0648,0.006578
97.744,77.0911,0.006578
97.776,77.1206,0.006578
97.806,77.1495,0.006578
97.837,77.1811,0.006578
97.868,77.2112,0.006446
97.898,77.2420,0.006446
97.929,77.2726,0.006446
97.961,77.3050,0.006446
97.992,77.3356,0.006446
98.024,77.3684,0.006446
98.054,77.3981,0.006446
98.084,77.4294,0.006446
98.114,77.4576,0.006399
98.145,77.4889,0.006399
98.177,77.5204,0.006399
98.208,77.5524,0.006399
98.239,77.5834,0.006399
98.269,77.6134,0.006399
98.301,77.6447,0.006399
98.332,77.6760,0.006399
98.363,77.7068,0.006399
98.394,77.7383,0.006390
98.425,77.7691,0.006390
98.458,77.8018,0.006390
98.486,77.8302,0.006390
98.517,77.8610,0.006390
98.549,77.8928,0.006390
98.580,77.9233,0.006390
98.610,77.9546,0.006314
98.641,77.9849,0.006314
98.673,78.0167,0.006314
98.704,78.0482,0.006314
98.735,78.0786,0.006314
98.765,78.1093,0.006314
98.796,78.1399,0.006314
98.827,78.1705,0.006314
98.858,78.2021,0.006267
98.888,78.2318,0.006267
98.920,78.2644,0.006267
98.951,78.2948,0.006267
98.982,78.3265,0.006267
99.013,78.3569,0.006267
99.044,78.3884,0.006267
99.075,78.4189,0.006267
99.106,78.4509,0.006220
99.138,78.4814,0.006220
99.168,78.5123,0.006220
99.199,78.5427,0.006220
99.231,78.5743,0.006220
99.261,78.6056,0.006220
99.292,78.6362,0.006220
99.325,78.6687,0.006220
99.354,78.6983,0.006220
99.385,78.7292,0.006220
99.415,78.7592,0.006220
99.447,78.7912,0.006220
99.478,78.8219,0.006220
99.509,78.8531,0.006220
99.540,78.8831,0.006220
99.571,78.9144,0.006220
99.601,78.9448,0.006248
99.632,78.9761,0.006248
99.663,79.0074,0.006248
99.694,79.0377,0.006248
99.725,79.0690,0.006248
99.756,79.1003,0.006248
99.787,79.1307,0.006248
99.819,79.1632,0.006248
99.849,79.1928,0.006277
99.880,79.2243,0.006277
99.911,79.2543,0.006277
99.942,79.2863,0.006277
99.973,79.3168,0.006277
100.004,79.3487,0.006277
100.035,79.3797,0.006277
100.067,79.4110,0.006277
100.098,79.4416,0.006324
100.129,79.4732,0.006324
100.160,79.5040,0.006324
100.191,79.5352,0.006324
100.222,79.5655,0.006324
100.253,79.5972,0.006324
100.283,79.6269,0.006324
100.315,79.6604,0.006324
100.346,79.6899,0.006277
100.377,79.7214,0.006277
100.407,79.7510,0.006277
100.439,79.7828,0.006277
100.469,79.8138,0.006277
100.500,79.8438,0.006277
100.530,79.8739,0.006277
100.561,79.9051,0.006277
100.593,79.9363,0.006013
100.623,79.9670,0.006013
100.654,79.9981,0.006013
100.685,80.0295,0.006013
100.715,80.0594,0.006013
100.748,80.0920,0.006013
100.777,80.1210,0.006013
100.808,80.1526,0.006013
100.839,80.1823,0.005477
100.870,80.2143,0.005477
100.901,80.2443,0.005477
100.936,80.2807,0.005477
100.963,80.3067,0.005477
100.993,80.3369,0.005477
101.025,80.3687,0.005477
101.055,80.3997,0.005477
101.086,80.4299,0.005477
101.117,80.4611,0.004583
101.149,80.4925,0.004583
101.181,80.5258,0.004583
101.210,80.5543,0.004583
101.241,80.5855,0.004583
101.273,80.6165,0.004583
101.305,80.6487,0.004583
101.334,80.6774,0.003152
101.365,80.7089,0.003152
101.396,80.7398,0.003152
101.428,80.7715,0.003152
101.459,80.8024,0.003152
101.491,80.8350,0.003152
101.523,80.8664,0.003152
101.555,80.8979,0.003152
101.586,80.9275,0.000866
101.627,80.9662,0.000866
101.664,80.9982,0.000866
101.696,81.0262,0.000866
101.726,81.0518,0.000866
101.757,81.0766,0.000866
101.787,81.1005,0.000866
101.818,81.1245,0.000866
101.849,81.1479,-0.002409
101.880,81.1706,-0.002409
101.914,81.1947,-0.002409
101.942,81.2132,-0.002409
101.974,81.2341,-0.002409
102.004,81.2536,-0.002409
102.036,81.2731,-0.002409
102.066,81.2908,-0.002409
102.098,81.3089,-0.002409
102.129,81.3251,-0.006775
102.160,81.3413,-0.006775
102.194,81.3580,-0.006775
102.221,81.3708,-0.006775
102.253,81.3852,-0.006775
102.284,81.3978,-0.006775
102.315,81.4102,-0.006775
102.347,81.4221,-0.006775
102.378,81.4333,-0.011961
102.408,81.4432,-0.011961
102.440,81.4528,-0.011961
102.471,81.4614,-0.011961
102.502,81.4694,-0.011961
102.534,81.4769,-0.011961
102.564,81.4832,-0.011961
102.595,81.4890,-0.016543
102.627,81.4942,-0.016543
102.657,81.4984,-0.016543
102.686,81.5018,-0.016543
102.719,81.5049,-0.016543
102.750,81.5071,-0.016543
102.781,81.5085,-0.016543
102.812,81.5091,-0.016543
102.842,81.5092,-0.016543
102.873,81.5092,-0.018717
