Elapsed Time (s),Position (mm),Force (N)
-0.014,72.3091,-0.210002
0.018,72.3091,-0.210002
0.049,72.3091,-0.210002
0.080,72.3091,-0.210002
0.112,72.3091,-0.210002
0.142,72.3091,-0.210002
0.173,72.3091,-0.180689
0.204,72.3091,-0.180689
0.235,72.3091,-0.180689
0.266,72.3091,-0.180689
0.298,72.3091,-0.180689
0.329,72.3091,-0.180689
0.360,72.3091,-0.180689
0.390,72.3091,-0.180689
0.421,72.3091,-0.146200
0.452,72.3091,-0.146200
0.483,72.3091,-0.146200
0.514,72.3091,-0.146200
0.544,72.3091,-0.146200
0.576,72.3091,-0.146200
0.607,72.3091,-0.146200
0.637,72.3091,-0.146200
0.668,72.3091,-0.135575
0.699,72.3091,-0.135575
0.730,72.3091,-0.135575
0.761,72.3091,-0.135575
0.792,72.3091,-0.135575
0.822,72.3091,-0.135575
0.853,72.3091,-0.135575
0.884,72.3091,-0.135575
0.915,72.3091,-0.135575
0.946,72.3091,-0.129176
0.977,72.3091,-0.129176
1.008,72.3091,-0.129176
1.039,72.3091,-0.129176
1.070,72.3091,-0.129176
1.101,72.3091,-0.129176
1.132,72.3091,-0.129176
1.163,72.3091,-0.124546
1.193,72.3091,-0.124546
1.224,72.3091,-0.124546
1.255,72.3091,-0.124546
1.287,72.3091,-0.124546
1.319,72.3091,-0.124546
1.350,72.3091,-0.124546
1.380,72.3091,-0.124546
1.411,72.3091,-0.121008
1.442,72.3091,-0.121008
1.473,72.3091,-0.121008
1.504,72.3091,-0.121008
1.535,72.3091,-0.121008
1.565,72.3091,-0.121008
1.597,72.3091,-0.121008
1.627,72.3091,-0.121008
1.659,72.3091,-0.118194
1.690,72.3091,-0.118194
1.721,72.3091,-0.118194
1.753,72.3091,-0.118194
1.783,72.3091,-0.118194
1.815,72.3091,-0.118194
1.845,72.3091,-0.118194
1.876,72.3091,-0.118194
1.907,72.3091,-0.115823
1.938,72.3091,-0.115823
1.969,72.3091,-0.115823
1.999,72.3091,-0.115823
2.029,72.3091,-0.115823
2.060,72.3091,-0.115823
2.091,72.3091,-0.115823
2.123,72.3091,-0.115823
2.153,72.3091,-0.115823
2.183,72.3091,-0.113715
2.217,72.3091,-0.113715
2.244,72.3091,-0.113715
2.276,72.3091,-0.113715
2.307,72.3091,-0.113715
2.338,72.3091,-0.113715
2.369,72.3091,-0.113715
2.401,72.3091,-0.111899
2.432,72.3091,-0.111899
2.463,72.3091,-0.111899
2.494,72.3091,-0.111899
2.525,72.3091,-0.111899
2.556,72.3091,-0.111899
2.586,72.3091,-0.111899
2.617,72.3091,-0.111899
2.648,72.3091,-0.110327
2.679,72.3091,-0.110327
2.710,72.3091,-0.110327
2.741,72.3091,-0.110327
2.773,72.3091,-0.110327
2.805,72.3091,-0.110327
2.836,72.3091,-0.110327
2.867,72.3091,-0.108925
2.898,72.3091,-0.108925
2.930,72.3091,-0.108925
2.961,72.3091,-0.108925
2.992,72.3091,-0.108925
3.023,72.3091,-0.108925
3.054,72.3091,-0.108925
3.085,72.3091,-0.108925
3.117,72.3091,-0.108925
3.146,72.3091,-0.107617
3.177,72.3091,-0.107617
3.209,72.3091,-0.107617
3.240,72.3091,-0.107617
3.272,72.3091,-0.107617
3.303,72.3091,-0.107617
3.335,72.3091,-0.107617
3.366,72.3091,-0.107617
3.396,72.3091,-0.106431
3.426,72.3091,-0.106431
3.458,72.3091,-0.106431
3.488,72.3091,-0.106431
3.519,72.3091,-0.106431
3.550,72.3091,-0.106431
3.580,72.3091,-0.106431
3.611,72.3091,-0.106431
3.642,72.3091,-0.105274
3.673,72.3091,-0.105274
3.705,72.3091,-0.105274
3.735,72.3091,-0.105274
3.766,72.3091,-0.105274
3.797,72.3091,-0.105274
3.828,72.3091,-0.105274
3.859,72.3091,-0.105274
3.890,72.3091,-0.104051
3.922,72.3091,-0.104051
3.953,72.3091,-0.104051
3.985,72.3091,-0.104051
4.017,72.3091,-0.104051
4.047,72.3091,-0.104051
4.077,72.3091,-0.104051
4.108,72.3084,-0.104051
4.139,72.3070,-0.103138
4.170,72.3049,-0.103138
4.200,72.3022,-0.103138
4.232,72.2986,-0.103138
4.263,72.2941,-0.103138
4.294,72.2892,-0.103138
4.326,72.2833,-0.103138
4.357,72.2768,-0.103138
4.389,72.2692,-0.103138
4.421,72.2611,-0.064640
4.452,72.2521,-0.064640
4.483,72.2429,-0.064640
4.515,72.2320,-0.064640
4.546,72.2212,-0.064640
4.578,72.2094,-0.064640
4.608,72.1974,-0.064640
4.640,72.1839,-0.064640
4.671,72.1704,-0.037519
4.701,72.1555,-0.037519
4.733,72.1402,-0.037519
4.763,72.1243,-0.037519
4.794,72.1077,-0.037519
4.825,72.0901,-0.037519
4.856,72.0720,-0.037519
4.887,72.0535,-0.038385
4.918,72.0338,-0.038385
4.949,72.0131,-0.038385
4.981,71.9916,-0.038385
5.013,71.9689,-0.038385
5.044,71.9460,-0.038385
5.075,71.9228,-0.038385
5.107,71.8980,-0.038385
5.138,71.8736,-0.015828
5.168,71.8480,-0.015828
5.199,71.8223,-0.015828
5.230,71.7948,-0.015828
5.261,71.7675,-0.015828
5.292,71.7394,-0.015828
5.322,71.7101,-0.015828
5.353,71.6811,-0.015828
5.384,71.6500,0.007387
5.416,71.6173,0.007387
5.447,71.5876,0.007387
5.477,71.5563,0.007387
5.509,71.5247,0.007387
5.540,71.4939,0.007387
5.572,71.4616,0.007387
5.603,71.4312,0.007387
5.634,71.4002,0.024862
5.665,71.3689,0.024862
5.696,71.3380,0.024862
5.728,71.3059,0.024862
5.759,71.2748,0.024862
5.791,71.2432,0.024862
5.821,71.2125,0.024862
5.853,71.1818,0.024862
5.883,71.1509,0.024862
5.914,71.1207,0.033981
5.945,71.0896,0.033981
5.975,71.0594,0.033981
6.006,71.0288,0.033981
6.037,70.9976,0.033981
6.067,70.9666,0.033981
6.099,70.9352,0.033981
6.129,70.9054,0.037453
6.159,70.8751,0.037453
6.191,70.8438,0.037453
6.221,70.8125,0.037453
6.251,70.7835,0.037453
6.283,70.7518,0.037453
6.313,70.7211,0.037453
6.344,70.6903,0.037453
6.376,70.6581,0.039110
6.407,70.6276,0.039110
6.438,70.5960,0.039110
6.468,70.5657,0.039110
6.502,70.5330,0.039110
6.529,70.5046,0.039110
6.561,70.4730,0.039110
6.592,70.4430,0.039110
6.623,70.4110,0.040060
6.655,70.3796,0.040060
6.685,70.3494,0.040060
6.715,70.3188,0.040060
6.747,70.2876,0.040060
6.781,70.2530,0.040060
6.810,70.2252,0.040060
6.842,70.1928,0.040060
6.871,70.1629,0.040060
6.904,70.1303,0.040747
6.934,70.1000,0.040747
6.964,70.0700,0.040747
6.995,70.0385,0.040747
7.027,70.0070,0.040747
7.057,69.9772,0.040747
7.087,69.9469,0.040747
7.119,69.9152,0.040747
7.150,69.8846,0.042008
7.181,69.8538,0.042008
7.212,69.8228,0.042008
7.243,69.7907,0.042008
7.274,69.7602,0.042008
7.308,69.7262,0.042008
7.335,69.6994,0.042008
7.366,69.6678,0.042008
7.392,69.6426,0.042008
7.428,69.6063,0.042008
7.459,69.5754,0.043890
7.490,69.5447,0.043890
7.521,69.5132,0.043890
7.552,69.4825,0.043890
7.585,69.4493,0.043890
7.613,69.4209,0.043890
7.645,69.3889,0.043890
7.676,69.3585,0.043730
7.709,69.3248,0.043730
7.739,69.2956,0.043730
7.769,69.2652,0.043730
7.800,69.2340,0.043730
7.836,69.1981,0.043730
7.863,69.1713,0.043730
7.894,69.1396,0.043730
7.925,69.1091,0.027375
7.956,69.0781,0.027375
7.988,69.0469,0.027375
8.018,69.0159,0.027375
8.050,68.9849,0.027375
8.082,68.9522,0.027375
8.112,68.9228,0.027375
8.148,68.8860,0.027375
8.189,68.8457,0.010963
8.220,68.8142,0.010963
8.250,68.7838,0.010963
8.282,68.7509,0.010963
8.313,68.7213,0.010963
8.344,68.6906,0.010963
8.377,68.6571,0.010963
8.406,68.6286,0.009504
8.437,68.5967,0.009504
8.468,68.5669,0.009504
8.499,68.5357,0.009504
8.529,68.5055,0.009504
8.560,68.4748,0.009504
8.590,68.4441,0.009504
8.621,68.4131,0.009504
8.653,68.3816,0.009504
8.684,68.3506,0.009156
8.715,68.3197,0.009156
8.745,68.2893,0.009156
8.776,68.2583,0.009156
8.807,68.2270,0.009156
8.838,68.1963,0.009156
8.870,68.1646,0.009156
8.900,68.1349,0.009015
8.931,68.1033,0.009015
8.962,68.0729,0.009015
8.993,68.0404,0.009015
9.024,68.0104,0.009015
9.056,67.9780,0.009015
9.091,67.9428,0.009015
9.118,67.9167,0.009015
9.149,67.8857,0.009015
9.180,67.8555,0.008940
9.211,67.8268,0.008940
9.242,67.7984,0.008940
9.273,67.7709,0.008940
9.304,67.7442,0.008940
9.334,67.7179,0.008940
9.366,67.6926,0.008940
9.396,67.6679,0.008818
9.427,67.6444,0.008818
9.458,67.6206,0.008818
9.489,67.5979,0.008818
9.519,67.5773,0.008818
9.551,67.5553,0.008818
9.582,67.5354,0.008818
9.612,67.5158,0.008818
9.643,67.4972,0.008723
9.677,67.4768,0.008723
9.705,67.4611,0.008723
9.738,67.4437,0.008723
9.767,67.4283,0.008723
9.798,67.4124,0.008723
9.829,67.3984,0.008723
9.860,67.3848,0.008723
9.891,67.3719,0.008658
9.927,67.3574,0.008658
9.967,67.3422,0.008658
9.998,67.3316,0.008658
10.029,67.3215,0.008658
10.060,67.3126,0.008658
10.094,67.3033,0.008658
10.126,67.2956,0.008658
10.153,67.2894,0.008658
10.180,67.2838,0.008554
10.215,67.2776,0.008554
10.245,67.2729,0.008554
10.275,67.2689,0.008554
10.306,67.2656,0.008554
10.337,67.2629,0.008554
10.368,67.2609,0.008554
10.399,67.2596,0.008441
10.431,67.2592,0.008441
10.462,67.2592,0.008441
10.492,67.2592,0.008441
10.524,67.2592,0.008441
10.554,67.2593,0.008441
10.586,67.2601,0.008441
10.617,67.2619,0.008441
10.649,67.2641,0.008441
10.679,67.2672,0.008403
10.711,67.2709,0.008403
10.742,67.2755,0.008403
10.772,67.2807,0.008403
10.804,67.2867,0.008403
10.835,67.2934,0.008403
10.867,67.3009,0.008403
10.897,67.3089,0.008272
10.928,67.3179,0.008272
10.959,67.3276,0.008272
10.990,67.3378,0.008272
11.021,67.3491,0.008272
11.052,67.3608,0.008272
11.084,67.3735,0.008272
11.115,67.3874,0.008272
11.147,67.4015,0.008084
11.178,67.4163,0.008084
11.209,67.4319,0.008084
11.240,67.4483,0.008084
11.271,67.4648,0.008084
11.303,67.4829,0.008084
11.334,67.5011,0.008084
11.365,67.5205,0.008084
11.396,67.5406,0.007971
11.426,67.5608,0.007971
11.458,67.5821,0.007971
11.489,67.6047,0.007971
11.520,67.6273,0.007971
11.551,67.6507,0.007971
11.583,67.6761,0.007971
11.613,67.7003,0.007971
11.645,67.7266,0.007764
11.675,67.7520,0.007764
11.706,67.7793,0.007764
11.737,67.8077,0.007764
11.768,67.8354,0.007764
11.799,67.8655,0.007764
11.829,67.8938,0.007764
11.860,67.9249,0.007764
11.891,67.9553,0.007444
11.922,67.9870,0.007444
11.953,68.0173,0.007444
11.983,68.0486,0.007444
12.015,68.0793,0.007444
12.045,68.1095,0.007444
12.076,68.1402,0.007444
12.106,68.1710,0.007444
12.137,68.2028,0.007190
12.168,68.2329,0.007190
12.199,68.2641,0.007190
12.230,68.2949,0.007190
12.261,68.3251,0.007190
12.292,68.3570,0.007190
12.323,68.3870,0.007190
12.353,68.4179,0.007190
12.384,68.4488,0.006992
12.416,68.4809,0.006992
12.446,68.5108,0.006992
12.478,68.5424,0.006992
12.508,68.5734,0.006992
12.540,68.6044,0.006992
12.572,68.6359,0.006992
12.603,68.6678,0.006992
12.633,68.6975,0.006719
12.664,68.7292,0.006719
12.695,68.7602,0.006719
12.732,68.7970,0.006719
12.758,68.8220,0.006719
12.789,68.8541,0.006719
12.820,68.8850,0.006719
12.852,68.9162,0.006719
12.883,68.9471,0.006719
12.915,68.9797,0.006399
12.945,69.0096,0.006399
12.976,69.0410,0.006399
13.008,69.0722,0.006399
13.038,69.1033,0.006399
13.070,69.1343,0.006399
13.100,69.1649,0.006399
13.131,69.1953,0.006013
13.162,69.2264,0.006013
13.193,69.2575,0.006013
13.225,69.2897,0.006013
13.256,69.3207,0.006013
13.287,69.3520,0.006013
13.318,69.3821,0.006013
13.350,69.4144,0.006013
13.380,69.4446,0.005571
13.410,69.4746,0.005571
13.441,69.5053,0.005571
13.469,69.5334,0.005571
13.502,69.5665,0.005571
13.533,69.5972,0.005571
13.564,69.6291,0.005571
13.596,69.6605,0.005571
13.626,69.6908,0.005571
13.658,69.7229,0.005119
13.689,69.7536,0.005119
13.721,69.7851,0.005119
13.751,69.8158,0.005119
13.782,69.8473,0.005119
13.813,69.8783,0.005119
13.845,69.9099,0.005119
13.876,69.9402,0.005119
13.907,69.9717,0.004517
13.938,70.0027,0.004517
13.969,70.0342,0.004517
14.000,70.0653,0.004517
14.031,70.0966,0.004517
14.063,70.1273,0.004517
14.093,70.1587,0.004517
14.125,70.1899,0.004517
14.156,70.2210,0.003698
14.187,70.2520,0.003698
14.217,70.2828,0.003698
14.248,70.3132,0.003698
14.280,70.3440,0.003698
14.311,70.3759,0.003698
14.342,70.4062,0.003698
14.373,70.4377,0.003698
14.403,70.4670,0.002418
14.433,70.4979,0.002418
14.464,70.5285,0.002418
14.495,70.5597,0.002418
14.526,70.5903,0.002418
14.557,70.6213,0.002418
14.588,70.6522,0.002418
14.620,70.6843,0.002418
14.651,70.7149,0.000169
14.685,70.7494,0.000169
14.713,70.7773,0.000169
14.744,70.8088,0.000169
14.775,70.8393,0.000169
14.808,70.8732,0.000169
14.837,70.9013,0.000169
14.869,70.9335,0.000169
14.900,70.9640,-0.003792
14.931,70.9965,-0.003792
14.960,71.0256,-0.003792
14.992,71.0561,-0.003792
15.022,71.0871,-0.003792
15.053,71.1173,-0.003792
15.083,71.1480,-0.003792
15.114,71.1782,-0.003792
15.144,71.2092,-0.011208
15.175,71.2397,-0.011208
15.207,71.2714,-0.011208
15.237,71.3011,-0.011208
15.267,71.3323,-0.011208
15.298,71.3633,-0.011208
15.335,71.3998,-0.011208
15.376,71.4408,-0.011208
15.408,71.4728,-0.024439
15.438,71.5025,-0.024439
15.469,71.5335,-0.024439
15.500,71.5650,-0.024439
15.531,71.5959,-0.024439
15.562,71.6265,-0.024439
15.594,71.6566,-0.024439
15.624,71.6859,-0.024439
15.656,71.7153,-0.045462
15.687,71.7433,-0.045462
15.717,71.7695,-0.045462
15.749,71.7964,-0.045462
15.781,71.8226,-0.045462
15.812,71.8473,-0.045462
15.842,71.8715,-0.045462
15.873,71.8943,-0.045462
15.905,71.9172,-0.072742
15.936,71.9393,-0.072742
15.967,71.9604,-0.072742
15.998,71.9816,-0.072742
16.030,72.0014,-0.072742
16.061,72.0203,-0.072742
16.092,72.0388,-0.072742
16.123,72.0560,-0.072742
16.153,72.0730,-0.072742
16.184,72.0886,-0.101133
16.216,72.1044,-0.101133
16.246,72.1188,-0.101133
16.277,72.1328,-0.101133
16.309,72.1460,-0.101133
16.339,72.1583,-0.101133
16.369,72.1697,-0.101133
16.400,72.1810,-0.101133
16.434,72.1919,-0.133571
16.462,72.2006,-0.133571
16.496,72.2104,-0.133571
16.523,72.2175,-0.133571
16.554,72.2248,-0.133571
16.586,72.2317,-0.133571
16.616,72.2375,-0.133571
16.647,72.2427,-0.133571
16.678,72.2472,-0.182082
16.710,72.2511,-0.182082
16.741,72.2542,-0.182082
16.772,72.2566,-0.182082
16.803,72.2582,-0.182082
16.834,72.2590,-0.182082
16.865,72.2592,-0.182082
16.896,72.2592,-0.213192
16.928,72.2592,-0.213192
16.959,72.2592,-0.213192
16.989,72.2592,-0.213192
17.020,72.2592,-0.213192
17.052,72.2592,-0.213192
17.083,72.2592,-0.213192
17.114,72.2592,-0.213192
17.144,72.2592,-0.213192
17.177,72.2592,-0.184189
17.206,72.2592,-0.184189
17.238,72.2592,-0.184189
17.270,72.2592,-0.184189
17.301,72.2592,-0.184189
17.333,72.2592,-0.184189
17.363,72.2592,-0.184189
17.395,72.2592,-0.147000
17.427,72.2592,-0.147000
17.458,72.2592,-0.147000
17.489,72.2592,-0.147000
17.520,72.2592,-0.147000
17.550,72.2592,-0.147000
17.581,72.2592,-0.147000
17.613,72.2592,-0.147000
17.643,72.2592,-0.136272
17.674,72.2592,-0.136272
17.706,72.2592,-0.136272
17.737,72.2592,-0.136272
17.769,72.2592,-0.136272
17.800,72.2592,-0.136272
17.831,72.2592,-0.136272
17.861,72.2592,-0.136272
17.893,72.2592,-0.129760
17.924,72.2592,-0.129760
17.955,72.2592,-0.129760
17.988,72.2592,-0.129760
18.017,72.2592,-0.129760
18.053,72.2592,-0.129760
18.080,72.2592,-0.129760
18.112,72.2592,-0.129760
18.143,72.2592,-0.125045
18.174,72.2592,-0.125045
18.206,72.2592,-0.125045
18.236,72.2592,-0.125045
18.267,72.2592,-0.125045
18.297,72.2592,-0.125045
18.331,72.2592,-0.125045
18.359,72.2592,-0.125045
18.390,72.2592,-0.121479
18.422,72.2592,-0.121479
18.454,72.2592,-0.121479
18.484,72.2592,-0.121479
18.514,72.2592,-0.121479
18.545,72.2592,-0.121479
18.576,72.2592,-0.121479
18.608,72.2592,-0.121479
18.639,72.2592,-0.118618
18.670,72.2592,-0.118618
18.701,72.2592,-0.118618
18.732,72.2592,-0.118618
18.769,72.2592,-0.118618
18.794,72.2592,-0.118618
18.825,72.2592,-0.118618
18.856,72.2592,-0.118618
18.887,72.2592,-0.118618
18.916,72.2592,-0.116265
18.947,72.2592,-0.116265
18.978,72.2592,-0.116265
19.009,72.2592,-0.116265
19.039,72.2592,-0.116265
19.069,72.2592,-0.116265
19.099,72.2592,-0.116265
19.135,72.2592,-0.116265
19.161,72.2592,-0.116265
19.191,72.2592,-0.114204
19.223,72.2592,-0.114204
19.254,72.2592,-0.114204
19.285,72.2592,-0.114204
19.315,72.2592,-0.114204
19.346,72.2592,-0.114204
19.378,72.2592,-0.114204
19.409,72.2592,-0.112341
19.440,72.2592,-0.112341
19.471,72.2592,-0.112341
19.502,72.2592,-0.112341
19.534,72.2592,-0.112341
19.565,72.2592,-0.112341
19.597,72.2592,-0.112341
19.627,72.2592,-0.112341
19.658,72.2592,-0.110723
19.689,72.2592,-0.110723
19.721,72.2592,-0.110723
19.752,72.2592,-0.110723
19.782,72.2592,-0.110723
19.814,72.2592,-0.110723
19.845,72.2592,-0.110723
19.876,72.2592,-0.110723
19.908,72.2592,-0.109311
19.939,72.2592,-0.109311
19.969,72.2592,-0.109311
20.001,72.2592,-0.109311
20.032,72.2592,-0.109311
20.062,72.2592,-0.109311
20.093,72.2592,-0.109311
20.125,72.2592,-0.109311
20.156,72.2592,-0.108050
20.187,72.2592,-0.108050
20.218,72.2592,-0.108050
20.249,72.2592,-0.108050
20.279,72.2592,-0.108050
20.310,72.2592,-0.108050
20.342,72.2592,-0.108050
20.373,72.2592,-0.108050
20.404,72.2592,-0.106883
20.434,72.2592,-0.106883
20.465,72.2592,-0.106883
20.497,72.2592,-0.106883
20.528,72.2592,-0.106883
20.559,72.2592,-0.106883
20.591,72.2592,-0.106883
20.622,72.2592,-0.105679
20.653,72.2592,-0.105679
20.684,72.2592,-0.105679
20.715,72.2592,-0.105679
20.745,72.2592,-0.105679
20.776,72.2592,-0.105679
20.807,72.2592,-0.105679
20.839,72.2592,-0.105679
20.870,72.2592,-0.105679
20.900,72.2592,-0.104493
20.932,72.2592,-0.104493
20.963,72.2592,-0.104493
20.993,72.2592,-0.104493
21.024,72.2592,-0.104493
21.055,72.2592,-0.104493
21.086,72.2590,-0.104493
21.118,72.2583,-0.104493
21.150,72.2568,-0.103411
21.179,72.2547,-0.103411
21.213,72.2515,-0.103411
21.243,72.2480,-0.103411
21.273,72.2438,-0.103411
21.305,72.2386,-0.103411
21.336,72.2326,-0.103411
21.367,72.2260,-0.064536
21.397,72.2190,-0.064536
21.428,72.2108,-0.064536
21.459,72.2022,-0.064536
21.491,72.1923,-0.064536
21.521,72.1825,-0.064536
21.552,72.1715,-0.064536
21.587,72.1583,-0.064536
21.615,72.1470,-0.064536
21.646,72.1338,-0.064536
21.678,72.1195,-0.037510
21.710,72.1045,-0.037510
21.739,72.0900,-0.037510
21.770,72.0744,-0.037510
21.800,72.0579,-0.037510
21.832,72.0399,-0.037510
21.863,72.0218,-0.037510
21.894,72.0030,-0.037510
21.925,71.9835,-0.038705
21.956,71.9627,-0.038705
21.988,71.9412,-0.038705
22.019,71.9192,-0.038705
22.049,71.8971,-0.038705
22.080,71.8737,-0.038705
22.111,71.8502,-0.038705
22.142,71.8249,-0.038705
22.173,71.8000,-0.016176
22.204,71.7737,-0.016176
22.234,71.7468,-0.016176
22.265,71.7197,-0.016176
22.296,71.6917,-0.016176
22.334,71.6559,-0.016176
22.374,71.6165,-0.016176
22.404,71.5869,0.007161
22.435,71.5550,0.007161
22.466,71.5247,0.007161
22.497,71.4934,0.007161
22.529,71.4621,0.007161
22.559,71.4317,0.007161
22.591,71.4004,0.007161
22.622,71.3688,0.007161
22.653,71.3379,0.024938
22.684,71.3065,0.024938
22.715,71.2759,0.024938
22.746,71.2449,0.024938
22.776,71.2144,0.024938
22.808,71.1829,0.024938
22.839,71.1514,0.024938
22.874,71.1163,0.024938
22.902,71.0889,0.034508
22.933,71.0579,0.034508
22.963,71.0276,0.034508
22.994,70.9966,0.034508
23.026,70.9655,0.034508
23.056,70.9343,0.034508
23.087,70.9033,0.034508
23.117,70.8732,0.034508
23.148,70.8422,0.038263
23.180,70.8108,0.038263
23.211,70.7803,0.038263
23.242,70.7481,0.038263
23.273,70.7178,0.038263
23.305,70.6859,0.038263
23.336,70.6553,0.038263
23.367,70.6234,0.038263
23.398,70.5933,0.039975
23.431,70.5583,0.039975
23.460,70.5306,0.039975
23.491,70.5003,0.039975
23.522,70.4690,0.039975
23.553,70.4373,0.039975
23.584,70.4057,0.039975
23.615,70.3755,0.039975
23.647,70.3444,0.039975
23.677,70.3130,0.040916
23.709,70.2821,0.040916
23.740,70.2505,0.040916
23.772,70.2192,0.040916
23.802,70.1883,0.040916
23.833,70.1583,0.040916
23.863,70.1276,0.040916
23.895,70.0961,0.041490
23.925,70.0652,0.041490
23.956,70.0350,0.041490
23.987,70.0035,0.041490
24.018,69.9728,0.041490
24.050,69.9412,0.041490
24.080,69.9102,0.041490
24.111,69.8796,0.041490
24.142,69.8481,0.042582
24.178,69.8119,0.042582
24.219,69.7715,0.042582
24.250,69.7397,0.042582
24.281,69.7100,0.042582
24.312,69.6788,0.042582
24.343,69.6480,0.042582
24.374,69.6167,0.042582
24.405,69.5863,0.044436
24.436,69.5546,0.044436
24.467,69.5239,0.044436
24.498,69.4926,0.044436
24.528,69.4617,0.044436
24.560,69.4309,0.044436
24.591,69.4000,0.044436
24.623,69.3677,0.044436
24.653,69.3383,0.044746
24.685,69.3062,0.044746
24.715,69.2759,0.044746
24.746,69.2444,0.044746
24.777,69.2138,0.044746
24.809,69.1824,0.044746
24.839,69.1517,0.044746
24.873,69.1183,0.044746
24.901,69.0899,0.028598
24.932,69.0584,0.028598
24.963,69.0283,0.028598
24.994,68.9972,0.028598
25.024,68.9667,0.028598
25.056,68.9355,0.028598
25.086,68.9044,0.028598
25.122,68.8685,0.028598
25.163,68.8269,0.011499
25.195,68.7959,0.011499
25.226,68.7647,0.011499
25.257,68.7338,0.011499
25.287,68.7040,0.011499
25.318,68.6728,0.011499
25.350,68.6413,0.011499
25.380,68.6114,0.009542
25.411,68.5798,0.009542
25.441,68.5491,0.009542
25.475,68.5161,0.009542
25.504,68.4870,0.009542
25.535,68.4555,0.009542
25.566,68.4247,0.009542
25.602,68.3893,0.009542
25.630,68.3604,0.009185
25.661,68.3295,0.009185
25.691,68.2995,0.009185
25.722,68.2691,0.009185
25.752,68.2383,0.009185
25.784,68.2062,0.009185
25.815,68.1762,0.009185
25.846,68.1443,0.009185
25.878,68.1128,0.009185
25.909,68.0817,0.009043
25.940,68.0503,0.009043
25.970,68.0198,0.009043
26.002,67.9893,0.009043
26.033,67.9573,0.009043
26.068,67.9223,0.009043
26.094,67.8968,0.009043
26.126,67.8650,0.009043
26.156,67.8354,0.009034
26.187,67.8053,0.009034
26.218,67.7768,0.009034
26.248,67.7488,0.009034
26.278,67.7220,0.009034
26.310,67.6947,0.009034
26.342,67.6677,0.009034
26.373,67.6420,0.009034
26.403,67.6178,0.009034
26.434,67.5943,0.008978
26.465,67.5707,0.008978
26.496,67.5476,0.008978
26.527,67.5260,0.008978
26.559,67.5047,0.008978
26.589,67.4845,0.008978
26.621,67.4643,0.008978
26.652,67.4459,0.008808
26.683,67.4275,0.008808
26.713,67.4101,0.008808
26.744,67.3935,0.008808
26.775,67.3778,0.008808
26.806,67.3625,0.008808
26.837,67.3478,0.008808
26.868,67.3337,0.008808
26.900,67.3207,0.008658
26.931,67.3080,0.008658
26.962,67.2966,0.008658
26.993,67.2854,0.008658
27.024,67.2755,0.008658
27.055,67.2658,0.008658
27.086,67.2573,0.008658
27.117,67.2494,0.008658
27.148,67.2419,0.008554
27.178,67.2356,0.008554
27.209,67.2298,0.008554
27.239,67.2247,0.008554
27.269,67.2205,0.008554
27.300,67.2169,0.008554
27.331,67.2139,0.008554
27.362,67.2116,0.008554
27.392,67.2102,0.008451
27.424,67.2093,0.008451
27.455,67.2092,0.008451
27.486,67.2092,0.008451
27.517,67.2092,0.008451
27.548,67.2092,0.008451
27.578,67.2092,0.008451
27.610,67.2092,0.008451
27.641,67.2092,0.008441
27.672,67.2092,0.008441
27.704,67.2092,0.008441
27.735,67.2092,0.008441
27.765,67.2092,0.008441
27.796,67.2092,0.008441
27.828,67.2092,0.008441
27.860,67.2092,0.008441
27.891,67.2092,0.008469
27.922,67.2092,0.008469
27.953,67.2092,0.008469
27.985,67.2092,0.008469
28.015,67.2092,0.008469
28.046,67.2092,0.008469
28.077,67.2092,0.008469
28.108,67.2094,0.008469
28.139,67.2103,0.008413
28.171,67.2120,0.008413
28.202,67.2144,0.008413
28.232,67.2175,0.008413
28.266,67.2216,0.008413
28.294,67.2257,0.008413
28.325,67.2310,0.008413
28.356,67.2371,0.008413
28.387,67.2436,0.008413
28.417,67.2508,0.008262
28.449,67.2594,0.008262
28.481,67.2683,0.008262
28.512,67.2784,0.008262
28.544,67.2889,0.008262
28.574,67.2997,0.008262
28.605,67.3115,0.008262
28.636,67.3244,0.008262
28.667,67.3378,0.008093
28.699,67.3514,0.008093
28.729,67.3666,0.008093
28.760,67.3816,0.008093
28.791,67.3983,0.008093
28.822,67.4148,0.008093
28.853,67.4325,0.008093
28.884,67.4508,0.008093
28.915,67.4702,0.007989
28.945,67.4892,0.007989
28.976,67.5098,0.007989
29.007,67.5305,0.007989
29.037,67.5522,0.007989
29.068,67.5754,0.007989
29.099,67.5982,0.007989
29.130,67.6224,0.007989
29.160,67.6467,0.007782
29.191,67.6725,0.007782
29.222,67.6979,0.007782
29.253,67.7257,0.007782
29.284,67.7534,0.007782
29.317,67.7835,0.007782
29.348,67.8134,0.007782
29.378,67.8429,0.007782
29.409,67.8728,0.007519
29.440,67.9033,0.007519
29.472,67.9351,0.007519
29.502,67.9661,0.007519
29.534,67.9978,0.007519
29.565,68.0286,0.007519
29.595,68.0590,0.007519
29.627,68.0909,0.007519
29.658,68.1212,0.007519
29.688,68.1516,0.007284
29.719,68.1824,0.007284
29.750,68.2138,0.007284
29.781,68.2441,0.007284
29.812,68.2754,0.007284
29.843,68.3064,0.007284
29.874,68.3375,0.007284
29.905,68.3685,0.007001
29.936,68.3999,0.007001
29.968,68.4312,0.007001
29.997,68.4614,0.007001
30.028,68.4916,0.007001
30.064,68.5288,0.007001
30.091,68.5540,0.007001
30.122,68.5856,0.007001
30.153,68.6162,0.006663
30.186,68.6504,0.006663
30.214,68.6780,0.006663
30.245,68.7084,0.006663
30.277,68.7407,0.006663
30.307,68.7700,0.006663
30.338,68.8009,0.006663
30.369,68.8325,0.006663
30.399,68.8631,0.006390
30.434,68.8977,0.006390
30.461,68.9239,0.006390
30.491,68.9541,0.006390
30.522,68.9848,0.006390
30.553,69.0166,0.006390
30.584,69.0468,0.006390
30.615,69.0787,0.006390
30.646,69.1093,0.006117
30.677,69.1412,0.006117
30.708,69.1720,0.006117
30.739,69.2026,0.006117
30.770,69.2331,0.006117
30.801,69.2651,0.006117
30.832,69.2949,0.006117
30.863,69.3277,0.006117
30.894,69.3575,0.005703
30.925,69.3885,0.005703
30.957,69.4200,0.005703
30.988,69.4510,0.005703
31.019,69.4829,0.005703
31.050,69.5136,0.005703
31.081,69.5439,0.005703
31.111,69.5747,0.005703
31.142,69.6057,0.005195
31.175,69.6383,0.005195
31.204,69.6676,0.005195
31.236,69.6998,0.005195
31.267,69.7301,0.005195
31.298,69.7614,0.005195
31.329,69.7927,0.005195
31.359,69.8225,0.005195
31.390,69.8538,0.004602
31.421,69.8856,0.004602
31.453,69.9161,0.004602
31.484,69.9479,0.004602
31.515,69.9785,0.004602
31.546,70.0094,0.004602
31.577,70.0414,0.004602
31.607,70.0708,0.004602
31.639,70.1029,0.003858
31.669,70.1324,0.003858
31.701,70.1648,0.003858
31.732,70.1957,0.003858
31.762,70.2257,0.003858
31.792,70.2561,0.003858
31.823,70.2862,0.003858
31.855,70.3186,0.003858
31.886,70.3489,0.002654
31.916,70.3802,0.002654
31.947,70.4101,0.002654
31.978,70.4420,0.002654
32.009,70.4723,0.002654
32.040,70.5030,0.002654
32.070,70.5345,0.002654
32.103,70.5669,0.002654
32.132,70.5953,0.002654
32.163,70.6259,0.000687
32.193,70.6573,0.000687
32.225,70.6880,0.000687
32.256,70.7203,0.000687
32.287,70.7505,0.000687
32.318,70.7813,0.000687
32.349,70.8128,0.000687
32.380,70.8439,-0.002851
32.412,70.8755,-0.002851
32.442,70.9056,-0.002851
32.474,70.9377,-0.002851
32.506,70.9689,-0.002851
32.537,71.0002,-0.002851
32.568,71.0317,-0.002851
32.599,71.0623,-0.002851
32.629,71.0936,-0.002851
32.660,71.1232,-0.002851
32.691,71.1550,-0.009486
32.722,71.1852,-0.009486
32.754,71.2179,-0.009486
32.786,71.2490,-0.009486
32.817,71.2807,-0.009486
32.848,71.3107,-0.009486
32.879,71.3432,-0.009486
32.910,71.3731,-0.021409
32.941,71.4048,-0.021409
32.973,71.4359,-0.021409
33.004,71.4671,-0.021409
33.036,71.4990,-0.021409
33.067,71.5301,-0.021409
33.098,71.5618,-0.021409
33.129,71.5923,-0.021409
33.161,71.6229,-0.021409
33.190,71.6496,-0.040945
33.221,71.6777,-0.040945
33.252,71.7050,-0.040945
33.283,71.7318,-0.040945
33.314,71.7579,-0.040945
33.345,71.7825,-0.040945
33.375,71.8075,-0.040945
33.406,71.8307,-0.040945
33.437,71.8538,-0.067482
33.468,71.8763,-0.067482
33.499,71.8984,-0.067482
33.531,71.9190,-0.067482
33.564,71.9409,-0.067482
33.593,71.9589,-0.067482
33.623,71.9774,-0.067482
33.654,71.9947,-0.096099
33.687,72.0137,-0.096099
33.716,72.0288,-0.096099
33.746,72.0443,-0.096099
33.777,72.0594,-0.096099
33.809,72.0740,-0.096099
33.843,72.0892,-0.096099
33.871,72.1009,-0.096099
33.901,72.1128,-0.096099
33.932,72.1240,-0.126118
33.970,72.1374,-0.126118
34.010,72.1498,-0.126118
34.042,72.1588,-0.126118
34.071,72.1666,-0.126118
34.102,72.1741,-0.126118
34.137,72.1816,-0.172323
34.165,72.1871,-0.172323
34.196,72.1924,-0.172323
34.227,72.1970,-0.172323
34.260,72.2011,-0.172323
34.288,72.2038,-0.172323
34.320,72.2063,-0.172323
34.351,72.2081,-0.172323
34.382,72.2089,-0.172323
34.414,72.2092,-0.172323
34.445,72.2092,-0.213192
34.475,72.2092,-0.213192
34.506,72.2092,-0.213192
34.538,72.2092,-0.213192
34.570,72.2092,-0.213192
34.601,72.2092,-0.213192
34.632,72.2092,-0.213192
34.664,72.2092,-0.191915
34.696,72.2092,-0.191915
34.726,72.2092,-0.191915
34.757,72.2092,-0.191915
34.789,72.2092,-0.191915
34.820,72.2092,-0.191915
34.852,72.2092,-0.191915
34.884,72.2092,-0.191915
34.914,72.2092,-0.151300
34.945,72.2092,-0.151300
34.977,72.2092,-0.151300
35.008,72.2092,-0.151300
35.038,72.2092,-0.151300
35.070,72.2092,-0.151300
35.100,72.2092,-0.151300
35.131,72.2092,-0.151300
35.162,72.2092,-0.138474
35.192,72.2092,-0.138474
35.223,72.2092,-0.138474
35.255,72.2092,-0.138474
35.286,72.2092,-0.138474
35.317,72.2092,-0.138474
35.349,72.2092,-0.138474
35.378,72.2092,-0.138474
35.409,72.2092,-0.131425
35.447,72.2092,-0.131425
35.488,72.2092,-0.131425
35.520,72.2092,-0.131425
35.549,72.2092,-0.131425
35.581,72.2092,-0.131425
35.611,72.2092,-0.131425
35.643,72.2092,-0.126438
35.675,72.2092,-0.126438
35.705,72.2092,-0.126438
35.738,72.2092,-0.126438
35.766,72.2092,-0.126438
35.796,72.2092,-0.126438
35.827,72.2092,-0.126438
35.857,72.2092,-0.126438
35.889,72.2092,-0.122589
35.920,72.2092,-0.122589
35.951,72.2092,-0.122589
35.982,72.2092,-0.122589
36.013,72.2092,-0.122589
36.047,72.2092,-0.122589
36.075,72.2092,-0.122589
36.106,72.2092,-0.122589
36.136,72.2092,-0.122589
36.167,72.2092,-0.119512
36.196,72.2092,-0.119512
36.228,72.2092,-0.119512
36.259,72.2092,-0.119512
36.290,72.2092,-0.119512
36.322,72.2092,-0.119512
36.353,72.2092,-0.119512
36.384,72.2092,-0.116999
36.418,72.2092,-0.116999
36.445,72.2092,-0.116999
36.476,72.2092,-0.116999
36.508,72.2092,-0.116999
36.538,72.2092,-0.116999
36.569,72.2092,-0.116999
36.600,72.2092,-0.116999
36.631,72.2092,-0.114882
36.661,72.2092,-0.114882
36.693,72.2092,-0.114882
36.724,72.2092,-0.114882
36.755,72.2092,-0.114882
36.786,72.2092,-0.114882
36.818,72.2092,-0.114882
36.848,72.2092,-0.114882
36.880,72.2092,-0.113019
36.911,72.2092,-0.113019
36.942,72.2092,-0.113019
36.973,72.2092,-0.113019
37.004,72.2092,-0.113019
37.035,72.2092,-0.113019
37.065,72.2092,-0.113019
37.097,72.2092,-0.113019
37.127,72.2092,-0.111372
37.158,72.2092,-0.111372
37.189,72.2092,-0.111372
37.220,72.2092,-0.111372
37.251,72.2092,-0.111372
37.281,72.2092,-0.111372
37.312,72.2092,-0.111372
37.342,72.2092,-0.111372
37.374,72.2092,-0.111372
37.403,72.2092,-0.109847
37.434,72.2092,-0.109847
37.466,72.2092,-0.109847
37.497,72.2092,-0.109847
37.528,72.2092,-0.109847
37.559,72.2092,-0.109847
37.589,72.2092,-0.109847
37.620,72.2092,-0.109847
37.651,72.2092,-0.108549
37.682,72.2092,-0.108549
37.714,72.2092,-0.108549
37.745,72.2092,-0.108549
37.776,72.2092,-0.108549
37.807,72.2092,-0.108549
37.838,72.2092,-0.108549
37.868,72.2092,-0.108549
37.900,72.2092,-0.107382
37.931,72.2092,-0.107382
37.962,72.2092,-0.107382
37.993,72.2092,-0.107382
38.024,72.2092,-0.107382
38.055,72.2092,-0.107382
38.085,72.2092,-0.107382
38.117,72.2092,-0.107382
38.148,72.2092,-0.106130
38.179,72.2092,-0.106130
38.210,72.2092,-0.106130
38.241,72.2092,-0.106130
38.273,72.2092,-0.106130
38.305,72.2092,-0.106130
38.336,72.2092,-0.106130
38.365,72.2092,-0.106130
38.396,72.2092,-0.104954
38.427,72.2092,-0.104954
38.458,72.2092,-0.104954
38.489,72.2092,-0.104954
38.521,72.2092,-0.104954
38.553,72.2092,-0.104954
38.583,72.2092,-0.104954
38.615,72.2092,-0.104954
38.646,72.2092,-0.103891
38.677,72.2089,-0.103891
38.707,72.2079,-0.103891
38.740,72.2061,-0.103891
38.770,72.2037,-0.103891
38.800,72.2005,-0.103891
38.832,72.1966,-0.103891
38.862,72.1921,-0.103891
38.892,72.1870,-0.103891
38.923,72.1809,-0.092457
38.954,72.1742,-0.092457
38.984,72.1666,-0.092457
39.016,72.1584,-0.092457
39.046,72.1495,-0.092457
39.077,72.1400,-0.092457
39.108,72.1294,-0.092457
39.138,72.1186,-0.065976
39.170,72.1069,-0.065976
39.200,72.0945,-0.065976
39.231,72.0812,-0.065976
39.261,72.0675,-0.065976
39.292,72.0525,-0.065976
39.323,72.0378,-0.065976
39.354,72.0214,-0.065976
39.384,72.0049,-0.043212
39.417,71.9862,-0.043212
39.446,71.9693,-0.043212
39.472,71.9528,-0.043212
39.508,71.9305,-0.043212
39.539,71.9095,-0.043212
39.570,71.8888,-0.043212
39.601,71.8664,-0.043212
39.632,71.8437,-0.023780
39.663,71.8206,-0.023780
39.694,71.7964,-0.023780
39.725,71.7711,-0.023780
39.757,71.7443,-0.023780
39.789,71.7183,-0.023780
39.820,71.6906,-0.023780
39.850,71.6631,-0.023780
39.882,71.6349,-0.023780
39.913,71.6046,0.000056
39.944,71.5745,0.000056
39.975,71.5439,0.000056
40.006,71.5137,0.000056
40.037,71.4828,0.000056
40.068,71.4518,0.000056
40.100,71.4199,0.000056
40.130,71.3888,0.020101
40.163,71.3565,0.020101
40.193,71.3266,0.020101
40.224,71.2950,0.020101
40.255,71.2640,0.020101
40.286,71.2336,0.020101
40.317,71.2028,0.020101
40.347,71.1716,0.020101
40.378,71.1415,0.032136
40.409,71.1098,0.032136
40.441,71.0780,0.032136
40.471,71.0484,0.032136
40.504,71.0152,0.032136
40.534,70.9853,0.032136
40.565,70.9541,0.032136
40.596,70.9237,0.032136
40.627,70.8925,0.032136
40.657,70.8622,0.037143
40.689,70.8303,0.037143
40.720,70.7996,0.037143
40.751,70.7681,0.037143
40.781,70.7386,0.037143
40.813,70.7061,0.037143
40.844,70.6751,0.037143
40.876,70.6436,0.037143
40.907,70.6118,0.039288
40.937,70.5820,0.039288
40.968,70.5520,0.039288
40.998,70.5215,0.039288
41.029,70.4903,0.039288
41.060,70.4591,0.039288
41.091,70.4292,0.039288
41.122,70.3972,0.039288
41.153,70.3668,0.040493
41.185,70.3341,0.040493
41.216,70.3034,0.040493
41.247,70.2716,0.040493
41.279,70.2409,0.040493
41.309,70.2099,0.040493
41.339,70.1802,0.040493
41.370,70.1499,0.040493
41.401,70.1179,0.041086
41.431,70.0881,0.041086
41.463,70.0556,0.041086
41.494,70.0252,0.041086
41.526,69.9940,0.041086
41.556,69.9626,0.041086
41.587,69.9324,0.041086
41.618,69.9008,0.041086
41.649,69.8700,0.041086
41.680,69.8386,0.041820
41.711,69.8083,0.041820
41.742,69.7778,0.041820
41.773,69.7464,0.041820
41.804,69.7149,0.041820
41.835,69.6846,0.041820
41.867,69.6519,0.041820
41.898,69.6217,0.043532
41.928,69.5910,0.043532
41.960,69.5593,0.043532
41.990,69.5284,0.043532
42.022,69.4976,0.043532
42.057,69.4609,0.043532
42.083,69.4365,0.043532
42.114,69.4056,0.043532
42.145,69.3744,0.044784
42.180,69.3391,0.044784
42.207,69.3129,0.044784
42.237,69.2822,0.044784
42.269,69.2508,0.044784
42.300,69.2195,0.044784
42.331,69.1891,0.044784
42.362,69.1573,0.044784
42.393,69.1266,0.031911
42.426,69.0936,0.031911
42.455,69.0641,0.031911
42.492,69.0274,0.031911
42.518,69.0006,0.031911
42.550,68.9699,0.031911
42.581,68.9390,0.031911
42.611,68.9088,0.031911
42.642,68.8777,0.014548
42.674,68.8450,0.014548
42.705,68.8144,0.014548
42.737,68.7828,0.014548
42.767,68.7523,0.014548
42.798,68.7216,0.014548
42.830,68.6899,0.014548
42.861,68.6584,0.014548
42.892,68.6277,0.009806
42.924,68.5956,0.009806
42.955,68.5649,0.009806
42.986,68.5332,0.009806
43.017,68.5024,0.009806
43.047,68.4715,0.009806
43.078,68.4413,0.009806
43.109,68.4101,0.009806
43.140,68.3791,0.009269
43.171,68.3477,0.009269
43.202,68.3168,0.009269
43.234,68.2859,0.009269
43.265,68.2547,0.009269
43.296,68.2233,0.009269
43.326,68.1938,0.009269
43.357,68.1619,0.009269
43.388,68.1322,0.009109
43.419,68.0999,0.009109
43.450,68.0699,0.009109
43.482,68.0374,0.009109
43.512,68.0070,0.009109
43.544,67.9746,0.009109
43.576,67.9435,0.009109
43.606,67.9130,0.009109
43.637,67.8830,0.009081
43.668,67.8516,0.009081
43.698,67.8218,0.009081
43.729,67.7907,0.009081
43.761,67.7597,0.009081
43.792,67.7304,0.009081
43.824,67.7018,0.009081
43.855,67.6735,0.009081
43.885,67.6472,0.009081
43.916,67.6204,0.008959
43.947,67.5959,0.008959
43.978,67.5708,0.008959
44.008,67.5476,0.008959
44.038,67.5244,0.008959
44.070,67.5017,0.008959
44.101,67.4792,0.008959
44.132,67.4583,0.008827
44.162,67.4371,0.008827
44.193,67.4185,0.008827
44.224,67.3993,0.008827
44.254,67.3817,0.008827
44.285,67.3638,0.008827
44.317,67.3465,0.008827
44.348,67.3305,0.008827
44.379,67.3146,0.008723
44.410,67.3005,0.008723
44.441,67.2863,0.008723
44.472,67.2732,0.008723
44.503,67.2606,0.008723
44.533,67.2489,0.008723
44.565,67.2379,0.008723
44.596,67.2274,0.008723
44.627,67.2179,0.008723
44.658,67.2090,0.008601
44.689,67.2010,0.008601
44.720,67.1933,0.008601
44.752,67.1866,0.008601
44.784,67.1805,0.008601
44.814,67.1753,0.008601
44.845,67.1708,0.008601
44.876,67.1671,0.008535
44.907,67.1640,0.008535
44.938,67.1618,0.008535
44.969,67.1602,0.008535
45.000,67.1593,0.008535
45.031,67.1592,0.008535
45.062,67.1592,0.008535
45.093,67.1592,0.008535
45.124,67.1592,0.008535
45.155,67.1592,0.008498
45.188,67.1593,0.008498
45.216,67.1598,0.008498
45.247,67.1612,0.008498
45.277,67.1632,0.008498
45.307,67.1658,0.008498
45.338,67.1692,0.008498
45.370,67.1735,0.008498
45.401,67.1785,0.008403
45.433,67.1844,0.008403
45.464,67.1908,0.008403
45.495,67.1981,0.008403
45.526,67.2058,0.008403
45.557,67.2145,0.008403
45.587,67.2234,0.008403
45.618,67.2337,0.008403
45.650,67.2443,0.008243
45.681,67.2562,0.008243
45.713,67.2685,0.008243
45.744,67.2822,0.008243
45.774,67.2946,0.008243
45.804,67.3096,0.008243
45.836,67.3245,0.008243
45.866,67.3399,0.008243
45.897,67.3563,0.008102
45.928,67.3740,0.008102
45.959,67.3921,0.008102
45.990,67.4103,0.008102
46.021,67.4302,0.008102
46.052,67.4500,0.008102
46.083,67.4710,0.008102
46.113,67.4926,0.008102
46.145,67.5150,0.007933
46.178,67.5403,0.007933
46.206,67.5620,0.007933
46.237,67.5860,0.007933
46.268,67.6110,0.007933
46.299,67.6372,0.007933
46.329,67.6637,0.007933
46.360,67.6901,0.007933
46.391,67.7194,0.007660
46.422,67.7484,0.007660
46.453,67.7774,0.007660
46.487,67.8104,0.007660
46.517,67.8406,0.007660
46.548,67.8716,0.007660
46.579,67.9032,0.007660
46.611,67.9342,0.007660
46.642,67.9658,0.007660
46.672,67.9958,0.007415
46.704,68.0278,0.007415
46.735,68.0586,0.007415
46.766,68.0902,0.007415
46.797,68.1207,0.007415
46.828,68.1517,0.007415
46.859,68.1824,0.007415
46.889,68.2134,0.007199
46.921,68.2441,0.007199
46.953,68.2769,0.007199
46.985,68.3084,0.007199
47.017,68.3413,0.007199
47.049,68.3723,0.007199
47.081,68.4043,0.007199
47.112,68.4351,0.007199
47.142,68.4657,0.007199
47.172,68.4950,0.006926
47.205,68.5280,0.006926
47.236,68.5603,0.006926
47.267,68.5900,0.006926
47.298,68.6213,0.006926
47.330,68.6535,0.006926
47.360,68.6837,0.006926
47.392,68.7158,0.006559
47.424,68.7474,0.006559
47.456,68.7794,0.006559
47.487,68.8107,0.006559
47.517,68.8404,0.006559
47.548,68.8721,0.006559
47.578,68.9017,0.006559
47.609,68.9328,0.006559
47.640,68.9643,0.006230
47.672,68.9952,0.006230
47.703,69.0259,0.006230
47.734,69.0574,0.006230
47.765,69.0886,0.006230
47.795,69.1181,0.006230
47.826,69.1495,0.006230
47.857,69.1803,0.006230
47.888,69.2119,0.005919
47.919,69.2428,0.005919
47.950,69.2734,0.005919
47.981,69.3043,0.005919
48.012,69.3354,0.005919
48.044,69.3669,0.005919
48.075,69.3989,0.005919
48.106,69.4293,0.005919
48.137,69.4611,0.005449
48.169,69.4924,0.005449
48.200,69.5241,0.005449
48.230,69.5541,0.005449
48.261,69.5852,0.005449
48.293,69.6172,0.005449
48.323,69.6470,0.005449
48.354,69.6777,0.005449
48.385,69.7092,0.004875
48.418,69.7417,0.004875
48.449,69.7731,0.004875
48.480,69.8036,0.004875
48.511,69.8350,0.004875
48.542,69.8656,0.004875
48.573,69.8965,0.004875
48.604,69.9284,0.004875
48.635,69.9588,0.004159
48.667,69.9899,0.004159
48.698,70.0219,0.004159
48.729,70.0533,0.004159
48.762,70.0854,0.004159
48.792,70.1155,0.004159
48.822,70.1463,0.004159
48.854,70.1773,0.004159
48.886,70.2093,0.003181
48.916,70.2394,0.003181
48.947,70.2703,0.003181
48.978,70.3022,0.003181
49.010,70.3333,0.003181
49.041,70.3647,0.003181
49.072,70.3953,0.003181
49.102,70.4256,0.003181
49.135,70.4581,0.001572
49.164,70.4870,0.001572
49.195,70.5186,0.001572
49.226,70.5500,0.001572
49.258,70.5811,0.001572
49.290,70.6132,0.001572
49.319,70.6433,0.001572
49.353,70.6769,0.001572
49.383,70.7065,0.001572
49.413,70.7364,-0.001233
49.445,70.7690,-0.001233
49.475,70.7993,-0.001233
49.507,70.8299,-0.001233
49.538,70.8618,-0.001233
49.569,70.8922,-0.001233
49.600,70.9240,-0.001233
49.631,70.9541,-0.001233
49.662,70.9856,-0.001233
49.692,71.0156,-0.006484
49.723,71.0470,-0.006484
49.754,71.0776,-0.006484
49.786,71.1102,-0.006484
49.818,71.1410,-0.006484
49.849,71.1726,-0.006484
49.880,71.2038,-0.006484
49.911,71.2350,-0.006484
49.942,71.2649,-0.016205
49.974,71.2975,-0.016205
50.004,71.3274,-0.016205
50.034,71.3574,-0.016205
50.065,71.3891,-0.016205
50.096,71.4191,-0.016205
50.127,71.4506,-0.016205
50.158,71.4812,-0.032776
50.189,71.5128,-0.032776
50.220,71.5425,-0.032776
50.251,71.5718,-0.032776
50.282,71.6008,-0.032776
50.312,71.6286,-0.032776
50.343,71.6560,-0.032776
50.374,71.6831,-0.032776
50.406,71.7096,-0.057309
50.438,71.7355,-0.057309
50.468,71.7590,-0.057309
50.501,71.7843,-0.057309
50.530,71.8058,-0.057309
50.562,71.8283,-0.057309
50.592,71.8501,-0.057309
50.623,71.8706,-0.057309
50.654,71.8908,-0.085813
50.690,71.9134,-0.085813
50.716,71.9285,-0.085813
50.747,71.9471,-0.085813
50.778,71.9640,-0.085813
50.808,71.9800,-0.085813
50.839,71.9956,-0.085813
50.870,72.0107,-0.085813
50.901,72.0248,-0.085813
50.932,72.0388,-0.114092
50.964,72.0518,-0.114092
50.995,72.0642,-0.114092
51.026,72.0756,-0.114092
51.058,72.0863,-0.114092
51.088,72.0961,-0.114092
51.119,72.1052,-0.153869
51.150,72.1138,-0.153869
51.181,72.1217,-0.153869
51.212,72.1286,-0.153869
51.245,72.1353,-0.153869
51.275,72.1407,-0.153869
51.307,72.1455,-0.153869
51.338,72.1496,-0.153869
51.369,72.1531,-0.153869
51.400,72.1557,-0.203453
51.431,72.1576,-0.203453
51.462,72.1587,-0.203453
51.493,72.1592,-0.203453
51.524,72.1592,-0.203453
51.554,72.1592,-0.203453
51.585,72.1592,-0.203453
51.617,72.1592,-0.203453
51.647,72.1592,-0.203453
51.679,72.1592,-0.202577
51.709,72.1592,-0.202577
51.741,72.1592,-0.202577
51.771,72.1592,-0.202577
51.803,72.1592,-0.202577
51.834,72.1592,-0.202577
51.865,72.1592,-0.202577
51.897,72.1592,-0.202577
51.928,72.1592,-0.162470
51.959,72.1592,-0.162470
51.990,72.1592,-0.162470
52.020,72.1592,-0.162470
52.052,72.1592,-0.162470
52.083,72.1592,-0.162470
52.114,72.1592,-0.162470
52.146,72.1592,-0.162470
52.176,72.1592,-0.141890
52.208,72.1592,-0.141890
52.239,72.1592,-0.141890
52.271,72.1592,-0.141890
52.302,72.1592,-0.141890
52.333,72.1592,-0.141890
52.364,72.1592,-0.141890
52.395,72.1592,-0.141890
52.425,72.1592,-0.133515
52.455,72.1592,-0.133515
52.487,72.1592,-0.133515
52.518,72.1592,-0.133515
52.548,72.1592,-0.133515
52.579,72.1592,-0.133515
52.609,72.1592,-0.133515
52.641,72.1592,-0.133515
52.672,72.1592,-0.127906
52.703,72.1592,-0.127906
52.734,72.1592,-0.127906
52.764,72.1592,-0.127906
52.795,72.1592,-0.127906
52.826,72.1592,-0.127906
52.856,72.1592,-0.127906
52.890,72.1592,-0.127906
52.918,72.1592,-0.127906
52.949,72.1592,-0.123775
52.979,72.1592,-0.123775
53.010,72.1592,-0.123775
53.040,72.1592,-0.123775
53.072,72.1592,-0.123775
53.102,72.1592,-0.123775
53.133,72.1592,-0.123775
53.163,72.1592,-0.120547
53.194,72.1592,-0.120547
53.224,72.1592,-0.120547
53.254,72.1592,-0.120547
53.285,72.1592,-0.120547
53.320,72.1592,-0.120547
53.348,72.1592,-0.120547
53.379,72.1592,-0.120547
53.409,72.1592,-0.117875
53.444,72.1592,-0.117875
53.471,72.1592,-0.117875
53.502,72.1592,-0.117875
53.531,72.1592,-0.117875
53.561,72.1592,-0.117875
53.592,72.1592,-0.117875
53.622,72.1592,-0.117875
53.654,72.1592,-0.117875
53.684,72.1592,-0.115607
53.715,72.1592,-0.115607
53.746,72.1592,-0.115607
53.777,72.1592,-0.115607
53.808,72.1592,-0.115607
53.839,72.1592,-0.115607
53.869,72.1592,-0.115607
53.901,72.1592,-0.113706
53.931,72.1592,-0.113706
53.961,72.1592,-0.113706
53.993,72.1592,-0.113706
54.024,72.1592,-0.113706
54.055,72.1592,-0.113706
54.086,72.1592,-0.113706
54.118,72.1592,-0.113706
54.148,72.1592,-0.111993
54.181,72.1592,-0.111993
54.212,72.1592,-0.111993
54.243,72.1592,-0.111993
54.275,72.1592,-0.111993
54.306,72.1592,-0.111993
54.338,72.1592,-0.111993
54.369,72.1592,-0.111993
54.400,72.1592,-0.110459
54.432,72.1592,-0.110459
54.463,72.1592,-0.110459
54.493,72.1592,-0.110459
54.524,72.1592,-0.110459
54.557,72.1592,-0.110459
54.587,72.1592,-0.110459
54.618,72.1592,-0.110459
54.649,72.1592,-0.109085
54.680,72.1592,-0.109085
54.710,72.1592,-0.109085
54.741,72.1592,-0.109085
54.773,72.1592,-0.109085
54.805,72.1592,-0.109085
54.835,72.1592,-0.109085
54.866,72.1592,-0.109085
54.897,72.1592,-0.107805
54.929,72.1592,-0.107805
54.959,72.1592,-0.107805
54.990,72.1592,-0.107805
55.023,72.1592,-0.107805
55.054,72.1592,-0.107805
55.085,72.1592,-0.107805
55.116,72.1592,-0.107805
55.147,72.1592,-0.106620
55.178,72.1592,-0.106620
55.210,72.1592,-0.106620
55.241,72.1592,-0.106620
55.272,72.1592,-0.106620
55.302,72.1592,-0.106620
55.333,72.1592,-0.106620
55.364,72.1592,-0.106620
55.396,72.1592,-0.105425
55.427,72.1592,-0.105425
55.458,72.1592,-0.105425
55.491,72.1592,-0.105425
55.519,72.1592,-0.105425
55.550,72.1592,-0.105425
55.581,72.1592,-0.105425
55.612,72.1592,-0.105425
55.645,72.1592,-0.105425
55.674,72.1592,-0.105425
55.705,72.1592,-0.104258
55.736,72.1592,-0.104258
55.769,72.1586,-0.104258
55.799,72.1573,-0.104258
55.833,72.1551,-0.104258
55.861,72.1525,-0.104258
55.892,72.1491,-0.104258
55.922,72.1449,-0.103260
55.953,72.1401,-0.103260
55.986,72.1343,-0.103260
56.014,72.1284,-0.103260
56.045,72.1214,-0.103260
56.076,72.1136,-0.103260
56.110,72.1041,-0.103260
56.138,72.0957,-0.103260
56.169,72.0856,-0.103260
56.200,72.0750,-0.070484
56.231,72.0636,-0.070484
56.261,72.0518,-0.070484
56.296,72.0374,-0.070484
56.324,72.0252,-0.070484
56.356,72.0102,-0.070484
56.387,71.9955,-0.070484
56.418,71.9790,-0.040361
56.448,71.9632,-0.040361
56.480,71.9455,-0.040361
56.512,71.9271,-0.040361
56.545,71.9064,-0.040361
56.575,71.8880,-0.040361
56.606,71.8679,-0.040361
56.638,71.8464,-0.030998
56.669,71.8249,-0.030998
56.700,71.8025,-0.030998
56.731,71.7782,-0.030998
56.762,71.7550,-0.030998
56.793,71.7296,-0.030998
56.825,71.7049,-0.030998
56.855,71.6788,-0.030998
56.886,71.6522,-0.007237
56.917,71.6239,-0.007237
56.947,71.5972,-0.007237
56.978,71.5676,-0.007237
57.010,71.5376,-0.007237
57.041,71.5077,-0.007237
57.072,71.4767,-0.007237
57.103,71.4461,-0.007237
57.134,71.4141,0.014671
57.165,71.3834,0.014671
57.196,71.3530,0.014671
57.226,71.3217,0.014671
57.257,71.2914,0.014671
57.290,71.2579,0.014671
57.319,71.2291,0.014671
57.352,71.1954,0.014671
57.381,71.1674,0.014671
57.412,71.1362,0.029483
57.443,71.1050,0.029483
57.475,71.0730,0.029483
57.505,71.0435,0.029483
57.536,71.0121,0.029483
57.567,70.9813,0.029483
57.598,70.9510,0.029483
57.629,70.9202,0.036381
57.660,70.8889,0.036381
57.691,70.8573,0.036381
57.722,70.8264,0.036381
57.752,70.7957,0.036381
57.783,70.7650,0.036381
57.814,70.7340,0.036381
57.845,70.7030,0.036381
57.876,70.6718,0.039063
57.908,70.6400,0.039063
57.939,70.6089,0.039063
57.971,70.5778,0.039063
58.002,70.5461,0.039063
58.034,70.5151,0.039063
58.064,70.4851,0.039063
58.094,70.4545,0.039063
58.125,70.4234,0.039063
58.156,70.3919,0.040399
58.188,70.3605,0.040399
58.218,70.3303,0.040399
58.249,70.2988,0.040399
58.280,70.2685,0.040399
58.311,70.2374,0.040399
58.342,70.2071,0.040399
58.373,70.1749,0.040399
58.405,70.1441,0.041058
58.436,70.1124,0.041058
58.467,70.0812,0.041058
58.498,70.0502,0.041058
58.529,70.0195,0.041058
58.560,69.9882,0.041058
58.591,69.9579,0.041058
58.621,69.9274,0.041058
58.652,69.8965,0.041707
58.683,69.8653,0.041707
58.714,69.8341,0.041707
58.746,69.8026,0.041707
58.777,69.7714,0.041707
58.808,69.7409,0.041707
58.839,69.7089,0.041707
58.871,69.6771,0.041707
58.902,69.6465,0.043297
58.934,69.6141,0.043297
58.965,69.5831,0.043297
58.996,69.5525,0.043297
59.028,69.5201,0.043297
59.058,69.4901,0.043297
59.089,69.4588,0.043297
59.120,69.4286,0.043297
59.151,69.3979,0.045179
59.181,69.3673,0.045179
59.212,69.3363,0.045179
59.244,69.3040,0.045179
59.275,69.2742,0.045179
59.306,69.2428,0.045179
59.337,69.2115,0.045179
59.368,69.1804,0.045179
59.399,69.1501,0.041377
59.430,69.1178,0.041377
59.461,69.0874,0.041377
59.492,69.0571,0.041377
59.523,69.0259,0.041377
59.555,68.9939,0.041377
59.586,68.9625,0.041377
59.617,68.9317,0.041377
59.646,68.9016,0.023921
59.677,68.8713,0.023921
59.708,68.8402,0.023921
59.739,68.8093,0.023921
59.771,68.7779,0.023921
59.802,68.7466,0.023921
59.832,68.7167,0.023921
59.863,68.6848,0.023921
59.894,68.6540,0.010304
59.925,68.6235,0.010304
59.957,68.5914,0.010304
59.987,68.5611,0.010304
60.018,68.5301,0.010304
60.050,68.4983,0.010304
60.084,68.4644,0.010304
60.112,68.4370,0.010304
60.143,68.4051,0.010304
60.173,68.3752,0.009476
60.204,68.3444,0.009476
60.235,68.3137,0.009476
60.266,68.2827,0.009476
60.297,68.2520,0.009476
60.328,68.2203,0.009476
60.359,68.1898,0.009476
60.390,68.1584,0.009476
60.420,68.1284,0.009213
60.452,68.0967,0.009213
60.483,68.0659,0.009213
60.514,68.0343,0.009213
60.545,68.0035,0.009213
60.576,67.9725,0.009213
60.607,67.9413,0.009213
60.638,67.9100,0.009043
60.671,67.8778,0.009043
60.702,67.8462,0.009043
60.733,67.8163,0.009043
60.764,67.7849,0.009043
60.794,67.7550,0.009043
60.825,67.7247,0.009043
60.856,67.6946,0.009043
60.887,67.6657,0.009043
60.918,67.6377,0.009025
60.949,67.6105,0.009025
60.979,67.5847,0.009025
61.010,67.5592,0.009025
61.041,67.5339,0.009025
61.072,67.5087,0.009025
61.104,67.4850,0.009025
61.135,67.4619,0.009025
61.165,67.4395,0.008921
61.196,67.4183,0.008921
61.227,67.3976,0.008921
61.258,67.3770,0.008921
61.289,67.3582,0.008921
61.321,67.3385,0.008921
61.351,67.3215,0.008921
61.382,67.3040,0.008921
61.414,67.2874,0.008761
61.446,67.2711,0.008761
61.476,67.2568,0.008761
61.507,67.2423,0.008761
61.537,67.2291,0.008761
61.569,67.2156,0.008761
61.600,67.2037,0.008761
61.631,67.1924,0.008761
61.662,67.1819,0.008695
61.693,67.1717,0.008695
61.724,67.1628,0.008695
61.755,67.1541,0.008695
61.787,67.1463,0.008695
61.817,67.1395,0.008695
61.848,67.1333,0.008695
61.879,67.1276,0.008695
61.911,67.1228,0.008620
61.941,67.1188,0.008620
61.973,67.1154,0.008620
62.004,67.1127,0.008620
62.035,67.1108,0.008620
62.067,67.1096,0.008620
62.098,67.1092,0.008620
62.128,67.1092,0.008620
62.158,67.1092,0.008545
62.190,67.1092,0.008545
62.220,67.1092,0.008545
62.253,67.1097,0.008545
62.283,67.1109,0.008545
62.314,67.1129,0.008545
62.345,67.1155,0.008545
62.377,67.1191,0.008545
62.407,67.1231,0.008545
62.438,67.1282,0.008488
62.469,67.1336,0.008488
62.501,67.1401,0.008488
62.532,67.1472,0.008488
62.563,67.1550,0.008488
62.593,67.1633,0.008488
62.625,67.1728,0.008488
62.656,67.1826,0.008309
62.688,67.1939,0.008309
62.719,67.2052,0.008309
62.751,67.2181,0.008309
62.782,67.2309,0.008309
62.814,67.2448,0.008309
62.845,67.2593,0.008309
62.875,67.2743,0.008309
62.907,67.2905,0.008131
62.938,67.3071,0.008131
62.969,67.3240,0.008131
62.999,67.3419,0.008131
63.030,67.3606,0.008131
63.061,67.3797,0.008131
63.092,67.4002,0.008131
63.123,67.4210,0.008131
63.155,67.4430,0.007989
63.185,67.4654,0.007989
63.210,67.4841,0.007989
63.247,67.5122,0.007989
63.278,67.5365,0.007989
63.308,67.5620,0.007989
63.339,67.5872,0.007989
63.371,67.6145,0.007764
63.401,67.6411,0.007764
63.431,67.6690,0.007764
63.462,67.6976,0.007764
63.493,67.7267,0.007764
63.524,67.7586,0.007764
63.555,67.7885,0.007764
63.586,67.8200,0.007764
63.617,67.8509,0.007764
63.648,67.8821,0.007764
63.679,67.9128,0.007491
63.711,67.9445,0.007491
63.740,67.9734,0.007491
63.767,68.0007,0.007491
63.802,68.0360,0.007491
63.834,68.0672,0.007491
63.865,68.0983,0.007491
63.896,68.1292,0.007199
63.927,68.1604,0.007199
63.958,68.1913,0.007199
63.989,68.2227,0.007199
64.020,68.2544,0.007199
64.052,68.2852,0.007199
64.083,68.3165,0.007199
64.114,68.3470,0.006973
64.145,68.3787,0.006973
64.176,68.4087,0.006973
64.207,68.4402,0.006973
64.238,68.4714,0.006973
64.270,68.5029,0.006973
64.300,68.5339,0.006973
64.331,68.5647,0.006973
64.363,68.5965,0.006973
64.395,68.6284,0.006681
64.425,68.6585,0.006681
64.456,68.6903,0.006681
64.487,68.7208,0.006681
64.519,68.7526,0.006681
64.549,68.7827,0.006681
64.586,68.8195,0.006681
64.627,68.8605,0.006681
64.658,68.8912,0.006324
64.689,68.9222,0.006324
64.720,68.9533,0.006324
64.751,68.9847,0.006324
64.783,69.0159,0.006324
64.814,69.0471,0.006324
64.843,69.0763,0.006324
64.874,69.1078,0.006324
64.905,69.1388,0.005994
64.938,69.1722,0.005994
64.967,69.2006,0.005994
64.999,69.2321,0.005994
65.030,69.2631,0.005994
65.060,69.2935,0.005994
65.092,69.3256,0.005994
65.123,69.3564,0.005994
65.154,69.3876,0.005580
65.186,69.4191,0.005580
65.217,69.4500,0.005580
65.248,69.4818,0.005580
65.278,69.5117,0.005580
65.310,69.5433,0.005580
65.341,69.5739,0.005580
65.372,69.6063,0.005580
65.404,69.6367,0.005063
65.435,69.6684,0.005063
65.465,69.6983,0.005063
65.496,69.7298,0.005063
65.527,69.7598,0.005063
65.559,69.7921,0.005063
65.589,69.8225,0.005063
65.620,69.8541,0.005063
65.651,69.8845,0.004338
65.681,69.9146,0.004338
65.712,69.9456,0.004338
65.744,69.9771,0.004338
65.775,70.0087,0.004338
65.805,70.0388,0.004338
65.836,70.0689,0.004338
65.867,70.1007,0.004338
65.898,70.1312,0.004338
65.929,70.1627,0.003360
65.960,70.1932,0.003360
65.990,70.2238,0.003360
66.022,70.2552,0.003360
66.053,70.2862,0.003360
66.084,70.3172,0.003360
66.116,70.3491,0.003360
66.146,70.3792,0.001910
66.178,70.4117,0.001910
66.209,70.4418,0.001910
66.240,70.4737,0.001910
66.271,70.5041,0.001910
66.302,70.5357,0.001910
66.334,70.5676,0.001910
66.366,70.5993,0.001910
66.396,70.6297,-0.000743
66.427,70.6605,-0.000743
66.458,70.6914,-0.000743
66.489,70.7229,-0.000743
66.519,70.7529,-0.000743
66.552,70.7845,-0.000743
66.582,70.8149,-0.000743
66.613,70.8463,-0.000743
66.644,70.8777,-0.005533
66.676,70.9099,-0.005533
66.707,70.9407,-0.005533
66.738,70.9714,-0.005533
66.769,71.0028,-0.005533
66.800,71.0344,-0.005533
66.832,71.0658,-0.005533
66.862,71.0962,-0.005533
66.894,71.1269,-0.014360
66.925,71.1583,-0.014360
66.956,71.1898,-0.014360
66.987,71.2208,-0.014360
67.019,71.2525,-0.014360
67.049,71.2822,-0.014360
67.081,71.3153,-0.014360
67.111,71.3451,-0.014360
67.143,71.3761,-0.029690
67.173,71.4071,-0.029690
67.204,71.4376,-0.029690
67.236,71.4700,-0.029690
67.272,71.5041,-0.029690
67.298,71.5295,-0.029690
67.330,71.5577,-0.029690
67.360,71.5865,-0.029690
67.392,71.6132,-0.029690
67.423,71.6403,-0.053093
67.454,71.6657,-0.053093
67.484,71.6909,-0.053093
67.516,71.7157,-0.053093
67.548,71.7392,-0.053093
67.578,71.7614,-0.053093
67.609,71.7839,-0.053093
67.640,71.8052,-0.081456
67.672,71.8264,-0.081456
67.702,71.8458,-0.081456
67.733,71.8651,-0.081456
67.765,71.8837,-0.081456
67.795,71.9009,-0.081456
67.826,71.9185,-0.081456
67.857,71.9345,-0.081456
67.889,71.9503,-0.081456
67.920,71.9653,-0.109744
67.951,71.9796,-0.109744
67.983,71.9930,-0.109744
68.013,72.0058,-0.109744
68.044,72.0174,-0.109744
68.075,72.0290,-0.109744
68.107,72.0395,-0.109744
68.138,72.0491,-0.109744
68.170,72.0582,-0.146661
68.200,72.0665,-0.146661
68.232,72.0741,-0.146661
68.262,72.0809,-0.146661
68.294,72.0870,-0.146661
68.325,72.0923,-0.146661
68.356,72.0969,-0.146661
68.387,72.1008,-0.146661
68.418,72.1039,-0.196828
68.450,72.1064,-0.196828
68.480,72.1080,-0.196828
68.512,72.1090,-0.196828
68.543,72.1092,-0.196828
68.574,72.1092,-0.196828
68.605,72.1092,-0.196828
68.636,72.1092,-0.196828
68.666,72.1092,-0.207546
68.698,72.1092,-0.207546
68.729,72.1092,-0.207546
68.760,72.1092,-0.207546
68.792,72.1092,-0.207546
68.823,72.1092,-0.207546
68.853,72.1092,-0.207546
68.885,72.1092,-0.170544
68.915,72.1092,-0.170544
68.946,72.1092,-0.170544
68.978,72.1092,-0.170544
69.008,72.1092,-0.170544
69.038,72.1092,-0.170544
69.070,72.1092,-0.170544
69.101,72.1092,-0.170544
69.132,72.1092,-0.144017
69.162,72.1092,-0.144017
69.194,72.1092,-0.144017
69.225,72.1092,-0.144017
69.256,72.1092,-0.144017
69.288,72.1092,-0.144017
69.319,72.1092,-0.144017
69.351,72.1092,-0.144017
69.382,72.1092,-0.134710
69.413,72.1092,-0.134710
69.444,72.1092,-0.134710
69.475,72.1092,-0.134710
69.506,72.1092,-0.134710
69.537,72.1092,-0.134710
69.567,72.1092,-0.134710
69.598,72.1092,-0.134710
69.629,72.1092,-0.134710
69.659,72.1092,-0.128734
69.691,72.1092,-0.128734
69.721,72.1092,-0.128734
69.752,72.1092,-0.128734
69.783,72.1092,-0.128734
69.813,72.1092,-0.128734
69.845,72.1092,-0.128734
69.875,72.1092,-0.124415
69.906,72.1092,-0.124415
69.937,72.1092,-0.124415
69.968,72.1092,-0.124415
69.998,72.1092,-0.124415
70.029,72.1092,-0.124415
70.061,72.1092,-0.124415
70.091,72.1092,-0.124415
70.122,72.1092,-0.124415
70.153,72.1092,-0.121074
70.183,72.1092,-0.121074
70.210,72.1092,-0.121074
70.245,72.1092,-0.121074
70.275,72.1092,-0.121074
70.306,72.1092,-0.121074
70.336,72.1092,-0.121074
70.368,72.1092,-0.121074
70.400,72.1092,-0.118336
70.431,72.1092,-0.118336
70.462,72.1092,-0.118336
70.493,72.1092,-0.118336
70.524,72.1092,-0.118336
70.554,72.1092,-0.118336
70.585,72.1092,-0.118336
70.617,72.1092,-0.118336
70.647,72.1092,-0.116021
70.678,72.1092,-0.116021
70.709,72.1092,-0.116021
70.739,72.1092,-0.116021
70.770,72.1092,-0.116021
70.800,72.1092,-0.116021
70.831,72.1092,-0.116021
70.862,72.1092,-0.116021
70.893,72.1092,-0.114063
70.925,72.1092,-0.114063
70.956,72.1092,-0.114063
70.987,72.1092,-0.114063
71.018,72.1092,-0.114063
71.050,72.1092,-0.114063
71.081,72.1092,-0.114063
71.111,72.1092,-0.114063
71.142,72.1092,-0.114063
71.173,72.1092,-0.112304
71.203,72.1092,-0.112304
71.234,72.1092,-0.112304
71.265,72.1092,-0.112304
71.296,72.1092,-0.112304
71.328,72.1092,-0.112304
71.359,72.1092,-0.112304
71.389,72.1092,-0.112304
71.420,72.1092,-0.110723
71.451,72.1092,-0.110723
71.482,72.1092,-0.110723
71.513,72.1092,-0.110723
71.543,72.1092,-0.110723
71.578,72.1092,-0.110723
71.606,72.1092,-0.110723
71.638,72.1092,-0.110723
71.669,72.1092,-0.109330
71.700,72.1092,-0.109330
71.730,72.1092,-0.109330
71.764,72.1092,-0.109330
71.792,72.1092,-0.109330
71.823,72.1092,-0.109330
71.854,72.1092,-0.109330
71.888,72.1092,-0.109330
71.917,72.1092,-0.108097
71.948,72.1092,-0.108097
71.979,72.1092,-0.108097
72.010,72.1092,-0.108097
72.041,72.1092,-0.108097
72.072,72.1092,-0.108097
72.103,72.1092,-0.108097
72.135,72.1092,-0.108097
72.172,72.1092,-0.106940
72.212,72.1092,-0.106940
72.243,72.1092,-0.106940
72.274,72.1092,-0.106940
72.308,72.1092,-0.106940
72.334,72.1092,-0.106940
72.365,72.1092,-0.106940
72.397,72.1092,-0.105782
72.428,72.1092,-0.105782
72.459,72.1092,-0.105782
72.491,72.1092,-0.105782
72.522,72.1092,-0.105782
72.553,72.1092,-0.105782
72.584,72.1092,-0.105782
72.615,72.1092,-0.105782
72.646,72.1092,-0.105782
72.678,72.1092,-0.104568
72.708,72.1092,-0.104568
72.738,72.1092,-0.104568
72.770,72.1092,-0.104568
72.801,72.1088,-0.104568
72.831,72.1078,-0.104568
72.862,72.1061,-0.104568
72.894,72.1035,-0.104568
72.925,72.1003,-0.103853
72.955,72.0964,-0.103853
72.987,72.0916,-0.103853
73.017,72.0863,-0.103853
73.048,72.0802,-0.103853
73.079,72.0734,-0.103853
73.110,72.0657,-0.103853
73.142,72.0572,-0.063247
73.173,72.0481,-0.063247
73.205,72.0381,-0.063247
73.235,72.0275,-0.063247
73.266,72.0163,-0.063247
73.298,72.0042,-0.063247
73.329,71.9915,-0.063247
73.359,71.9785,-0.063247
73.390,71.9641,-0.034122
73.421,71.9492,-0.034122
73.451,71.9342,-0.034122
73.483,71.9176,-0.034122
73.514,71.9004,-0.034122
73.545,71.8821,-0.034122
73.576,71.8639,-0.034122
73.612,71.8413,-0.034122
73.639,71.8240,-0.034122
73.670,71.8035,-0.034621
73.700,71.7824,-0.034621
73.731,71.7606,-0.034621
73.762,71.7381,-0.034621
73.793,71.7142,-0.034621
73.824,71.6894,-0.034621
73.855,71.6640,-0.034621
73.886,71.6385,-0.011415
73.917,71.6125,-0.011415
73.948,71.5851,-0.011415
73.980,71.5559,-0.011415
74.011,71.5279,-0.011415
74.041,71.4989,-0.011415
74.073,71.4676,-0.011415
74.103,71.4376,-0.011415
74.134,71.4059,0.011189
74.165,71.3757,0.011189
74.196,71.3440,0.011189
74.227,71.3130,0.011189
74.259,71.2812,0.011189
74.290,71.2507,0.011189
74.322,71.2185,0.011189
74.353,71.1875,0.011189
74.384,71.1561,0.027394
74.415,71.1263,0.027394
74.445,71.0956,0.027394
74.477,71.0642,0.027394
74.508,71.0329,0.027394
74.539,71.0014,0.027394
74.567,70.9733,0.027394
74.600,70.9408,0.027394
74.631,70.9097,0.027394
74.662,70.8788,0.035430
74.692,70.8486,0.035430
74.723,70.8176,0.035430
74.754,70.7869,0.035430
74.785,70.7557,0.035430
74.816,70.7250,0.035430
74.847,70.6937,0.035430
74.877,70.6630,0.035430
74.909,70.6316,0.038601
74.940,70.6015,0.038601
74.972,70.5692,0.038601
75.002,70.5393,0.038601
75.033,70.5074,0.038601
75.064,70.4767,0.038601
75.093,70.4482,0.038601
75.126,70.4149,0.038601
75.157,70.3831,0.040248
75.188,70.3527,0.040248
75.219,70.3215,0.040248
75.250,70.2904,0.040248
75.287,70.2534,0.040248
75.313,70.2277,0.040248
75.345,70.1955,0.040248
75.376,70.1643,0.041086
75.407,70.1338,0.041086
75.438,70.1028,0.041086
75.469,70.0718,0.041086
75.500,70.0407,0.041086
75.533,70.0079,0.041086
75.562,69.9790,0.041086
75.593,69.9476,0.041086
75.624,69.9171,0.041086
75.656,69.8850,0.041481
75.688,69.8529,0.041481
75.719,69.8220,0.041481
75.750,69.7903,0.041481
75.782,69.7592,0.041481
75.813,69.7276,0.041481
75.844,69.6970,0.041481
75.874,69.6662,0.041481
75.906,69.6347,0.041481
75.937,69.6042,0.042629
75.968,69.5727,0.042629
75.999,69.5422,0.042629
76.030,69.5110,0.042629
76.061,69.4797,0.042629
76.093,69.4478,0.042629
76.124,69.4175,0.042629
76.154,69.3870,0.044445
76.185,69.3560,0.044445
76.216,69.3245,0.044445
76.246,69.2947,0.044445
76.278,69.2634,0.044445
76.308,69.2320,0.044445
76.340,69.2012,0.044445
76.371,69.1704,0.044445
76.401,69.1392,0.042977
76.433,69.1078,0.042977
76.465,69.0761,0.042977
76.496,69.0456,0.042977
76.525,69.0157,0.042977
76.556,68.9848,0.042977
76.587,68.9537,0.042977
76.618,68.9226,0.042977
76.650,68.8912,0.042977
76.681,68.8604,0.026086
76.712,68.8293,0.026086
76.743,68.7975,0.026086
76.774,68.7668,0.026086
76.806,68.7345,0.026086
76.836,68.7045,0.026086
76.866,68.6739,0.026086
76.899,68.6423,0.010643
76.930,68.6111,0.010643
76.960,68.5804,0.010643
76.991,68.5492,0.010643
77.023,68.5179,0.010643
77.058,68.4828,0.010643
77.084,68.4560,0.010643
77.116,68.4251,0.010643
77.146,68.3941,0.009523
77.178,68.3630,0.009523
77.208,68.3320,0.009523
77.239,68.3017,0.009523
77.271,68.2701,0.009523
77.302,68.2384,0.009523
77.334,68.2071,0.009523
77.365,68.1759,0.009523
77.396,68.1448,0.009241
77.427,68.1140,0.009241
77.458,68.0830,0.009241
77.489,68.0509,0.009241
77.521,68.0200,0.009241
77.553,67.9880,0.009241
77.584,67.9570,0.009241
77.615,67.9259,0.009241
77.646,67.8951,0.009137
77.677,67.8640,0.009137
77.708,67.8333,0.009137
77.740,67.8010,0.009137
77.771,67.7700,0.009137
77.803,67.7381,0.009137
77.832,67.7080,0.009137
77.864,67.6775,0.009137
77.895,67.6472,0.009090
77.926,67.6184,0.009090
77.957,67.5902,0.009090
77.988,67.5633,0.009090
78.019,67.5365,0.009090
78.053,67.5083,0.009090
78.083,67.4843,0.009090
78.113,67.4601,0.009090
78.144,67.4360,0.008978
78.174,67.4137,0.008978
78.205,67.3916,0.008978
78.237,67.3698,0.008978
78.267,67.3491,0.008978
78.298,67.3285,0.008978
78.329,67.3093,0.008978
78.360,67.2909,0.008978
78.391,67.2730,0.008846
78.423,67.2552,0.008846
78.453,67.2388,0.008846
78.488,67.2213,0.008846
78.515,67.2078,0.008846
78.547,67.1934,0.008846
78.578,67.1798,0.008846
78.612,67.1658,0.008846
78.639,67.1548,0.008770
78.671,67.1434,0.008770
78.701,67.1328,0.008770
78.733,67.1226,0.008770
78.764,67.1133,0.008770
78.794,67.1050,0.008770
78.824,67.0977,0.008770
78.856,67.0901,0.008770
78.888,67.0835,0.008686
78.919,67.0780,0.008686
78.950,67.0732,0.008686
78.981,67.0691,0.008686
79.015,67.0654,0.008686
79.043,67.0629,0.008686
79.074,67.0610,0.008686
79.105,67.0597,0.008686
79.137,67.0592,0.008545
79.168,67.0592,0.008545
79.198,67.0592,0.008545
79.229,67.0592,0.008545
79.261,67.0592,0.008545
79.292,67.0592,0.008545
79.323,67.0593,0.008545
79.354,67.0602,0.008545
79.386,67.0618,0.008545
79.416,67.0641,0.008498
79.447,67.0670,0.008498
79.477,67.0708,0.008498
79.507,67.0752,0.008498
79.539,67.0804,0.008498
79.570,67.0863,0.008498
79.600,67.0930,0.008498
79.632,67.1003,0.008498
79.662,67.1082,0.008403
79.693,67.1169,0.008403
79.724,67.1264,0.008403
79.755,67.1370,0.008403
79.787,67.1481,0.008403
79.818,67.1601,0.008403
79.849,67.1725,0.008403
79.880,67.1859,0.008403
79.912,67.1996,0.008196
79.943,67.2146,0.008196
79.974,67.2298,0.008196
80.005,67.2466,0.008196
80.035,67.2626,0.008196
80.068,67.2811,0.008196
80.099,67.2991,0.008196
80.129,67.3186,0.008196
80.159,67.3367,0.008074
80.190,67.3571,0.008074
80.221,67.3790,0.008074
80.253,67.4012,0.008074
80.283,67.4241,0.008074
80.316,67.4475,0.008074
80.345,67.4707,0.008074
80.376,67.4957,0.008074
80.407,67.5208,0.008074
80.438,67.5473,0.007867
80.468,67.5735,0.007867
80.499,67.6020,0.007867
80.531,67.6304,0.007867
80.561,67.6591,0.007867
80.592,67.6888,0.007867
80.623,67.7198,0.007867
80.654,67.7502,0.007622
80.684,67.7813,0.007622
80.715,67.8113,0.007622
80.745,67.8424,0.007622
80.777,67.8738,0.007622
80.807,67.9039,0.007622
80.840,67.9376,0.007622
80.870,67.9657,0.007622
80.901,67.9975,0.007406
80.932,68.0290,0.007406
80.964,68.0596,0.007406
80.994,68.0906,0.007406
81.027,68.1231,0.007406
81.058,68.1551,0.007406
81.089,68.1847,0.007406
81.120,68.2165,0.007406
81.151,68.2477,0.007133
81.183,68.2799,0.007133
81.214,68.3106,0.007133
81.244,68.3409,0.007133
81.274,68.3714,0.007133
81.306,68.4018,0.007133
81.337,68.4333,0.007133
81.368,68.4648,0.007133
81.400,68.4963,0.006851
81.431,68.5282,0.006851
81.463,68.5592,0.006851
81.494,68.5904,0.006851
81.524,68.6204,0.006851
81.555,68.6516,0.006851
81.586,68.6826,0.006851
81.618,68.7139,0.006851
81.648,68.7447,0.006851
81.679,68.7757,0.006531
81.710,68.8073,0.006531
81.741,68.8378,0.006531
81.771,68.8682,0.006531
81.802,68.8984,0.006531
81.834,68.9304,0.006531
81.864,68.9601,0.006531
81.896,68.9923,0.006531
81.927,69.0228,0.006173
81.958,69.0548,0.006173
81.989,69.0860,0.006173
82.021,69.1169,0.006173
82.052,69.1486,0.006173
82.083,69.1794,0.006173
82.114,69.2108,0.006173
82.144,69.2405,0.006173
82.175,69.2719,0.005797
82.205,69.3011,0.005797
82.236,69.3318,0.005797
82.267,69.3627,0.005797
82.297,69.3933,0.005797
82.328,69.4242,0.005797
82.358,69.4540,0.005797
82.389,69.4860,0.005797
82.420,69.5169,0.005298
82.454,69.5509,0.005298
82.483,69.5789,0.005298
82.515,69.6109,0.005298
82.545,69.6410,0.005298
82.575,69.6714,0.005298
82.606,69.7025,0.005298
82.637,69.7330,0.005298
82.668,69.7639,0.004649
82.699,69.7954,0.004649
82.731,69.8269,0.004649
82.762,69.8584,0.004649
82.792,69.8886,0.004649
82.823,69.9199,0.004649
82.854,69.9505,0.004649
82.885,69.9808,0.004649
82.916,70.0119,0.003783
82.946,70.0426,0.003783
82.977,70.0732,0.003783
83.008,70.1044,0.003783
83.039,70.1350,0.003783
83.070,70.1665,0.003783
83.101,70.1970,0.003783
83.132,70.2286,0.003783
83.163,70.2585,0.002550
83.194,70.2908,0.002550
83.225,70.3210,0.002550
83.260,70.3569,0.002550
83.287,70.3838,0.002550
83.318,70.4149,0.002550
83.349,70.4447,0.002550
83.380,70.4768,0.002550
83.412,70.5081,0.000395
83.448,70.5447,0.000395
83.489,70.5850,0.000395
83.520,70.6168,0.000395
83.551,70.6478,0.000395
83.583,70.6792,0.000395
83.614,70.7097,0.000395
83.645,70.7411,0.000395
83.676,70.7726,-0.003444
83.708,70.8040,-0.003444
83.740,70.8361,-0.003444
83.770,70.8667,-0.003444
83.802,70.8990,-0.003444
83.832,70.9286,-0.003444
83.865,70.9611,-0.003444
83.894,70.9900,-0.003444
83.926,71.0228,-0.010549
83.958,71.0538,-0.010549
83.989,71.0855,-0.010549
84.020,71.1158,-0.010549
84.052,71.1489,-0.010549
84.083,71.1788,-0.010549
84.114,71.2099,-0.010549
84.144,71.2403,-0.023328
84.175,71.2713,-0.023328
84.205,71.3013,-0.023328
84.236,71.3325,-0.023328
84.267,71.3631,-0.023328
84.298,71.3945,-0.023328
84.329,71.4247,-0.023328
84.360,71.4552,-0.023328
84.391,71.4841,-0.043928
84.422,71.5130,-0.043928
84.453,71.5406,-0.043928
84.489,71.5716,-0.043928
84.529,71.6069,-0.043928
84.561,71.6322,-0.043928
84.592,71.6566,-0.043928
84.623,71.6802,-0.071265
84.654,71.7030,-0.071265
84.685,71.7264,-0.071265
84.716,71.7473,-0.071265
84.748,71.7688,-0.071265
84.779,71.7889,-0.071265
84.810,71.8088,-0.071265
84.841,71.8277,-0.071265
84.872,71.8453,-0.099985
84.903,71.8627,-0.099985
84.933,71.8787,-0.099985
84.964,71.8948,-0.099985
84.995,71.9095,-0.099985
85.027,71.9244,-0.099985
85.058,71.9382,-0.099985
85.088,71.9507,-0.099985
85.119,71.9629,-0.099985
85.149,71.9741,-0.131614
85.181,71.9848,-0.131614
85.211,71.9949,-0.131614
85.242,72.0043,-0.131614
85.274,72.0128,-0.131614
85.305,72.0208,-0.131614
85.333,72.0272,-0.131614
85.367,72.0342,-0.131614
85.399,72.0401,-0.179230
85.430,72.0450,-0.179230
85.460,72.0492,-0.179230
85.491,72.0525,-0.179230
85.523,72.0554,-0.179230
85.554,72.0575,-0.179230
85.586,72.0587,-0.179230
85.617,72.0592,-0.213710
85.648,72.0592,-0.213710
85.679,72.0592,-0.213710
85.709,72.0592,-0.213710
85.740,72.0592,-0.213710
85.772,72.0592,-0.213710
85.803,72.0592,-0.213710
85.833,72.0592,-0.213710
85.864,72.0592,-0.213710
85.895,72.0592,-0.187445
85.926,72.0592,-0.187445
85.957,72.0592,-0.187445
85.987,72.0592,-0.187445
86.018,72.0592,-0.187445
86.050,72.0592,-0.187445
86.081,72.0592,-0.187445
86.112,72.0592,-0.187445
86.143,72.0592,-0.187445
86.174,72.0592,-0.148976
86.205,72.0592,-0.148976
86.237,72.0592,-0.148976
86.268,72.0592,-0.148976
86.299,72.0592,-0.148976
86.330,72.0592,-0.148976
86.361,72.0592,-0.148976
86.392,72.0592,-0.148976
86.423,72.0592,-0.148976
86.454,72.0592,-0.137382
86.485,72.0592,-0.137382
86.516,72.0592,-0.137382
86.546,72.0592,-0.137382
86.577,72.0592,-0.137382
86.608,72.0592,-0.137382
86.640,72.0592,-0.137382
86.671,72.0592,-0.130616
86.701,72.0592,-0.130616
86.732,72.0592,-0.130616
86.763,72.0592,-0.130616
86.794,72.0592,-0.130616
86.827,72.0592,-0.130616
86.857,72.0592,-0.130616
86.888,72.0592,-0.130616
86.918,72.0592,-0.125798
86.950,72.0592,-0.125798
86.981,72.0592,-0.125798
87.012,72.0592,-0.125798
87.043,72.0592,-0.125798
87.074,72.0592,-0.125798
87.105,72.0592,-0.125798
87.135,72.0592,-0.125798
87.167,72.0592,-0.122166
87.198,72.0592,-0.122166
87.229,72.0592,-0.122166
87.261,72.0592,-0.122166
87.292,72.0592,-0.122166
87.324,72.0592,-0.122166
87.356,72.0592,-0.122166
87.386,72.0592,-0.122166
87.417,72.0592,-0.119267
87.448,72.0592,-0.119267
87.479,72.0592,-0.119267
87.510,72.0592,-0.119267
87.541,72.0592,-0.119267
87.572,72.0592,-0.119267
87.603,72.0592,-0.119267
87.634,72.0592,-0.119267
87.664,72.0592,-0.116821
87.696,72.0592,-0.116821
87.729,72.0592,-0.116821
87.757,72.0592,-0.116821
87.789,72.0592,-0.116821
87.819,72.0592,-0.116821
87.850,72.0592,-0.116821
87.882,72.0592,-0.114703
87.912,72.0592,-0.114703
87.942,72.0592,-0.114703
87.968,72.0592,-0.114703
88.004,72.0592,-0.114703
88.035,72.0592,-0.114703
88.066,72.0592,-0.114703
88.096,72.0592,-0.114703
88.128,72.0592,-0.114703
88.158,72.0592,-0.112878
88.189,72.0592,-0.112878
88.221,72.0592,-0.112878
88.251,72.0592,-0.112878
88.283,72.0592,-0.112878
88.314,72.0592,-0.112878
88.345,72.0592,-0.112878
88.376,72.0592,-0.111240
88.406,72.0592,-0.111240
88.438,72.0592,-0.111240
88.469,72.0592,-0.111240
88.501,72.0592,-0.111240
88.531,72.0592,-0.111240
88.561,72.0592,-0.111240
88.592,72.0592,-0.111240
88.624,72.0592,-0.111240
88.655,72.0592,-0.111240
88.686,72.0592,-0.109810
88.716,72.0592,-0.109810
88.747,72.0592,-0.109810
88.778,72.0592,-0.109810
88.809,72.0592,-0.109810
88.841,72.0592,-0.109810
88.872,72.0592,-0.109810
88.903,72.0592,-0.108539
88.934,72.0592,-0.108539
88.965,72.0592,-0.108539
88.996,72.0592,-0.108539
89.028,72.0592,-0.108539
89.059,72.0592,-0.108539
89.090,72.0592,-0.108539
89.121,72.0592,-0.108539
89.151,72.0592,-0.108539
89.183,72.0592,-0.107354
89.213,72.0592,-0.107354
89.245,72.0592,-0.107354
89.276,72.0592,-0.107354
89.307,72.0592,-0.107354
89.338,72.0592,-0.107354
89.369,72.0592,-0.107354
89.399,72.0592,-0.107354
89.431,72.0592,-0.106140
89.463,72.0592,-0.106140
89.495,72.0592,-0.106140
89.526,72.0592,-0.106140
89.558,72.0592,-0.106140
89.588,72.0592,-0.106140
89.619,72.0592,-0.106140
89.651,72.0592,-0.104898
89.682,72.0592,-0.104898
89.713,72.0592,-0.104898
89.743,72.0592,-0.104898
89.776,72.0592,-0.104898
89.806,72.0592,-0.104898
89.837,72.0592,-0.104898
89.869,72.0592,-0.103853
89.900,72.0589,-0.103853
89.931,72.0579,-0.103853
89.961,72.0560,-0.103853
89.992,72.0535,-0.103853
90.024,72.0502,-0.103853
90.055,72.0462,-0.103853
90.086,72.0414,-0.103853
90.118,72.0359,-0.103853
90.149,72.0296,-0.081381
90.179,72.0229,-0.081381
90.210,72.0151,-0.081381
90.241,72.0070,-0.081381
90.271,71.9981,-0.081381
90.303,71.9882,-0.081381
90.334,71.9776,-0.081381
90.365,71.9660,-0.081381
90.396,71.9543,-0.081381
90.428,71.9414,-0.054844
90.458,71.9280,-0.054844
90.489,71.9140,-0.054844
90.520,71.8990,-0.054844
90.552,71.8831,-0.054844
90.583,71.8669,-0.054844
90.614,71.8498,-0.054844
90.645,71.8319,-0.054844
90.675,71.8135,-0.041735
90.706,71.7944,-0.041735
90.738,71.7739,-0.041735
90.769,71.7526,-0.041735
90.799,71.7322,-0.041735
90.831,71.7092,-0.041735
90.862,71.6868,-0.041735
90.893,71.6632,-0.041735
90.925,71.6378,-0.021032
90.956,71.6125,-0.021032
90.987,71.5861,-0.021032
91.019,71.5595,-0.021032
91.049,71.5320,-0.021032
91.080,71.5036,-0.021032
91.111,71.4752,-0.021032
91.147,71.4408,-0.021032
91.173,71.4157,-0.021032
91.204,71.3845,0.002494
91.235,71.3537,0.002494
91.266,71.3234,0.002494
91.296,71.2933,0.002494
91.328,71.2616,0.002494
91.358,71.2314,0.002494
91.388,71.2009,0.021719
91.419,71.1707,0.021719
91.450,71.1391,0.021719
91.481,71.1090,0.021719
91.512,71.0776,0.021719
91.543,71.0463,0.021719
91.574,71.0150,0.021719
91.605,70.9846,0.021719
91.637,70.9526,0.032711
91.667,70.9221,0.032711
91.699,70.8903,0.032711
91.730,70.8598,0.032711
91.761,70.8277,0.032711
91.792,70.7977,0.032711
91.824,70.7662,0.032711
91.853,70.7355,0.032711
91.884,70.7048,0.032711
91.916,70.6731,0.036926
91.947,70.6423,0.036926
91.977,70.6121,0.036926
92.009,70.5802,0.036926
92.039,70.5500,0.036926
92.070,70.5191,0.036926
92.101,70.4887,0.036926
92.132,70.4581,0.036926
92.163,70.4268,0.038696
92.193,70.3956,0.038696
92.225,70.3642,0.038696
92.256,70.3327,0.038696
92.287,70.3019,0.038696
92.317,70.2722,0.038696
92.348,70.2407,0.038696
92.380,70.2093,0.039684
92.411,70.1778,0.039684
92.442,70.1474,0.039684
92.473,70.1167,0.039684
92.504,70.0854,0.039684
92.534,70.0556,0.039684
92.564,70.0250,0.039684
92.595,69.9941,0.039684
92.625,69.9642,0.039684
92.656,69.9332,0.040305
92.687,69.9022,0.040305
92.718,69.8713,0.040305
92.750,69.8387,0.040305
92.780,69.8092,0.040305
92.812,69.7777,0.040305
92.843,69.7466,0.040305
92.874,69.7147,0.041453
92.905,69.6838,0.041453
92.936,69.6538,0.041453
92.965,69.6239,0.041453
92.999,69.5909,0.041453
93.031,69.5587,0.041453
93.063,69.5268,0.041453
93.093,69.4969,0.041453
93.124,69.4652,0.043485
93.156,69.4329,0.043485
93.186,69.4031,0.043485
93.217,69.3719,0.043485
93.248,69.3415,0.043485
93.279,69.3100,0.043485
93.310,69.2796,0.043485
93.340,69.2491,0.043485
93.372,69.2177,0.043485
93.403,69.1857,0.044342
93.434,69.1550,0.044342
93.465,69.1232,0.044342
93.496,69.0925,0.044342
93.527,69.0623,0.044342
93.558,69.0308,0.044342
93.589,68.9994,0.044342
93.620,68.9687,0.044342
93.652,68.9379,0.029238
93.683,68.9064,0.029238
93.713,68.8762,0.029238
93.745,68.8439,0.029238
93.777,68.8128,0.029238
93.807,68.7820,0.029238
93.838,68.7512,0.029238
93.869,68.7199,0.012271
93.901,68.6881,0.012271
93.932,68.6571,0.012271
93.963,68.6269,0.012271
93.994,68.5960,0.012271
94.025,68.5638,0.012271
94.056,68.5334,0.012271
94.087,68.5020,0.012271
94.118,68.4712,0.012271
94.149,68.4397,0.009768
94.181,68.4090,0.009768
94.216,68.3733,0.009768
94.242,68.3470,0.009768
94.274,68.3157,0.009768
94.304,68.2845,0.009768
94.335,68.2543,0.009768
94.367,68.2227,0.009768
94.398,68.1909,0.009768
94.431,68.1589,0.009382
94.461,68.1277,0.009382
94.492,68.0973,0.009382
94.523,68.0663,0.009382
94.554,68.0358,0.009382
94.585,68.0043,0.009382
94.617,67.9730,0.009382
94.648,67.9419,0.009382
94.679,67.9110,0.009213
94.710,67.8793,0.009213
94.741,67.8488,0.009213
94.772,67.8179,0.009213
94.803,67.7869,0.009213
94.834,67.7551,0.009213
94.864,67.7251,0.009213
94.896,67.6939,0.009213
94.927,67.6614,0.009128
94.958,67.6312,0.009128
94.989,67.6022,0.009128
95.020,67.5731,0.009128
95.051,67.5453,0.009128
95.083,67.5165,0.009128
95.113,67.4906,0.009128
95.144,67.4642,0.009128
95.175,67.4396,0.009043
95.206,67.4142,0.009043
95.236,67.3909,0.009043
95.267,67.3677,0.009043
95.298,67.3453,0.009043
95.330,67.3230,0.009043
95.361,67.3019,0.009043
95.393,67.2811,0.009043
95.424,67.2615,0.008930
95.454,67.2433,0.008930
95.486,67.2250,0.008930
95.517,67.2074,0.008930
95.548,67.1906,0.008930
95.581,67.1741,0.008930
95.611,67.1593,0.008930
95.642,67.1448,0.008846
95.673,67.1310,0.008846
95.705,67.1175,0.008846
95.735,67.1061,0.008846
95.766,67.0944,0.008846
95.796,67.0840,0.008846
95.827,67.0737,0.008846
95.858,67.0649,0.008846
95.889,67.0560,0.008742
95.921,67.0481,0.008742
95.951,67.0409,0.008742
95.982,67.0347,0.008742
96.012,67.0290,0.008742
96.044,67.0240,0.008742
96.075,67.0197,0.008742
96.106,67.0161,0.008742
96.137,67.0133,0.008742
96.167,67.0112,0.008742
96.198,67.0100,0.008667
96.229,67.0092,0.008667
96.260,67.0092,0.008667
96.291,67.0092,0.008667
96.323,67.0092,0.008667
96.354,67.0092,0.008667
96.386,67.0094,0.008648
96.416,67.0101,0.008648
96.449,67.0118,0.008648
96.478,67.0138,0.008648
96.510,67.0169,0.008648
96.538,67.0202,0.008648
96.569,67.0245,0.008648
96.600,67.0296,0.008648
96.634,67.0363,0.008648
96.662,67.0421,0.008648
96.693,67.0494,0.008498
96.724,67.0575,0.008498
96.755,67.0658,0.008498
96.785,67.0753,0.008498
96.817,67.0854,0.008498
96.848,67.0967,0.008498
96.879,67.1082,0.008498
96.910,67.1206,0.008272
96.941,67.1338,0.008272
96.972,67.1477,0.008272
97.005,67.1627,0.008272
97.034,67.1773,0.008272
97.065,67.1930,0.008272
97.096,67.2097,0.008272
97.127,67.2274,0.008272
97.157,67.2449,0.008272
97.189,67.2642,0.008121
97.219,67.2831,0.008121
97.251,67.3044,0.008121
97.282,67.3254,0.008121
97.313,67.3476,0.008121
97.344,67.3702,0.008121
97.375,67.3933,0.008121
97.407,67.4181,0.007914
97.438,67.4431,0.007914
97.469,67.4681,0.007914
97.501,67.4954,0.007914
97.532,67.5220,0.007914
97.563,67.5499,0.007914
97.594,67.5781,0.007914
97.625,67.6080,0.007914
97.656,67.6374,0.007660
97.687,67.6678,0.007660
97.719,67.6993,0.007660
97.750,67.7312,0.007660
97.781,67.7616,0.007660
97.812,67.7926,0.007660
97.843,67.8232,0.007660
97.873,67.8543,0.007660
97.905,67.8853,0.007481
97.935,67.9156,0.007481
97.966,67.9469,0.007481
97.997,67.9780,0.007481
98.028,68.0086,0.007481
98.059,68.0406,0.007481
98.090,68.0710,0.007481
98.121,68.1024,0.007481
98.152,68.1324,0.007227
98.183,68.1639,0.007227
98.215,68.1952,0.007227
98.247,68.2279,0.007227
98.277,68.2579,0.007227
98.309,68.2907,0.007227
98.340,68.3209,0.007227
98.371,68.3518,0.007227
98.402,68.3834,0.006935
98.434,68.4143,0.006935
98.465,68.4453,0.006935
98.496,68.4763,0.006935
98.528,68.5083,0.006935
98.558,68.5387,0.006935
98.589,68.5692,0.006935
98.619,68.5996,0.006935
98.650,68.6310,0.006634
98.680,68.6615,0.006634
98.711,68.6912,0.006634
98.742,68.7224,0.006634
98.773,68.7540,0.006634
98.803,68.7846,0.006634
98.836,68.8174,0.006634
98.867,68.8475,0.006634
98.897,68.8779,0.006634
98.928,68.9084,0.006324
98.958,68.9387,0.006324
98.989,68.9699,0.006324
99.020,69.0004,0.006324
99.050,69.0319,0.006324
99.081,69.0623,0.006324
99.113,69.0941,0.006324
99.143,69.1241,0.005957
99.174,69.1550,0.005957
99.206,69.1865,0.005957
99.237,69.2177,0.005957
99.267,69.2479,0.005957
99.299,69.2792,0.005957
99.330,69.3109,0.005957
99.361,69.3418,0.005957
99.392,69.3730,0.005411
99.424,69.4051,0.005411
99.455,69.4354,0.005411
99.486,69.4671,0.005411
99.518,69.4984,0.005411
99.549,69.5303,0.005411
99.581,69.5618,0.005411
99.612,69.5936,0.005411
99.643,69.6242,0.005411
99.674,69.6558,0.004818
99.705,69.6854,0.004818
99.735,69.7166,0.004818
99.766,69.7467,0.004818
99.796,69.7768,0.004818
99.827,69.8081,0.004818
99.859,69.8396,0.004818
99.890,69.8715,0.004084
99.922,69.9026,0.004084
99.953,69.9340,0.004084
99.984,69.9642,0.004084
100.016,69.9962,0.004084
100.046,70.0278,0.004084
100.079,70.0595,0.004084
100.110,70.0909,0.004084
100.140,70.1210,0.003021
100.171,70.1515,0.003021
100.202,70.1831,0.003021
100.232,70.2135,0.003021
100.263,70.2441,0.003021
100.294,70.2747,0.003021
100.325,70.3064,0.003021
100.356,70.3369,0.003021
100.388,70.3692,0.001205
100.418,70.3988,0.001205
100.448,70.4293,0.001205
100.479,70.4601,0.001205
100.509,70.4900,0.001205
100.538,70.5194,0.001205
100.572,70.5530,0.001205
100.604,70.5858,0.001205
100.634,70.6149,-0.002099
100.665,70.6457,-0.002099
100.696,70.6767,-0.002099
100.727,70.7086,-0.002099
100.759,70.7401,-0.002099
100.790,70.7707,-0.002099
100.821,70.8011,-0.002099
100.851,70.8320,-0.002099
100.882,70.8624,-0.008187
100.912,70.8935,-0.008187
100.943,70.9237,-0.008187
100.973,70.9539,-0.008187
101.005,70.9861,-0.008187
101.036,71.0168,-0.008187
101.067,71.0471,-0.008187
101.098,71.0788,-0.008187
101.128,71.1091,-0.019122
101.160,71.1410,-0.019122
101.196,71.1764,-0.019122
101.238,71.2181,-0.019122
101.273,71.2546,-0.019122
101.300,71.2810,-0.019122
101.331,71.3114,-0.019122
101.362,71.3420,-0.019122
101.392,71.3724,-0.019122
101.424,71.4031,-0.037444
101.456,71.4334,-0.037444
101.486,71.4618,-0.037444
101.517,71.4895,-0.037444
101.549,71.5171,-0.037444
101.579,71.5433,-0.037444
101.610,71.5688,-0.037444
101.641,71.5939,-0.063558
101.672,71.6176,-0.063558
101.704,71.6418,-0.063558
101.735,71.6643,-0.063558
101.766,71.6864,-0.063558
101.797,71.7082,-0.063558
101.830,71.7298,-0.063558
101.858,71.7478,-0.063558
101.889,71.7667,-0.063558
101.919,71.7853,-0.092429
101.950,71.8026,-0.092429
101.982,71.8199,-0.092429
102.012,71.8359,-0.092429
102.044,71.8521,-0.092429
102.074,71.8662,-0.092429
102.104,71.8798,-0.092429
102.135,71.8929,-0.092429
102.166,71.9057,-0.121817
102.197,71.9176,-0.121817
102.227,71.9285,-0.121817
102.257,71.9387,-0.121817
102.288,71.9481,-0.121817
102.319,71.9575,-0.121817
102.349,71.9656,-0.121817
102.380,71.9733,-0.121817
102.412,71.9801,-0.166103
102.443,71.9866,-0.166103
102.474,71.9918,-0.166103
102.506,71.9966,-0.166103
102.537,72.0004,-0.166103
102.573,72.0042,-0.166103
102.599,72.0063,-0.166103
102.628,72.0079,-0.166103
102.661,72.0090,-0.211875
102.691,72.0092,-0.211875
102.723,72.0092,-0.211875
102.754,72.0092,-0.211875
102.785,72.0092,-0.211875
102.816,72.0092,-0.211875
