Elapsed Time (s),Position (mm),Force (N)
-0.019,63.3093,-0.970973
0.012,63.3093,-0.970973
0.042,63.3093,-0.970973
0.074,63.3093,-0.970973
0.104,63.3093,-0.970973
0.135,63.3093,-0.970973
0.166,63.3093,-0.970973
0.197,63.3093,-0.970973
0.227,63.3093,-0.728514
0.258,63.3093,-0.728514
0.289,63.3093,-0.728514
0.324,63.3093,-0.728514
0.351,63.3093,-0.728514
0.382,63.3093,-0.728514
0.413,63.3093,-0.728514
0.444,63.3093,-0.728514
0.474,63.3093,-0.553246
0.506,63.3093,-0.553246
0.537,63.3093,-0.553246
0.568,63.3093,-0.553246
0.599,63.3093,-0.553246
0.630,63.3093,-0.553246
0.661,63.3093,-0.553246
0.693,63.3093,-0.553246
0.722,63.3093,-0.553246
0.754,63.3093,-0.475977
0.783,63.3093,-0.475977
0.814,63.3093,-0.475977
0.845,63.3093,-0.475977
0.876,63.3093,-0.475977
0.907,63.3093,-0.475977
0.938,63.3093,-0.475977
0.969,63.3093,-0.475977
1.000,63.3093,-0.433668
1.030,63.3093,-0.433668
1.061,63.3093,-0.433668
1.092,63.3093,-0.433668
1.123,63.3093,-0.433668
1.154,63.3093,-0.433668
1.185,63.3093,-0.433668
1.216,63.3093,-0.433668
1.247,63.3093,-0.407432
1.278,63.3093,-0.407432
1.309,63.3093,-0.407432
1.340,63.3093,-0.407432
1.370,63.3093,-0.407432
1.400,63.3093,-0.407432
1.431,63.3093,-0.407432
1.462,63.3093,-0.407432
1.493,63.3093,-0.407432
1.526,63.3093,-0.389684
1.556,63.3093,-0.389684
1.587,63.3093,-0.389684
1.619,63.3093,-0.389684
1.650,63.3093,-0.389684
1.680,63.3093,-0.389684
1.714,63.3093,-0.389684
1.741,63.3093,-0.389684
1.773,63.3093,-0.376989
1.804,63.3093,-0.376989
1.834,63.3093,-0.376989
1.866,63.3093,-0.376989
1.897,63.3093,-0.376989
1.928,63.3093,-0.376989
1.960,63.3093,-0.376989
1.990,63.3093,-0.376989
2.021,63.3093,-0.367381
2.052,63.3093,-0.367381
2.082,63.3093,-0.367381
2.113,63.3093,-0.367381
2.144,63.3093,-0.367381
2.176,63.3093,-0.367381
2.208,63.3093,-0.367381
2.239,63.3093,-0.359872
2.270,63.3093,-0.359872
2.300,63.3093,-0.359872
2.331,63.3093,-0.359872
2.363,63.3093,-0.359872
2.397,63.3093,-0.359872
2.425,63.3093,-0.359872
2.456,63.3093,-0.359872
2.486,63.3093,-0.359872
2.517,63.3093,-0.353840
2.548,63.3093,-0.353840
2.579,63.3093,-0.353840
2.609,63.3093,-0.353840
2.641,63.3093,-0.353840
2.672,63.3093,-0.353840
2.702,63.3093,-0.353840
2.734,63.3093,-0.353840
2.765,63.3093,-0.348655
2.795,63.3093,-0.348655
2.826,63.3093,-0.348655
2.857,63.3093,-0.348655
2.888,63.3093,-0.348655
2.919,63.3093,-0.348655
2.950,63.3093,-0.348655
2.981,63.3093,-0.348655
3.013,63.3093,-0.344260
3.043,63.3093,-0.344260
3.072,63.3093,-0.344260
3.104,63.3093,-0.344260
3.135,63.3093,-0.344260
3.165,63.3093,-0.344260
3.196,63.3093,-0.344260
3.227,63.3093,-0.344260
3.257,63.3093,-0.340581
3.288,63.3093,-0.340581
3.319,63.3093,-0.340581
3.350,63.3093,-0.340581
3.381,63.3093,-0.340581
3.412,63.3093,-0.340581
3.443,63.3093,-0.340581
3.474,63.3093,-0.340581
3.505,63.3093,-0.337212
3.536,63.3093,-0.337212
3.567,63.3093,-0.337212
3.599,63.3093,-0.337212
3.630,63.3093,-0.337212
3.661,63.3093,-0.337212
3.691,63.3093,-0.337212
3.723,63.3093,-0.333382
3.755,63.3093,-0.333382
3.785,63.3093,-0.333382
3.816,63.3093,-0.333382
3.847,63.3093,-0.333382
3.879,63.3093,-0.333382
3.910,63.3093,-0.333382
3.941,63.3093,-0.333382
3.972,63.3093,-0.333382
4.003,63.3093,-0.328733
4.033,63.3093,-0.328733
4.064,63.3091,-0.328733
4.095,63.3084,-0.328733
4.127,63.3068,-0.328733
4.157,63.3047,-0.328733
4.189,63.3016,-0.328733
4.220,63.2980,-0.323124
4.251,63.2935,-0.323124
4.282,63.2882,-0.323124
4.311,63.2827,-0.323124
4.342,63.2761,-0.323124
4.374,63.2686,-0.323124
4.405,63.2606,-0.323124
4.437,63.2517,-0.323124
4.467,63.2424,0.205749
4.498,63.2320,0.205749
4.530,63.2209,0.205749
4.560,63.2095,0.205749
4.591,63.1966,0.205749
4.624,63.1831,0.205749
4.656,63.1689,0.205749
4.684,63.1550,0.205749
4.715,63.1398,0.205749
4.746,63.1240,0.346829
4.779,63.1057,0.346829
4.809,63.0890,0.346829
4.840,63.0704,0.346829
4.871,63.0518,0.346829
4.906,63.0292,0.346829
4.933,63.0117,0.346829
4.965,62.9898,0.346829
4.996,62.9677,-0.033407
5.027,62.9450,-0.033407
5.058,62.9223,-0.033407
5.088,62.8980,-0.033407
5.119,62.8739,-0.033407
5.151,62.8473,-0.033407
5.183,62.8205,-0.033407
5.213,62.7941,-0.033407
5.244,62.7663,-0.008253
5.276,62.7369,-0.008253
5.307,62.7080,-0.008253
5.341,62.6754,-0.008253
5.370,62.6466,-0.008253
5.402,62.6140,-0.008253
5.432,62.5835,-0.008253
5.462,62.5542,-0.008253
5.493,62.5228,0.030857
5.524,62.4922,0.030857
5.555,62.4609,0.030857
5.585,62.4303,0.030857
5.617,62.3994,0.030857
5.648,62.3685,0.030857
5.679,62.3378,0.030857
5.709,62.3073,0.030857
5.740,62.2769,0.058693
5.770,62.2454,0.058693
5.802,62.2144,0.058693
5.833,62.1830,0.058693
5.865,62.1517,0.058693
5.896,62.1200,0.058693
5.927,62.0895,0.058693
5.958,62.0582,0.058693
5.990,62.0266,0.070973
6.020,61.9962,0.070973
6.051,61.9645,0.070973
6.081,61.9351,0.070973
6.112,61.9047,0.070973
6.144,61.8728,0.070973
6.173,61.8430,0.070973
6.205,61.8113,0.070973
6.235,61.7812,0.073486
6.267,61.7499,0.073486
6.298,61.7179,0.073486
6.329,61.6871,0.073486
6.360,61.6560,0.073486
6.391,61.6256,0.073486
6.422,61.5944,0.073486
6.453,61.5630,0.073486
6.484,61.5327,0.071528
6.514,61.5019,0.071528
6.544,61.4718,0.071528
6.575,61.4412,0.071528
6.605,61.4118,0.071528
6.636,61.3804,0.071528
6.666,61.3499,0.071528
6.699,61.3168,0.071528
6.729,61.2877,0.071528
6.760,61.2562,0.068715
6.791,61.2250,0.068715
6.822,61.1938,0.068715
6.853,61.1639,0.068715
6.883,61.1331,0.068715
6.914,61.1015,0.068715
6.945,61.0715,0.068715
6.976,61.0404,0.067774
7.007,61.0086,0.067774
7.038,60.9780,0.067774
7.070,60.9457,0.067774
7.101,60.9152,0.067774
7.132,60.8843,0.067774
7.163,60.8537,0.067774
7.194,60.8228,0.067774
7.225,60.7915,0.069204
7.256,60.7603,0.069204
7.287,60.7294,0.069204
7.320,60.6966,0.069204
7.350,60.6666,0.069204
7.381,60.6351,0.069204
7.412,60.6042,0.069204
7.443,60.5735,0.069204
7.474,60.5425,0.072695
7.504,60.5117,0.072695
7.536,60.4804,0.072695
7.567,60.4491,0.072695
7.598,60.4186,0.072695
7.628,60.3883,0.072695
7.659,60.3571,0.072695
7.690,60.3267,0.072695
7.721,60.2956,0.078586
7.752,60.2645,0.078586
7.783,60.2331,0.078586
7.814,60.2022,0.078586
7.845,60.1716,0.078586
7.876,60.1397,0.078586
7.906,60.1102,0.078586
7.938,60.0786,0.078586
7.968,60.0484,0.087178
7.999,60.0167,0.087178
8.030,59.9860,0.087178
8.061,59.9552,0.087178
8.092,59.9247,0.087178
8.125,59.8905,0.087178
8.155,59.8610,0.087178
8.186,59.8299,0.087178
8.216,59.8004,0.097859
8.246,59.7700,0.097859
8.277,59.7395,0.097859
8.310,59.7062,0.097859
8.339,59.6765,0.097859
8.371,59.6460,0.097859
8.405,59.6107,0.097859
8.434,59.5823,0.097859
8.464,59.5515,0.097859
8.496,59.5206,0.107137
8.528,59.4887,0.107137
8.560,59.4557,0.107137
8.590,59.4266,0.107137
8.622,59.3942,0.107137
8.651,59.3649,0.107137
8.682,59.3344,0.107137
8.714,59.3022,0.101886
8.745,59.2708,0.101886
8.775,59.2417,0.101886
8.805,59.2110,0.101886
8.836,59.1801,0.101886
8.868,59.1478,0.101886
8.900,59.1171,0.101886
8.931,59.0855,0.101886
8.962,59.0550,0.060311
8.992,59.0241,0.060311
9.023,58.9935,0.060311
9.054,58.9625,0.060311
9.085,58.9310,0.060311
9.121,58.8960,0.060311
9.147,58.8698,0.060311
9.178,58.8414,0.060311
9.208,58.8129,0.060311
9.239,58.7846,0.025107
9.270,58.7570,0.025107
9.302,58.7298,0.025107
9.332,58.7055,0.025107
9.363,58.6798,0.025107
9.394,58.6558,0.025107
9.425,58.6320,0.025107
9.456,58.6095,0.025107
9.487,58.5866,0.021719
9.518,58.5659,0.021719
9.549,58.5446,0.021719
9.580,58.5250,0.021719
9.611,58.5056,0.021719
9.641,58.4875,0.021719
9.674,58.4687,0.021719
9.703,58.4526,0.021719
9.735,58.4355,0.021719
9.766,58.4201,0.020214
9.797,58.4052,0.020214
9.828,58.3910,0.020214
9.859,58.3771,0.020214
9.891,58.3641,0.020214
9.921,58.3524,0.020214
9.952,58.3414,0.020214
9.983,58.3308,0.020214
10.014,58.3209,0.020214
10.045,58.3117,0.019329
10.075,58.3035,0.019329
10.107,58.2957,0.019329
10.138,58.2889,0.019329
10.168,58.2827,0.019329
10.199,58.2772,0.019329
10.231,58.2723,0.019329
10.261,58.2684,0.018774
10.293,58.2651,0.018774
10.325,58.2624,0.018774
10.356,58.2605,0.018774
10.388,58.2595,0.018774
10.419,58.2591,0.018774
10.449,58.2591,0.018774
10.480,58.2591,0.018774
10.512,58.2591,0.018388
10.544,58.2591,0.018388
10.575,58.2591,0.018388
10.606,58.2591,0.018388
10.638,58.2591,0.018388
10.667,58.2591,0.018388
10.701,58.2591,0.018388
10.730,58.2591,0.018388
10.761,58.2591,0.018190
10.792,58.2591,0.018190
10.824,58.2591,0.018190
10.856,58.2591,0.018190
10.886,58.2591,0.018190
10.917,58.2591,0.018190
10.948,58.2591,0.018190
10.980,58.2591,0.018153
11.011,58.2591,0.018153
11.041,58.2591,0.018153
11.073,58.2591,0.018153
11.103,58.2591,0.018153
11.134,58.2591,0.018153
11.166,58.2598,0.018153
11.196,58.2610,0.018153
11.226,58.2631,0.018087
11.258,58.2658,0.018087
11.288,58.2693,0.018087
11.319,58.2735,0.018087
11.350,58.2784,0.018087
11.381,58.2839,0.018087
11.411,58.2903,0.018087
11.442,58.2972,0.018087
11.474,58.3052,0.017899
11.505,58.3138,0.017899
11.536,58.3231,0.017899
11.568,58.3336,0.017899
11.598,58.3440,0.017899
11.630,58.3559,0.017899
11.661,58.3679,0.017899
11.692,58.3809,0.017899
11.723,58.3946,0.017588
11.754,58.4092,0.017588
11.785,58.4245,0.017588
11.820,58.4422,0.017588
11.849,58.4575,0.017588
11.879,58.4747,0.017588
11.911,58.4929,0.017588
11.942,58.5119,0.017588
11.972,58.5310,0.017334
12.003,58.5511,0.017334
12.034,58.5727,0.017334
12.065,58.5935,0.017334
12.096,58.6162,0.017334
12.127,58.6400,0.017334
12.160,58.6654,0.017334
12.189,58.6885,0.017334
12.220,58.7132,0.017334
12.252,58.7402,0.017005
12.285,58.7692,0.017005
12.313,58.7941,0.017005
12.344,58.8218,0.017005
12.375,58.8512,0.017005
12.405,58.8794,0.017005
12.436,58.9106,0.017005
12.469,58.9429,0.017005
12.499,58.9735,0.016346
12.530,59.0037,0.016346
12.560,59.0347,0.016346
12.592,59.0659,0.016346
12.622,59.0963,0.016346
12.656,59.1304,0.016346
12.683,59.1572,0.016346
12.714,59.1878,0.016346
12.745,59.2197,0.016346
12.777,59.2507,0.015584
12.807,59.2805,0.015584
12.838,59.3119,0.015584
12.869,59.3426,0.015584
12.901,59.3746,0.015584
12.932,59.4056,0.015584
12.963,59.4367,0.015584
12.993,59.4680,0.014577
13.024,59.4978,0.014577
13.055,59.5285,0.014577
13.085,59.5592,0.014577
13.116,59.5907,0.014577
13.154,59.6285,0.014577
13.196,59.6693,0.014577
13.226,59.6999,0.014577
13.257,59.7311,0.013222
13.288,59.7623,0.013222
13.319,59.7926,0.013222
13.350,59.8233,0.013222
13.380,59.8541,0.013222
13.411,59.8856,0.013222
13.443,59.9162,0.013222
13.474,59.9486,0.011678
13.505,59.9787,0.011678
13.535,60.0090,0.011678
13.568,60.0424,0.011678
13.599,60.0730,0.011678
13.629,60.1037,0.011678
13.661,60.1351,0.011678
13.692,60.1661,0.011678
13.723,60.1966,0.011678
13.753,60.2268,0.009759
13.784,60.2578,0.009759
13.815,60.2888,0.009759
13.845,60.3193,0.009759
13.876,60.3507,0.009759
13.908,60.3817,0.009759
13.939,60.4134,0.009759
13.970,60.4438,0.007350
14.001,60.4751,0.007350
14.031,60.5060,0.007350
14.062,60.5363,0.007350
14.093,60.5668,0.007350
14.124,60.5975,0.007350
14.156,60.6297,0.007350
14.191,60.6647,0.007350
14.218,60.6916,0.007350
14.249,60.7235,0.004235
14.280,60.7541,0.004235
14.313,60.7871,0.004235
14.342,60.8161,0.004235
14.373,60.8466,0.004235
14.404,60.8783,0.004235
14.435,60.9087,0.004235
14.466,60.9404,0.000075
14.496,60.9703,0.000075
14.527,61.0007,0.000075
14.560,61.0338,0.000075
14.589,61.0629,0.000075
14.620,61.0938,0.000075
14.652,61.1253,0.000075
14.683,61.1574,0.000075
14.714,61.1878,0.000075
14.745,61.2192,-0.005778
14.776,61.2498,-0.005778
14.808,61.2831,-0.005778
14.837,61.3107,-0.005778
14.868,61.3419,-0.005778
14.899,61.3734,-0.005778
14.930,61.4043,-0.005778
14.961,61.4358,-0.005778
14.992,61.4661,-0.014087
15.023,61.4971,-0.014087
15.054,61.5282,-0.014087
15.085,61.5589,-0.014087
15.116,61.5898,-0.014087
15.147,61.6210,-0.014087
15.178,61.6519,-0.014087
15.208,61.6821,-0.025747
15.240,61.7141,-0.025747
15.271,61.7448,-0.025747
15.302,61.7761,-0.025747
15.333,61.8071,-0.025747
15.364,61.8373,-0.025747
15.397,61.8711,-0.025747
15.426,61.8991,-0.025747
15.457,61.9316,-0.025747
15.489,61.9632,-0.025747
15.521,61.9947,-0.042027
15.551,62.0244,-0.042027
15.582,62.0562,-0.042027
15.614,62.0876,-0.042027
15.643,62.1181,-0.042027
15.674,62.1480,-0.042027
15.706,62.1804,-0.042027
15.738,62.2118,-0.065167
15.770,62.2441,-0.065167
15.800,62.2740,-0.065167
15.831,62.3047,-0.065167
15.863,62.3368,-0.065167
15.895,62.3694,-0.065167
15.925,62.3993,-0.065167
15.956,62.4296,-0.065167
15.986,62.4598,-0.097736
16.017,62.4906,-0.097736
16.048,62.5218,-0.097736
16.079,62.5533,-0.097736
16.110,62.5840,-0.097736
16.141,62.6152,-0.097736
16.172,62.6452,-0.097736
16.203,62.6749,-0.097736
16.235,62.7040,-0.143386
16.270,62.7355,-0.143386
16.297,62.7595,-0.143386
16.328,62.7862,-0.143386
16.359,62.8120,-0.143386
16.390,62.8373,-0.143386
16.420,62.8610,-0.143386
16.451,62.8846,-0.143386
16.483,62.9083,-0.213493
16.513,62.9300,-0.213493
16.545,62.9522,-0.213493
16.575,62.9725,-0.213493
16.607,62.9926,-0.213493
16.638,63.0121,-0.213493
16.670,63.0313,-0.213493
16.700,63.0486,-0.213493
16.730,63.0657,-0.213493
16.761,63.0815,-0.350923
16.793,63.0978,-0.350923
16.823,63.1128,-0.350923
16.854,63.1264,-0.350923
16.884,63.1398,-0.350923
16.915,63.1525,-0.350923
16.947,63.1653,-0.350923
16.978,63.1762,-0.350923
17.009,63.1870,-0.570683
17.041,63.1970,-0.570683
17.072,63.2062,-0.570683
17.105,63.2154,-0.570683
17.134,63.2222,-0.570683
17.164,63.2293,-0.570683
17.197,63.2356,-0.570683
17.228,63.2412,-0.570683
17.258,63.2458,-0.844488
17.289,63.2498,-0.844488
17.320,63.2532,-0.844488
17.352,63.2558,-0.844488
17.383,63.2577,-0.844488
17.415,63.2588,-0.844488
17.446,63.2591,-0.844488
17.479,63.2591,-0.844488
17.508,63.2591,-1.029318
17.540,63.2591,-1.029318
17.572,63.2591,-1.029318
17.602,63.2591,-1.029318
17.633,63.2591,-1.029318
17.664,63.2591,-1.029318
17.696,63.2591,-1.029318
17.727,63.2591,-1.029318
17.757,63.2591,-0.890571
17.789,63.2591,-0.890571
17.819,63.2591,-0.890571
17.850,63.2591,-0.890571
17.881,63.2591,-0.890571
17.912,63.2591,-0.890571
17.946,63.2591,-0.890571
17.974,63.2591,-0.890571
18.006,63.2591,-0.635116
18.037,63.2591,-0.635116
18.068,63.2591,-0.635116
18.099,63.2591,-0.635116
18.131,63.2591,-0.635116
18.162,63.2591,-0.635116
18.193,63.2591,-0.635116
18.225,63.2591,-0.635116
18.254,63.2591,-0.635116
18.285,63.2591,-0.517449
18.316,63.2591,-0.517449
18.346,63.2591,-0.517449
18.377,63.2591,-0.517449
18.408,63.2591,-0.517449
18.439,63.2591,-0.517449
18.471,63.2591,-0.458634
18.502,63.2591,-0.458634
18.533,63.2591,-0.458634
18.563,63.2591,-0.458634
18.595,63.2591,-0.458634
18.626,63.2591,-0.458634
18.657,63.2591,-0.458634
18.689,63.2591,-0.458634
18.721,63.2591,-0.458634
18.751,63.2591,-0.424305
18.783,63.2591,-0.424305
18.812,63.2591,-0.424305
18.843,63.2591,-0.424305
18.874,63.2591,-0.424305
18.905,63.2591,-0.424305
18.936,63.2591,-0.424305
18.967,63.2591,-0.402125
18.998,63.2591,-0.402125
19.028,63.2591,-0.402125
19.060,63.2591,-0.402125
19.091,63.2591,-0.402125
19.121,63.2591,-0.402125
19.153,63.2591,-0.402125
19.184,63.2591,-0.402125
19.216,63.2591,-0.386805
19.247,63.2591,-0.386805
19.278,63.2591,-0.386805
19.310,63.2591,-0.386805
19.341,63.2591,-0.386805
19.372,63.2591,-0.386805
19.403,63.2591,-0.386805
19.434,63.2591,-0.386805
19.465,63.2591,-0.386805
19.496,63.2591,-0.375503
19.528,63.2591,-0.375503
19.558,63.2591,-0.375503
19.589,63.2591,-0.375503
19.620,63.2591,-0.375503
19.652,63.2591,-0.375503
19.683,63.2591,-0.375503
19.715,63.2591,-0.375503
19.746,63.2591,-0.366760
19.777,63.2591,-0.366760
19.808,63.2591,-0.366760
19.839,63.2591,-0.366760
19.871,63.2591,-0.366760
19.900,63.2591,-0.366760
19.931,63.2591,-0.366760
19.963,63.2591,-0.366760
19.993,63.2591,-0.366760
20.024,63.2591,-0.359853
20.055,63.2591,-0.359853
20.086,63.2591,-0.359853
20.116,63.2591,-0.359853
20.147,63.2591,-0.359853
20.178,63.2591,-0.359853
20.210,63.2591,-0.359853
20.242,63.2591,-0.359853
20.273,63.2591,-0.354226
20.303,63.2591,-0.354226
20.335,63.2591,-0.354226
20.366,63.2591,-0.354226
20.397,63.2591,-0.354226
20.428,63.2591,-0.354226
20.459,63.2591,-0.354226
20.490,63.2591,-0.349332
20.521,63.2591,-0.349332
20.552,63.2591,-0.349332
20.582,63.2591,-0.349332
20.613,63.2591,-0.349332
20.647,63.2591,-0.349332
20.676,63.2591,-0.349332
20.706,63.2591,-0.349332
20.737,63.2591,-0.345164
20.769,63.2591,-0.345164
20.800,63.2591,-0.345164
20.831,63.2591,-0.345164
20.861,63.2591,-0.345164
20.893,63.2591,-0.345164
20.923,63.2591,-0.345164
20.954,63.2591,-0.345164
20.985,63.2591,-0.341691
21.016,63.2591,-0.341691
21.047,63.2591,-0.341691
21.078,63.2591,-0.341691
21.109,63.2591,-0.341691
21.140,63.2591,-0.341691
21.171,63.2591,-0.341691
21.202,63.2591,-0.341691
21.233,63.2591,-0.338266
21.268,63.2591,-0.338266
21.295,63.2591,-0.338266
21.326,63.2591,-0.338266
21.356,63.2591,-0.338266
21.387,63.2591,-0.338266
21.417,63.2591,-0.338266
21.448,63.2591,-0.338266
21.479,63.2591,-0.334257
21.510,63.2591,-0.334257
21.542,63.2591,-0.334257
21.573,63.2591,-0.334257
21.604,63.2591,-0.334257
21.636,63.2591,-0.334257
21.667,63.2591,-0.334257
21.699,63.2591,-0.334257
21.729,63.2591,-0.334257
21.759,63.2591,-0.329411
21.790,63.2591,-0.329411
21.821,63.2589,-0.329411
21.852,63.2579,-0.329411
21.889,63.2557,-0.329411
21.930,63.2522,-0.329411
21.960,63.2487,-0.329411
21.990,63.2445,-0.323510
22.021,63.2396,-0.323510
22.053,63.2337,-0.323510
22.083,63.2274,-0.323510
22.114,63.2201,-0.323510
22.145,63.2123,-0.323510
22.177,63.2037,-0.323510
22.206,63.1947,0.220721
22.237,63.1846,0.220721
22.269,63.1738,0.220721
22.300,63.1622,0.220721
22.330,63.1503,0.220721
22.362,63.1369,0.220721
22.394,63.1226,0.220721
22.424,63.1085,0.220721
22.455,63.0937,0.220721
22.487,63.0773,0.220721
22.517,63.0612,0.361632
22.549,63.0432,0.361632
22.579,63.0256,0.361632
22.610,63.0064,0.361632
22.642,62.9865,0.361632
22.673,62.9663,0.361632
22.705,62.9449,0.361632
22.736,62.9232,-0.033379
22.772,62.8967,-0.033379
22.799,62.8768,-0.033379
22.830,62.8523,-0.033379
22.862,62.8272,-0.033379
22.894,62.8008,-0.033379
22.928,62.7720,-0.033379
22.956,62.7480,-0.033379
22.986,62.7200,-0.007632
23.017,62.6926,-0.007632
23.048,62.6631,-0.007632
23.079,62.6337,-0.007632
23.110,62.6031,-0.007632
23.142,62.5716,-0.007632
23.172,62.5407,-0.007632
23.203,62.5103,-0.007632
23.234,62.4788,0.031459
23.265,62.4479,0.031459
23.297,62.4160,0.031459
23.328,62.3850,0.031459
23.360,62.3533,0.031459
23.390,62.3230,0.031459
23.423,62.2902,0.031459
23.453,62.2601,0.031459
23.483,62.2301,0.059060
23.514,62.1994,0.059060
23.544,62.1686,0.059060
23.575,62.1385,0.059060
23.605,62.1076,0.059060
23.636,62.0771,0.059060
23.668,62.0456,0.059060
23.699,62.0143,0.059060
23.729,61.9837,0.059060
23.760,61.9534,0.071105
23.791,61.9219,0.071105
23.823,61.8901,0.071105
23.855,61.8582,0.071105
23.886,61.8277,0.071105
23.920,61.7928,0.071105
23.948,61.7648,0.071105
23.979,61.7338,0.071105
24.009,61.7043,0.073467
24.039,61.6735,0.073467
24.070,61.6435,0.073467
24.101,61.6117,0.073467
24.133,61.5805,0.073467
24.164,61.5495,0.073467
24.196,61.5171,0.073467
24.227,61.4855,0.071387
24.257,61.4556,0.071387
24.288,61.4258,0.071387
24.318,61.3945,0.071387
24.349,61.3643,0.071387
24.380,61.3333,0.071387
24.411,61.3028,0.071387
24.442,61.2702,0.071387
24.474,61.2384,0.068668
24.503,61.2100,0.068668
24.535,61.1787,0.068668
24.568,61.1452,0.068668
24.597,61.1164,0.068668
24.627,61.0861,0.068668
24.658,61.0546,0.068668
24.689,61.0239,0.068668
24.721,60.9921,0.067802
24.751,60.9616,0.067802
24.785,60.9279,0.067802
24.814,60.8998,0.067802
24.845,60.8681,0.067802
24.875,60.8382,0.067802
24.906,60.8070,0.067802
24.936,60.7769,0.067802
24.967,60.7463,0.067802
24.998,60.7154,0.069279
25.029,60.6837,0.069279
25.061,60.6519,0.069279
25.092,60.6219,0.069279
25.122,60.5912,0.069279
25.153,60.5600,0.069279
25.184,60.5298,0.069279
25.215,60.4986,0.069279
25.246,60.4671,0.069279
25.277,60.4366,0.072865
25.308,60.4047,0.072865
25.339,60.3746,0.072865
25.370,60.3427,0.072865
25.401,60.3114,0.072865
25.433,60.2799,0.072865
25.464,60.2491,0.078831
25.496,60.2173,0.078831
25.527,60.1870,0.078831
25.558,60.1548,0.078831
25.589,60.1245,0.078831
25.620,60.0932,0.078831
25.650,60.0629,0.078831
25.682,60.0317,0.078831
25.713,60.0002,0.078831
25.744,59.9692,0.087517
25.776,59.9372,0.087517
25.807,59.9065,0.087517
25.838,59.8749,0.087517
25.869,59.8450,0.087517
25.900,59.8132,0.087517
25.930,59.7829,0.087517
25.961,59.7521,0.087517
25.992,59.7215,0.098244
26.023,59.6901,0.098244
26.055,59.6587,0.098244
26.085,59.6276,0.098244
26.117,59.5965,0.098244
26.147,59.5659,0.098244
26.178,59.5348,0.098244
26.210,59.5036,0.098244
26.241,59.4720,0.098244
26.272,59.4416,0.107561
26.303,59.4095,0.107561
26.334,59.3791,0.107561
26.365,59.3477,0.107561
26.396,59.3176,0.107561
26.426,59.2867,0.107561
26.457,59.2559,0.107561
26.489,59.2242,0.102103
26.519,59.1944,0.102103
26.550,59.1638,0.102103
26.580,59.1330,0.102103
26.611,59.1024,0.102103
26.642,59.0708,0.102103
26.673,59.0404,0.102103
26.704,59.0095,0.102103
26.735,58.9785,0.060236
26.766,58.9477,0.060236
26.797,58.9166,0.060236
26.828,58.8850,0.060236
26.860,58.8538,0.060236
26.891,58.8238,0.060236
26.921,58.7943,0.060236
26.952,58.7655,0.060236
26.983,58.7377,0.025107
27.015,58.7090,0.025107
27.045,58.6839,0.025107
27.077,58.6568,0.025107
27.108,58.6317,0.025107
27.138,58.6080,0.025107
27.170,58.5832,0.025107
27.201,58.5609,0.025107
27.232,58.5386,0.021766
27.263,58.5169,0.021766
27.294,58.4962,0.021766
27.326,58.4752,0.021766
27.356,58.4566,0.021766
27.387,58.4381,0.021766
27.418,58.4201,0.021766
27.449,58.4029,0.021766
27.479,58.3869,0.020270
27.510,58.3711,0.020270
27.541,58.3563,0.020270
27.573,58.3416,0.020270
27.604,58.3281,0.020270
27.635,58.3153,0.020270
27.666,58.3030,0.020270
27.696,58.2921,0.020270
27.728,58.2812,0.019414
27.759,58.2713,0.019414
27.790,58.2621,0.019414
27.821,58.2538,0.019414
27.857,58.2449,0.019414
27.898,58.2361,0.019414
27.929,58.2302,0.019414
27.960,58.2250,0.019414
27.990,58.2207,0.018811
28.021,58.2171,0.018811
28.052,58.2140,0.018811
28.083,58.2116,0.018811
28.113,58.2102,0.018811
28.145,58.2093,0.018811
28.175,58.2092,0.018811
28.205,58.2092,0.018416
28.236,58.2092,0.018416
28.267,58.2092,0.018416
28.298,58.2092,0.018416
28.328,58.2092,0.018416
28.359,58.2095,0.018416
28.390,58.2106,0.018416
28.421,58.2125,0.018416
28.451,58.2150,0.018416
28.483,58.2183,0.018284
28.514,58.2224,0.018284
28.545,58.2270,0.018284
28.576,58.2325,0.018284
28.608,58.2389,0.018284
28.639,58.2459,0.018284
28.671,58.2538,0.018284
28.701,58.2619,0.018284
28.732,58.2710,0.018284
28.763,58.2807,0.018059
28.799,58.2932,0.018059
28.839,58.3080,0.018059
28.870,58.3207,0.018059
28.902,58.3345,0.018059
28.931,58.3473,0.018059
28.962,58.3615,0.018059
28.994,58.3772,0.018059
29.027,58.3942,0.017692
29.055,58.4097,0.017692
29.086,58.4271,0.017692
29.118,58.4454,0.017692
29.149,58.4645,0.017692
29.180,58.4844,0.017692
29.209,58.5035,0.017692
29.240,58.5244,0.017419
29.272,58.5465,0.017419
29.303,58.5690,0.017419
29.333,58.5926,0.017419
29.364,58.6160,0.017419
29.395,58.6409,0.017419
29.426,58.6659,0.017419
29.460,58.6946,0.017419
29.489,58.7193,0.017419
29.520,58.7480,0.017033
29.551,58.7756,0.017033
29.582,58.8055,0.017033
29.614,58.8357,0.017033
29.644,58.8660,0.017033
29.676,58.8972,0.017033
29.708,58.9295,0.016383
29.738,58.9599,0.016383
29.769,58.9904,0.016383
29.802,59.0226,0.016383
29.831,59.0521,0.016383
29.862,59.0840,0.016383
29.893,59.1142,0.016383
29.924,59.1448,0.016383
29.955,59.1756,0.016383
29.986,59.2071,0.015555
30.018,59.2395,0.015555
30.047,59.2679,0.015555
30.081,59.3021,0.015555
30.108,59.3292,0.015555
30.139,59.3601,0.015555
30.170,59.3920,0.015555
30.204,59.4260,0.015555
30.233,59.4542,0.014501
30.265,59.4856,0.014501
30.296,59.5177,0.014501
30.330,59.5517,0.014501
30.359,59.5806,0.014501
30.390,59.6116,0.014501
30.422,59.6429,0.014501
30.456,59.6772,0.014501
30.483,59.7045,0.014501
30.514,59.7354,0.013137
30.545,59.7657,0.013137
30.576,59.7967,0.013137
30.608,59.8294,0.013137
30.638,59.8588,0.013137
30.669,59.8903,0.013137
30.700,59.9208,0.013137
30.732,59.9532,0.011490
30.762,59.9833,0.011490
30.793,60.0147,0.011490
30.824,60.0459,0.011490
30.855,60.0763,0.011490
30.887,60.1077,0.011490
30.919,60.1401,0.011490
30.951,60.1720,0.011490
30.981,60.2022,0.009504
31.011,60.2324,0.009504
31.043,60.2645,0.009504
31.074,60.2954,0.009504
31.105,60.3265,0.009504
31.136,60.3576,0.009504
31.166,60.3875,0.009504
31.197,60.4184,0.009504
31.229,60.4495,0.007001
31.259,60.4809,0.007001
31.290,60.5114,0.007001
31.322,60.5428,0.007001
31.351,60.5726,0.007001
31.386,60.6073,0.007001
31.414,60.6347,0.007001
31.444,60.6654,0.007001
31.476,60.6972,0.003689
31.506,60.7271,0.003689
31.540,60.7617,0.003689
31.567,60.7884,0.003689
31.601,60.8231,0.003689
31.629,60.8504,0.003689
31.660,60.8812,0.003689
31.691,60.9124,0.003689
31.721,60.9426,-0.000753
31.752,60.9735,-0.000753
31.783,61.0040,-0.000753
31.814,61.0358,-0.000753
31.846,61.0669,-0.000753
31.877,61.0977,-0.000753
31.908,61.1290,-0.000753
31.939,61.1602,-0.000753
31.970,61.1912,-0.007011
32.002,61.2227,-0.007011
32.033,61.2538,-0.007011
32.063,61.2849,-0.007011
32.094,61.3147,-0.007011
32.124,61.3455,-0.007011
32.156,61.3770,-0.007011
32.187,61.4078,-0.007011
32.218,61.4387,-0.007011
32.250,61.4709,-0.015904
32.280,61.5009,-0.015904
32.311,61.5324,-0.015904
32.343,61.5637,-0.015904
32.374,61.5950,-0.015904
32.405,61.6258,-0.015904
32.435,61.6570,-0.015904
32.467,61.6879,-0.028250
32.499,61.7196,-0.028250
32.528,61.7492,-0.028250
32.560,61.7814,-0.028250
32.591,61.8129,-0.028250
32.623,61.8440,-0.028250
32.654,61.8752,-0.028250
32.685,61.9061,-0.028250
32.716,61.9372,-0.045452
32.747,61.9691,-0.045452
32.778,61.9989,-0.045452
32.809,62.0300,-0.045452
32.839,62.0608,-0.045452
32.870,62.0918,-0.045452
32.900,62.1211,-0.045452
32.932,62.1538,-0.045452
32.963,62.1836,-0.045452
32.994,62.2151,-0.045452
33.025,62.2467,-0.070192
33.057,62.2777,-0.070192
33.086,62.3081,-0.070192
33.118,62.3391,-0.070192
33.150,62.3708,-0.070192
33.180,62.4012,-0.070192
33.211,62.4320,-0.070192
33.243,62.4638,-0.104945
33.273,62.4940,-0.104945
33.304,62.5251,-0.104945
33.336,62.5568,-0.104945
33.366,62.5866,-0.104945
33.396,62.6157,-0.104945
33.427,62.6441,-0.104945
33.457,62.6715,-0.104945
33.488,62.6994,-0.153926
33.519,62.7266,-0.153926
33.551,62.7531,-0.153926
33.582,62.7792,-0.153926
33.613,62.8034,-0.153926
33.644,62.8269,-0.153926
33.675,62.8504,-0.153926
33.706,62.8729,-0.153926
33.738,62.8955,-0.233124
33.769,62.9161,-0.233124
33.800,62.9364,-0.233124
33.831,62.9559,-0.233124
33.862,62.9750,-0.233124
33.892,62.9925,-0.233124
33.923,63.0100,-0.233124
33.955,63.0271,-0.233124
33.986,63.0430,-0.387228
34.018,63.0584,-0.387228
34.048,63.0726,-0.387228
34.079,63.0865,-0.387228
34.112,63.1001,-0.387228
34.143,63.1126,-0.387228
34.174,63.1238,-0.387228
34.205,63.1345,-0.387228
34.238,63.1453,-0.621001
34.269,63.1548,-0.621001
34.298,63.1627,-0.621001
34.329,63.1705,-0.621001
34.359,63.1774,-0.621001
34.385,63.1829,-0.621001
34.421,63.1897,-0.621001
34.453,63.1947,-0.621001
34.484,63.1989,-0.895850
34.517,63.2026,-0.895850
34.546,63.2052,-0.895850
34.577,63.2072,-0.895850
34.608,63.2085,-0.895850
34.642,63.2092,-0.895850
34.671,63.2092,-0.895850
34.701,63.2092,-0.895850
34.732,63.2092,-0.895850
34.763,63.2092,-1.029082
34.795,63.2092,-1.029082
34.827,63.2092,-1.029082
34.857,63.2092,-1.029082
34.890,63.2092,-1.029082
34.920,63.2092,-1.029082
34.951,63.2092,-1.029082
34.983,63.2092,-0.847292
35.014,63.2092,-0.847292
35.044,63.2092,-0.847292
35.075,63.2092,-0.847292
35.106,63.2092,-0.847292
35.139,63.2092,-0.847292
35.168,63.2092,-0.847292
35.200,63.2092,-0.847292
35.229,63.2092,-0.847292
35.261,63.2092,-0.608532
35.292,63.2092,-0.608532
35.322,63.2092,-0.608532
35.353,63.2092,-0.608532
35.385,63.2092,-0.608532
35.415,63.2092,-0.608532
35.447,63.2092,-0.608532
35.477,63.2092,-0.608532
35.509,63.2092,-0.506335
35.540,63.2092,-0.506335
35.572,63.2092,-0.506335
35.604,63.2092,-0.506335
35.635,63.2092,-0.506335
35.666,63.2092,-0.506335
35.697,63.2092,-0.506335
35.728,63.2092,-0.453336
35.759,63.2092,-0.453336
35.791,63.2092,-0.453336
35.822,63.2092,-0.453336
35.853,63.2092,-0.453336
35.885,63.2092,-0.453336
35.914,63.2092,-0.453336
35.946,63.2092,-0.453336
35.977,63.2092,-0.421614
36.008,63.2092,-0.421614
36.039,63.2092,-0.421614
36.070,63.2092,-0.421614
36.102,63.2092,-0.421614
36.132,63.2092,-0.421614
36.163,63.2092,-0.421614
36.194,63.2092,-0.421614
36.225,63.2092,-0.400817
36.256,63.2092,-0.400817
36.288,63.2092,-0.400817
36.319,63.2092,-0.400817
36.350,63.2092,-0.400817
36.380,63.2092,-0.400817
36.411,63.2092,-0.400817
36.441,63.2092,-0.400817
36.472,63.2092,-0.400817
36.503,63.2092,-0.386278
36.534,63.2092,-0.386278
36.565,63.2092,-0.386278
36.596,63.2092,-0.386278
36.627,63.2092,-0.386278
36.658,63.2092,-0.386278
36.689,63.2092,-0.386278
36.719,63.2092,-0.375512
36.750,63.2092,-0.375512
36.782,63.2092,-0.375512
36.813,63.2092,-0.375512
36.844,63.2092,-0.375512
36.875,63.2092,-0.375512
36.905,63.2092,-0.375512
36.938,63.2092,-0.375512
36.968,63.2092,-0.367005
37.001,63.2092,-0.367005
37.030,63.2092,-0.367005
37.060,63.2092,-0.367005
37.092,63.2092,-0.367005
37.118,63.2092,-0.367005
37.155,63.2092,-0.367005
37.185,63.2092,-0.367005
37.216,63.2092,-0.360201
37.247,63.2092,-0.360201
37.278,63.2092,-0.360201
37.309,63.2092,-0.360201
37.343,63.2092,-0.360201
37.371,63.2092,-0.360201
37.403,63.2092,-0.360201
37.435,63.2092,-0.360201
37.467,63.2092,-0.360201
37.496,63.2092,-0.354659
37.527,63.2092,-0.354659
37.558,63.2092,-0.354659
37.590,63.2092,-0.354659
37.620,63.2092,-0.354659
37.655,63.2092,-0.354659
37.683,63.2092,-0.354659
37.714,63.2092,-0.354659
37.745,63.2092,-0.354659
37.776,63.2092,-0.350019
37.807,63.2092,-0.350019
37.838,63.2092,-0.350019
37.868,63.2092,-0.350019
37.899,63.2092,-0.350019
37.931,63.2092,-0.350019
37.962,63.2092,-0.350019
37.993,63.2092,-0.346001
38.024,63.2092,-0.346001
38.055,63.2092,-0.346001
38.085,63.2092,-0.346001
38.117,63.2092,-0.346001
38.148,63.2092,-0.346001
38.179,63.2092,-0.346001
38.210,63.2092,-0.346001
38.241,63.2092,-0.342500
38.272,63.2092,-0.342500
38.303,63.2092,-0.342500
38.334,63.2092,-0.342500
38.365,63.2092,-0.342500
38.396,63.2092,-0.342500
38.427,63.2092,-0.342500
38.458,63.2092,-0.342500
38.489,63.2092,-0.338708
38.520,63.2092,-0.338708
38.551,63.2092,-0.338708
38.582,63.2092,-0.338708
38.613,63.2092,-0.338708
38.643,63.2092,-0.338708
38.675,63.2092,-0.338708
38.705,63.2092,-0.338708
38.736,63.2092,-0.338708
38.768,63.2092,-0.334106
38.798,63.2092,-0.334106
38.830,63.2092,-0.334106
38.861,63.2092,-0.334106
38.891,63.2088,-0.334106
38.922,63.2078,-0.334106
38.953,63.2061,-0.334106
38.984,63.2036,-0.329025
39.015,63.2004,-0.329025
39.046,63.1964,-0.329025
39.077,63.1917,-0.329025
39.108,63.1863,-0.329025
39.140,63.1800,-0.329025
39.171,63.1731,-0.329025
39.202,63.1655,-0.329025
39.233,63.1570,-0.073834
39.264,63.1479,-0.073834
39.295,63.1383,-0.073834
39.325,63.1281,-0.073834
39.356,63.1169,-0.073834
39.387,63.1047,-0.073834
39.418,63.0923,-0.073834
39.448,63.0792,-0.073834
39.478,63.0655,0.097275
39.510,63.0504,0.097275
39.540,63.0352,0.097275
39.571,63.0189,0.097275
39.602,63.0023,0.097275
39.633,62.9843,0.097275
39.664,62.9662,0.097275
39.695,62.9467,0.097275
39.726,62.9271,-0.011085
39.756,62.9067,-0.011085
39.787,62.8851,-0.011085
39.818,62.8636,-0.011085
39.848,62.8407,-0.011085
39.880,62.8171,-0.011085
39.910,62.7939,-0.011085
39.941,62.7685,-0.011085
39.972,62.7437,-0.018454
40.002,62.7175,-0.018454
40.033,62.6901,-0.018454
40.068,62.6590,-0.018454
40.096,62.6328,-0.018454
40.127,62.6034,-0.018454
40.159,62.5726,-0.018454
40.190,62.5420,-0.018454
40.220,62.5123,0.020976
40.252,62.4805,0.020976
40.283,62.4493,0.020976
40.316,62.4158,0.020976
40.345,62.3869,0.020976
40.377,62.3554,0.020976
40.408,62.3229,0.020976
40.439,62.2925,0.020976
40.470,62.2621,0.053046
40.504,62.2281,0.053046
40.532,62.2006,0.053046
40.564,62.1682,0.053046
40.595,62.1367,0.053046
40.626,62.1061,0.053046
40.657,62.0752,0.053046
40.687,62.0442,0.053046
40.719,62.0135,0.069477
40.753,61.9789,0.069477
40.780,61.9518,0.069477
40.811,61.9201,0.069477
40.843,61.8893,0.069477
40.874,61.8578,0.069477
40.904,61.8278,0.069477
40.935,61.7974,0.069477
40.966,61.7662,0.069477
40.997,61.7355,0.074163
41.027,61.7050,0.074163
41.058,61.6741,0.074163
41.089,61.6431,0.074163
41.120,61.6112,0.074163
41.151,61.5814,0.074163
41.181,61.5507,0.074163
41.211,61.5212,0.073043
41.243,61.4888,0.073043
41.273,61.4585,0.073043
41.304,61.4272,0.073043
41.336,61.3964,0.073043
41.367,61.3648,0.073043
41.399,61.3331,0.073043
41.430,61.3008,0.073043
41.461,61.2699,0.073043
41.493,61.2393,0.073043
41.524,61.2080,0.069882
41.554,61.1778,0.069882
41.587,61.1457,0.069882
41.617,61.1150,0.069882
41.650,61.0820,0.069882
41.679,61.0526,0.069882
41.710,61.0219,0.069882
41.741,60.9910,0.068103
41.772,60.9601,0.068103
41.804,60.9285,0.068103
41.835,60.8971,0.068103
41.866,60.8662,0.068103
41.897,60.8347,0.068103
41.927,60.8048,0.068103
41.960,60.7719,0.068103
41.989,60.7433,0.068912
42.020,60.7122,0.068912
42.051,60.6814,0.068912
42.081,60.6503,0.068912
42.111,60.6212,0.068912
42.141,60.5913,0.068912
42.171,60.5606,0.068912
42.203,60.5293,0.068912
42.234,60.4979,0.071905
42.265,60.4670,0.071905
42.296,60.4362,0.071905
42.327,60.4049,0.071905
42.357,60.3745,0.071905
42.389,60.3430,0.071905
42.420,60.3119,0.071905
42.451,60.2806,0.071905
42.483,60.2488,0.077062
42.512,60.2198,0.077062
42.544,60.1877,0.077062
42.574,60.1577,0.077062
42.605,60.1263,0.077062
42.637,60.0956,0.077062
42.668,60.0648,0.077062
42.699,60.0332,0.077062
42.730,60.0027,0.084985
42.760,59.9724,0.084985
42.791,59.9408,0.084985
42.822,59.9104,0.084985
42.853,59.8789,0.084985
42.887,59.8445,0.084985
42.915,59.8174,0.084985
42.946,59.7857,0.084985
42.976,59.7561,0.095214
43.008,59.7245,0.095214
43.039,59.6927,0.095214
43.070,59.6620,0.095214
43.101,59.6301,0.095214
43.133,59.5993,0.095214
43.163,59.5693,0.095214
43.193,59.5387,0.095214
43.224,59.5079,0.095214
43.255,59.4773,0.105453
43.286,59.4462,0.105453
43.317,59.4144,0.105453
43.349,59.3829,0.105453
43.378,59.3536,0.105453
43.409,59.3230,0.105453
43.441,59.2905,0.105453
43.472,59.2605,0.106761
43.505,59.2263,0.106761
43.534,59.1985,0.106761
43.565,59.1674,0.106761
43.595,59.1366,0.106761
43.628,59.1045,0.106761
43.655,59.0765,0.106761
43.686,59.0457,0.106761
43.716,59.0152,0.106761
43.743,58.9888,0.067585
43.778,58.9537,0.067585
43.809,58.9225,0.067585
43.841,58.8909,0.067585
43.873,58.8584,0.067585
43.902,58.8298,0.067585
43.932,58.8000,0.067585
43.962,58.7707,0.027761
43.996,58.7387,0.027761
44.024,58.7128,0.027761
44.055,58.6847,0.027761
44.086,58.6573,0.027761
44.117,58.6310,0.027761
44.148,58.6054,0.027761
44.179,58.5802,0.027761
44.209,58.5558,0.022519
44.240,58.5325,0.022519
44.271,58.5094,0.022519
44.302,58.4875,0.022519
44.332,58.4664,0.022519
44.364,58.4452,0.022519
44.394,58.4253,0.022519
44.426,58.4057,0.022519
44.457,58.3875,0.022519
44.488,58.3692,0.020665
44.520,58.3519,0.020665
44.551,58.3350,0.020665
44.583,58.3197,0.020665
44.614,58.3044,0.020665
44.644,58.2906,0.020665
44.676,58.2768,0.020665
44.707,58.2641,0.020665
44.738,58.2519,0.019592
44.768,58.2412,0.019592
44.799,58.2306,0.019592
44.830,58.2209,0.019592
44.861,58.2118,0.019592
44.893,58.2031,0.019592
44.931,58.1939,0.019592
44.971,58.1851,0.019009
45.003,58.1794,0.019009
45.034,58.1743,0.019009
45.065,58.1698,0.019009
45.095,58.1664,0.019009
45.126,58.1635,0.019009
45.157,58.1614,0.019009
45.188,58.1599,0.019009
45.219,58.1593,0.019009
45.249,58.1592,0.019009
45.280,58.1592,0.018642
45.311,58.1592,0.018642
45.340,58.1592,0.018642
45.373,58.1592,0.018642
45.404,58.1592,0.018642
45.434,58.1592,0.018642
45.467,58.1592,0.018642
45.497,58.1592,0.018378
45.527,58.1592,0.018378
45.559,58.1592,0.018378
45.590,58.1592,0.018378
45.621,58.1592,0.018378
45.655,58.1592,0.018378
45.683,58.1592,0.018378
45.715,58.1592,0.018378
45.747,58.1592,0.018303
45.779,58.1592,0.018303
45.808,58.1592,0.018303
45.839,58.1592,0.018303
45.870,58.1592,0.018303
45.901,58.1592,0.018303
45.933,58.1592,0.018303
45.964,58.1593,0.018303
45.995,58.1602,0.018275
46.028,58.1619,0.018275
46.056,58.1639,0.018275
46.088,58.1671,0.018275
46.119,58.1707,0.018275
46.150,58.1752,0.018275
46.181,58.1803,0.018275
46.212,58.1863,0.018275
46.243,58.1929,0.018275
46.274,58.2004,0.018134
46.305,58.2085,0.018134
46.339,58.2183,0.018134
46.368,58.2270,0.018134
46.400,58.2374,0.018134
46.430,58.2485,0.018134
46.461,58.2600,0.018134
46.491,58.2724,0.017899
46.522,58.2854,0.017899
46.552,58.2990,0.017899
46.582,58.3130,0.017899
46.613,58.3283,0.017899
46.644,58.3447,0.017899
46.676,58.3616,0.017899
46.708,58.3797,0.017899
46.739,58.3984,0.017644
46.771,58.4176,0.017644
46.802,58.4375,0.017644
46.832,58.4575,0.017644
46.864,58.4790,0.017644
46.894,58.5004,0.017644
46.925,58.5236,0.017644
46.956,58.5463,0.017644
46.987,58.5704,0.017296
47.017,58.5952,0.017296
47.050,58.6215,0.017296
47.080,58.6467,0.017296
47.111,58.6741,0.017296
47.143,58.7023,0.017296
47.175,58.7319,0.017296
47.205,58.7601,0.017296
47.236,58.7905,0.016750
47.268,58.8217,0.016750
47.300,58.8541,0.016750
47.331,58.8850,0.016750
47.363,58.9171,0.016750
47.393,58.9469,0.016750
47.423,58.9767,0.016750
47.453,59.0074,0.016750
47.484,59.0384,0.016750
47.515,59.0686,0.016016
47.545,59.0995,0.016016
47.576,59.1303,0.016016
47.607,59.1615,0.016016
47.638,59.1923,0.016016
47.671,59.2253,0.016016
47.701,59.2554,0.016016
47.733,59.2866,0.016016
47.765,59.3185,0.015057
47.795,59.3496,0.015057
47.825,59.3794,0.015057
47.857,59.4114,0.015057
47.887,59.4411,0.015057
47.921,59.4756,0.015057
47.949,59.5031,0.015057
47.980,59.5347,0.015057
48.011,59.5657,0.013814
48.042,59.5961,0.013814
48.073,59.6272,0.013814
48.103,59.6575,0.013814
48.135,59.6896,0.013814
48.168,59.7227,0.013814
48.198,59.7524,0.013814
48.229,59.7834,0.013814
48.260,59.8145,0.012290
48.290,59.8444,0.012290
48.321,59.8755,0.012290
48.352,59.9069,0.012290
48.383,59.9368,0.012290
48.413,59.9677,0.012290
48.444,59.9981,0.012290
48.476,60.0298,0.010446
48.507,60.0618,0.010446
48.538,60.0925,0.010446
48.570,60.1245,0.010446
48.600,60.1541,0.010446
48.631,60.1855,0.010446
48.662,60.2155,0.010446
48.693,60.2476,0.010446
48.723,60.2773,0.010446
48.754,60.3083,0.008215
48.786,60.3400,0.008215
48.817,60.3710,0.008215
48.849,60.4033,0.008215
48.879,60.4331,0.008215
48.910,60.4645,0.008215
48.941,60.4948,0.008215
48.972,60.5258,0.008215
49.003,60.5563,0.005336
49.034,60.5876,0.005336
49.065,60.6197,0.005336
49.096,60.6502,0.005336
49.127,60.6817,0.005336
49.157,60.7112,0.005336
49.189,60.7427,0.005336
49.220,60.7740,0.005336
49.250,60.8039,0.001524
49.281,60.8354,0.001524
49.312,60.8662,0.001524
49.343,60.8972,0.001524
49.375,60.9287,0.001524
49.407,60.9614,0.001524
49.438,60.9914,0.001524
49.468,61.0224,0.001524
49.499,61.0536,-0.003802
49.531,61.0863,-0.003802
49.562,61.1160,-0.003802
49.592,61.1465,-0.003802
49.624,61.1778,-0.003802
49.654,61.2089,-0.003802
49.689,61.2429,-0.003802
49.718,61.2718,-0.003802
49.748,61.3022,-0.011443
49.779,61.3329,-0.011443
49.810,61.3647,-0.011443
49.841,61.3946,-0.011443
49.872,61.4266,-0.011443
49.903,61.4572,-0.011443
49.934,61.4892,-0.011443
49.966,61.5201,-0.011443
49.997,61.5517,-0.022114
50.029,61.5830,-0.022114
50.060,61.6146,-0.022114
50.090,61.6442,-0.022114
50.121,61.6756,-0.022114
50.153,61.7074,-0.022114
50.183,61.7375,-0.022114
50.214,61.7678,-0.036936
50.247,61.8014,-0.036936
50.275,61.8301,-0.036936
50.312,61.8660,-0.036936
50.338,61.8917,-0.036936
50.369,61.9237,-0.036936
50.400,61.9538,-0.036936
50.431,61.9853,-0.036936
50.462,62.0154,-0.036936
50.493,62.0473,-0.057930
50.523,62.0770,-0.057930
50.555,62.1094,-0.057930
50.584,62.1382,-0.057930
50.616,62.1698,-0.057930
50.647,62.2009,-0.057930
50.679,62.2326,-0.057930
50.709,62.2632,-0.087837
50.740,62.2944,-0.087837
50.771,62.3256,-0.087837
50.802,62.3558,-0.087837
50.833,62.3874,-0.087837
50.863,62.4170,-0.087837
50.896,62.4495,-0.087837
50.925,62.4788,-0.087837
50.955,62.5092,-0.087837
50.986,62.5392,-0.129412
51.017,62.5698,-0.129412
51.048,62.5979,-0.129412
51.080,62.6265,-0.129412
51.113,62.6563,-0.129412
51.143,62.6818,-0.129412
51.174,62.7081,-0.129412
51.203,62.7317,-0.190137
51.234,62.7562,-0.190137
51.265,62.7802,-0.190137
51.297,62.8040,-0.190137
51.327,62.8258,-0.190137
51.358,62.8478,-0.190137
51.389,62.8685,-0.190137
51.421,62.8891,-0.190137
51.452,62.9084,-0.190137
51.483,62.9271,-0.190137
51.514,62.9451,-0.304784
51.544,62.9621,-0.304784
51.575,62.9787,-0.304784
51.606,62.9942,-0.304784
51.637,63.0095,-0.304784
51.668,63.0239,-0.304784
51.699,63.0375,-0.304784
51.730,63.0510,-0.304784
51.761,63.0627,-0.505498
51.792,63.0744,-0.505498
51.823,63.0850,-0.505498
51.854,63.0949,-0.505498
51.885,63.1042,-0.505498
51.916,63.1129,-0.505498
51.946,63.1206,-0.505498
51.972,63.1266,-0.771511
52.009,63.1341,-0.771511
52.040,63.1400,-0.771511
52.071,63.1449,-0.771511
52.102,63.1490,-0.771511
52.134,63.1526,-0.771511
52.164,63.1552,-0.771511
52.195,63.1573,-0.771511
52.225,63.1586,-0.771511
52.256,63.1592,-1.009650
52.287,63.1592,-1.009650
52.319,63.1592,-1.009650
52.350,63.1592,-1.009650
52.381,63.1592,-1.009650
52.413,63.1592,-1.009650
52.444,63.1592,-1.009650
52.474,63.1592,-1.009650
52.505,63.1592,-1.009650
52.536,63.1592,-0.958975
52.567,63.1592,-0.958975
52.598,63.1592,-0.958975
52.629,63.1592,-0.958975
52.661,63.1592,-0.958975
52.692,63.1592,-0.958975
52.722,63.1592,-0.958975
52.754,63.1592,-0.702843
52.786,63.1592,-0.702843
52.816,63.1592,-0.702843
52.847,63.1592,-0.702843
52.878,63.1592,-0.702843
52.910,63.1592,-0.702843
52.941,63.1592,-0.702843
52.972,63.1592,-0.702843
53.003,63.1592,-0.543177
53.034,63.1592,-0.543177
53.064,63.1592,-0.543177
53.095,63.1592,-0.543177
53.129,63.1592,-0.543177
53.156,63.1592,-0.543177
53.187,63.1592,-0.543177
53.218,63.1592,-0.543177
53.249,63.1592,-0.468242
53.280,63.1592,-0.468242
53.312,63.1592,-0.468242
53.342,63.1592,-0.468242
53.374,63.1592,-0.468242
53.405,63.1592,-0.468242
53.436,63.1592,-0.468242
53.468,63.1592,-0.468242
53.499,63.1592,-0.427881
53.530,63.1592,-0.427881
53.561,63.1592,-0.427881
53.592,63.1592,-0.427881
53.622,63.1592,-0.427881
53.655,63.1592,-0.427881
53.684,63.1592,-0.427881
53.715,63.1592,-0.427881
53.746,63.1592,-0.427881
53.777,63.1592,-0.404317
53.807,63.1592,-0.404317
53.838,63.1592,-0.404317
53.870,63.1592,-0.404317
53.900,63.1592,-0.404317
53.930,63.1592,-0.404317
53.962,63.1592,-0.404317
53.993,63.1592,-0.388724
54.024,63.1592,-0.388724
54.055,63.1592,-0.388724
54.086,63.1592,-0.388724
54.116,63.1592,-0.388724
54.148,63.1592,-0.388724
54.178,63.1592,-0.388724
54.209,63.1592,-0.388724
54.240,63.1592,-0.377225
54.271,63.1592,-0.377225
54.303,63.1592,-0.377225
54.334,63.1592,-0.377225
54.363,63.1592,-0.377225
54.395,63.1592,-0.377225
54.426,63.1592,-0.377225
54.462,63.1592,-0.377225
54.488,63.1592,-0.368379
54.520,63.1592,-0.368379
54.551,63.1592,-0.368379
54.582,63.1592,-0.368379
54.612,63.1592,-0.368379
54.642,63.1592,-0.368379
54.673,63.1592,-0.368379
54.704,63.1592,-0.368379
54.735,63.1592,-0.361302
54.765,63.1592,-0.361302
54.796,63.1592,-0.361302
54.827,63.1592,-0.361302
54.858,63.1592,-0.361302
54.889,63.1592,-0.361302
54.920,63.1592,-0.361302
54.951,63.1592,-0.361302
54.982,63.1592,-0.355515
55.013,63.1592,-0.355515
55.044,63.1592,-0.355515
55.075,63.1592,-0.355515
55.106,63.1592,-0.355515
55.137,63.1592,-0.355515
55.168,63.1592,-0.355515
55.199,63.1592,-0.355515
55.231,63.1592,-0.350556
55.262,63.1592,-0.350556
55.294,63.1592,-0.350556
55.323,63.1592,-0.350556
55.354,63.1592,-0.350556
55.385,63.1592,-0.350556
55.416,63.1592,-0.350556
55.447,63.1592,-0.350556
55.477,63.1592,-0.350556
55.508,63.1592,-0.346330
55.543,63.1592,-0.346330
55.570,63.1592,-0.346330
55.602,63.1592,-0.346330
55.632,63.1592,-0.346330
55.663,63.1592,-0.346330
55.695,63.1592,-0.346330
55.726,63.1592,-0.346330
55.757,63.1592,-0.346330
55.789,63.1592,-0.342792
55.820,63.1592,-0.342792
55.851,63.1592,-0.342792
55.880,63.1592,-0.342792
55.912,63.1592,-0.342792
55.943,63.1592,-0.342792
55.974,63.1592,-0.342792
56.005,63.1592,-0.339649
56.035,63.1592,-0.339649
56.067,63.1592,-0.339649
56.099,63.1592,-0.339649
56.129,63.1592,-0.339649
56.159,63.1592,-0.339649
56.191,63.1592,-0.339649
56.222,63.1592,-0.339649
56.254,63.1592,-0.336788
56.285,63.1592,-0.336788
56.316,63.1592,-0.336788
56.349,63.1592,-0.336788
56.378,63.1592,-0.336788
56.410,63.1592,-0.336788
56.440,63.1592,-0.336788
56.471,63.1592,-0.336788
56.503,63.1592,-0.334182
56.534,63.1592,-0.334182
56.566,63.1592,-0.334182
56.596,63.1592,-0.334182
56.627,63.1592,-0.334182
56.657,63.1592,-0.334182
56.689,63.1592,-0.334182
56.720,63.1592,-0.334182
56.751,63.1592,-0.331886
56.782,63.1592,-0.331886
56.813,63.1592,-0.331886
56.844,63.1592,-0.331886
56.875,63.1592,-0.331886
56.906,63.1592,-0.331886
56.936,63.1592,-0.331886
56.967,63.1592,-0.331886
56.999,63.1592,-0.329157
57.030,63.1592,-0.329157
57.060,63.1592,-0.329157
57.091,63.1592,-0.329157
57.122,63.1592,-0.329157
57.153,63.1592,-0.329157
57.184,63.1592,-0.329157
57.215,63.1592,-0.329157
57.247,63.1592,-0.325326
57.277,63.1592,-0.325326
57.309,63.1592,-0.325326
57.340,63.1592,-0.325326
57.371,63.1592,-0.325326
57.402,63.1591,-0.325326
57.433,63.1582,-0.325326
57.464,63.1566,-0.325326
57.496,63.1543,-0.320602
57.526,63.1512,-0.320602
57.557,63.1476,-0.320602
57.588,63.1431,-0.320602
57.619,63.1380,-0.320602
57.651,63.1317,-0.320602
57.682,63.1252,-0.320602
57.712,63.1179,-0.320602
57.742,63.1101,-0.052670
57.773,63.1013,-0.052670
57.804,63.0918,-0.052670
57.835,63.0814,-0.052670
57.866,63.0703,-0.052670
57.897,63.0587,-0.052670
57.927,63.0469,-0.052670
57.959,63.0331,-0.052670
57.990,63.0195,-0.052670
58.021,63.0047,0.124010
58.051,62.9898,0.124010
58.081,62.9740,0.124010
58.112,62.9575,0.124010
58.143,62.9395,0.124010
58.174,62.9216,0.124010
58.205,62.9025,0.124010
58.236,62.8832,-0.001063
58.267,62.8626,-0.001063
58.298,62.8413,-0.001063
58.328,62.8204,-0.001063
58.359,62.7980,-0.001063
58.390,62.7742,-0.001063
58.420,62.7504,-0.001063
58.451,62.7266,-0.001063
58.482,62.7007,-0.018473
58.514,62.6746,-0.018473
58.543,62.6482,-0.018473
58.574,62.6213,-0.018473
58.605,62.5926,-0.018473
58.636,62.5641,-0.018473
58.667,62.5326,-0.018473
58.698,62.5038,-0.018473
58.729,62.4728,-0.018473
58.760,62.4417,0.020533
58.792,62.4097,0.020533
58.822,62.3787,0.020533
58.853,62.3483,0.020533
58.884,62.3179,0.020533
58.915,62.2872,0.020533
58.946,62.2559,0.020533
58.977,62.2245,0.020533
59.008,62.1942,0.053197
59.039,62.1624,0.053197
59.070,62.1320,0.053197
59.102,62.1000,0.053197
59.133,62.0688,0.053197
59.164,62.0375,0.053197
59.195,62.0069,0.053197
59.225,61.9760,0.053197
59.256,61.9461,0.070117
59.287,61.9146,0.070117
59.319,61.8834,0.070117
59.349,61.8523,0.070117
59.380,61.8204,0.070117
59.413,61.7881,0.070117
59.443,61.7582,0.070117
59.475,61.7272,0.070117
59.507,61.6951,0.074860
59.538,61.6633,0.074860
59.568,61.6341,0.074860
59.600,61.6014,0.074860
59.630,61.5716,0.074860
59.661,61.5412,0.074860
59.692,61.5098,0.074860
59.723,61.4792,0.074860
59.754,61.4480,0.073834
59.787,61.4144,0.073834
59.817,61.3848,0.073834
59.848,61.3530,0.073834
59.881,61.3200,0.073834
59.910,61.2918,0.073834
59.941,61.2608,0.073834
59.971,61.2302,0.073834
60.002,61.1992,0.070794
60.034,61.1680,0.070794
60.065,61.1369,0.070794
60.096,61.1059,0.070794
60.128,61.0734,0.070794
60.159,61.0425,0.070794
60.190,61.0115,0.070794
60.221,60.9803,0.068959
60.250,60.9508,0.068959
60.281,60.9204,0.068959
60.312,60.8894,0.068959
60.343,60.8590,0.068959
60.375,60.8269,0.068959
60.406,60.7962,0.068959
60.436,60.7658,0.068959
60.468,60.7343,0.069580
60.499,60.7031,0.069580
60.530,60.6711,0.069580
60.561,60.6408,0.069580
60.592,60.6103,0.069580
60.622,60.5801,0.069580
60.653,60.5489,0.069580
60.686,60.5164,0.069580
60.715,60.4869,0.069580
60.746,60.4556,0.072338
60.777,60.4252,0.072338
60.808,60.3942,0.072338
60.840,60.3625,0.072338
60.870,60.3316,0.072338
60.901,60.3006,0.072338
60.932,60.2688,0.072338
60.963,60.2378,0.077429
60.995,60.2071,0.077429
61.025,60.1764,0.077429
61.058,60.1442,0.077429
61.088,60.1138,0.077429
61.119,60.0834,0.077429
61.150,60.0518,0.077429
61.181,60.0198,0.077429
61.212,59.9894,0.085268
61.243,59.9584,0.085268
61.274,59.9282,0.085268
61.304,59.8970,0.085268
61.336,59.8665,0.085268
61.367,59.8350,0.085268
61.398,59.8040,0.085268
61.430,59.7722,0.085268
61.460,59.7421,0.085268
61.491,59.7112,0.095261
61.521,59.6805,0.095261
61.553,59.6487,0.095261
61.583,59.6187,0.095261
61.614,59.5878,0.095261
61.644,59.5569,0.095261
61.676,59.5260,0.095261
61.707,59.4943,0.095261
61.738,59.4637,0.095261
61.770,59.4315,0.105603
61.800,59.4013,0.105603
61.832,59.3694,0.105603
61.862,59.3403,0.105603
61.894,59.3075,0.105603
61.924,59.2780,0.105603
61.956,59.2457,0.105603
61.986,59.2161,0.108323
62.018,59.1836,0.108323
62.051,59.1502,0.108323
62.078,59.1232,0.108323
62.109,59.0927,0.108323
62.140,59.0619,0.108323
62.171,59.0299,0.108323
62.204,58.9972,0.108323
62.234,58.9678,0.070305
62.265,58.9367,0.070305
62.296,58.9060,0.070305
62.329,58.8733,0.070305
62.358,58.8442,0.070305
62.388,58.8135,0.070305
62.419,58.7830,0.070305
62.450,58.7511,0.070305
62.481,58.7219,0.029247
62.513,58.6912,0.029247
62.544,58.6628,0.029247
62.575,58.6347,0.029247
62.605,58.6085,0.029247
62.635,58.5819,0.029247
62.667,58.5562,0.029247
62.698,58.5308,0.029247
62.729,58.5055,0.022801
62.760,58.4826,0.022801
62.791,58.4593,0.022801
62.821,58.4377,0.022801
62.852,58.4163,0.022801
62.883,58.3961,0.022801
62.915,58.3750,0.022801
62.945,58.3564,0.022801
62.975,58.3384,0.020882
63.006,58.3204,0.020882
63.037,58.3034,0.020882
63.070,58.2857,0.020882
63.100,58.2710,0.020882
63.130,58.2559,0.020882
63.163,58.2408,0.020882
63.193,58.2279,0.020882
63.225,58.2145,0.019781
63.255,58.2028,0.019781
63.289,58.1908,0.019781
63.318,58.1810,0.019781
63.352,58.1702,0.019781
63.380,58.1622,0.019781
63.410,58.1536,0.019781
63.441,58.1460,0.019781
63.474,58.1387,0.019103
63.503,58.1329,0.019103
63.535,58.1272,0.019103
63.566,58.1225,0.019103
63.597,58.1184,0.019103
63.629,58.1150,0.019103
63.660,58.1124,0.019103
63.692,58.1107,0.019103
63.726,58.1094,0.018670
63.754,58.1092,0.018670
63.785,58.1092,0.018670
63.816,58.1092,0.018670
63.848,58.1092,0.018670
63.880,58.1092,0.018670
63.911,58.1093,0.018670
63.942,58.1102,0.018670
63.973,58.1116,0.018670
64.004,58.1139,0.018473
64.035,58.1169,0.018473
64.066,58.1206,0.018473
64.097,58.1251,0.018473
64.128,58.1302,0.018473
64.159,58.1361,0.018473
64.190,58.1429,0.018473
64.221,58.1501,0.018209
64.252,58.1584,0.018209
64.284,58.1672,0.018209
64.314,58.1765,0.018209
64.346,58.1868,0.018209
64.377,58.1981,0.018209
64.408,58.2098,0.018209
64.440,58.2227,0.018209
64.470,58.2352,0.018209
64.500,58.2491,0.017889
64.532,58.2639,0.017889
64.564,58.2796,0.017889
64.594,58.2956,0.017889
64.625,58.3123,0.017889
64.656,58.3300,0.017889
64.687,58.3478,0.017889
64.718,58.3669,0.017889
64.749,58.3866,0.017889
64.780,58.4071,0.017673
64.811,58.4282,0.017673
64.842,58.4505,0.017673
64.872,58.4720,0.017673
64.903,58.4953,0.017673
64.934,58.5200,0.017673
64.965,58.5445,0.017673
64.996,58.5707,0.017325
65.027,58.5960,0.017325
65.058,58.6232,0.017325
65.089,58.6512,0.017325
65.119,58.6788,0.017325
65.150,58.7087,0.017325
65.182,58.7390,0.017325
65.213,58.7691,0.017325
65.244,58.7998,0.016722
65.274,58.8301,0.016722
65.305,58.8614,0.016722
65.336,58.8925,0.016722
65.368,58.9244,0.016722
65.399,58.9550,0.016722
65.430,58.9862,0.016722
65.460,59.0161,0.016722
65.491,59.0482,0.015960
65.522,59.0778,0.015960
65.553,59.1098,0.015960
65.585,59.1407,0.015960
65.616,59.1726,0.015960
65.647,59.2030,0.015960
65.677,59.2333,0.015960
65.708,59.2646,0.015960
65.739,59.2949,0.015000
65.770,59.3261,0.015000
65.801,59.3567,0.015000
65.832,59.3875,0.015000
65.863,59.4191,0.015000
65.893,59.4495,0.015000
65.924,59.4798,0.015000
65.954,59.5102,0.015000
65.986,59.5419,0.013749
66.017,59.5730,0.013749
66.049,59.6045,0.013749
66.079,59.6353,0.013749
66.110,59.6666,0.013749
66.140,59.6961,0.013749
66.171,59.7271,0.013749
66.202,59.7578,0.013749
66.234,59.7897,0.012186
66.265,59.8213,0.012186
66.294,59.8505,0.012186
66.326,59.8826,0.012186
66.356,59.9125,0.012186
66.388,59.9447,0.012186
66.419,59.9756,0.012186
66.450,60.0070,0.012186
66.481,60.0375,0.010210
66.513,60.0693,0.010210
66.544,60.1001,0.010210
66.574,60.1305,0.010210
66.605,60.1615,0.010210
66.637,60.1933,0.010210
66.669,60.2249,0.010210
66.699,60.2554,0.010210
66.731,60.2875,0.010210
66.762,60.3179,0.007811
66.793,60.3492,0.007811
66.823,60.3797,0.007811
66.855,60.4108,0.007811
66.888,60.4437,0.007811
66.915,60.4712,0.007811
66.946,60.5028,0.007811
66.977,60.5341,0.007811
67.009,60.5651,0.004799
67.039,60.5951,0.004799
67.070,60.6256,0.004799
67.101,60.6576,0.004799
67.133,60.6889,0.004799
67.163,60.7194,0.004799
67.194,60.7503,0.004799
67.225,60.7809,0.004799
67.256,60.8119,0.000696
67.287,60.8434,0.000696
67.319,60.8753,0.000696
67.351,60.9070,0.000696
67.382,60.9379,0.000696
67.412,60.9683,0.000696
67.443,60.9993,0.000696
67.474,61.0306,-0.004988
67.505,61.0607,-0.004988
67.536,61.0923,-0.004988
67.566,61.1220,-0.004988
67.597,61.1535,-0.004988
67.628,61.1836,-0.004988
67.659,61.2156,-0.004988
67.690,61.2457,-0.004988
67.721,61.2782,-0.013005
67.752,61.3081,-0.013005
67.783,61.3388,-0.013005
67.814,61.3696,-0.013005
67.846,61.4016,-0.013005
67.876,61.4325,-0.013005
67.906,61.4624,-0.013005
67.937,61.4938,-0.013005
67.969,61.5254,-0.024392
68.000,61.5557,-0.024392
68.031,61.5866,-0.024392
68.062,61.6183,-0.024392
68.093,61.6493,-0.024392
68.124,61.6800,-0.024392
68.155,61.7107,-0.024392
68.186,61.7418,-0.024392
68.217,61.7722,-0.024392
68.248,61.8040,-0.040192
68.280,61.8359,-0.040192
68.310,61.8664,-0.040192
68.342,61.8989,-0.040192
68.370,61.9264,-0.040192
68.404,61.9600,-0.040192
68.435,61.9914,-0.040192
68.465,62.0204,-0.062570
68.496,62.0519,-0.062570
68.527,62.0833,-0.062570
68.558,62.1139,-0.062570
68.590,62.1462,-0.062570
68.620,62.1760,-0.062570
68.651,62.2077,-0.062570
68.682,62.2381,-0.062570
68.713,62.2696,-0.062570
68.744,62.2999,-0.094443
68.775,62.3313,-0.094443
68.806,62.3622,-0.094443
68.838,62.3950,-0.094443
68.869,62.4252,-0.094443
68.901,62.4573,-0.094443
68.931,62.4867,-0.094443
68.962,62.5167,-0.094443
68.993,62.5451,-0.138954
69.025,62.5744,-0.138954
69.056,62.6017,-0.138954
69.088,62.6296,-0.138954
69.119,62.6556,-0.138954
69.149,62.6798,-0.138954
69.180,62.7046,-0.138954
69.210,62.7282,-0.206323
69.241,62.7516,-0.206323
69.272,62.7732,-0.206323
69.303,62.7953,-0.206323
69.334,62.8161,-0.206323
69.365,62.8364,-0.206323
69.396,62.8557,-0.206323
69.428,62.8750,-0.206323
69.457,62.8924,-0.206323
69.488,62.9098,-0.337137
69.519,62.9266,-0.337137
69.550,62.9426,-0.337137
69.581,62.9581,-0.337137
69.612,62.9722,-0.337137
69.643,62.9860,-0.337137
69.675,62.9993,-0.337137
69.706,63.0116,-0.552917
69.737,63.0233,-0.552917
69.768,63.0339,-0.552917
69.798,63.0440,-0.552917
69.830,63.0533,-0.552917
69.860,63.0619,-0.552917
69.890,63.0696,-0.552917
69.921,63.0770,-0.552917
69.952,63.0833,-0.552917
69.983,63.0891,-0.825432
70.014,63.0941,-0.825432
70.045,63.0984,-0.825432
70.076,63.1020,-0.825432
70.106,63.1049,-0.825432
70.137,63.1070,-0.825432
70.168,63.1085,-0.825432
70.199,63.1091,-0.825432
70.229,63.1092,-0.825432
70.260,63.1092,-1.025845
70.291,63.1092,-1.025845
70.321,63.1092,-1.025845
70.352,63.1092,-1.025845
70.384,63.1092,-1.025845
70.416,63.1092,-1.025845
70.447,63.1092,-1.025845
70.484,63.1092,-1.025845
70.524,63.1092,-0.911725
70.555,63.1092,-0.911725
70.587,63.1092,-0.911725
70.618,63.1092,-0.911725
70.649,63.1092,-0.911725
70.679,63.1092,-0.911725
70.711,63.1092,-0.911725
70.741,63.1092,-0.655556
70.772,63.1092,-0.655556
70.802,63.1092,-0.655556
70.833,63.1092,-0.655556
70.864,63.1092,-0.655556
70.896,63.1092,-0.655556
70.927,63.1092,-0.655556
70.958,63.1092,-0.527725
70.989,63.1092,-0.527725
71.020,63.1092,-0.527725
71.051,63.1092,-0.527725
71.082,63.1092,-0.527725
71.113,63.1092,-0.527725
71.144,63.1092,-0.527725
71.176,63.1092,-0.527725
71.207,63.1092,-0.527725
71.239,63.1092,-0.465278
71.269,63.1092,-0.465278
71.301,63.1092,-0.465278
71.331,63.1092,-0.465278
71.361,63.1092,-0.465278
71.392,63.1092,-0.465278
71.423,63.1092,-0.465278
71.454,63.1092,-0.465278
71.486,63.1092,-0.465278
71.517,63.1092,-0.429057
71.549,63.1092,-0.429057
71.580,63.1092,-0.429057
71.610,63.1092,-0.429057
71.641,63.1092,-0.429057
71.672,63.1092,-0.429057
71.702,63.1092,-0.429057
71.734,63.1092,-0.405908
71.764,63.1092,-0.405908
71.795,63.1092,-0.405908
71.826,63.1092,-0.405908
71.857,63.1092,-0.405908
71.889,63.1092,-0.405908
71.920,63.1092,-0.405908
71.952,63.1092,-0.405908
71.982,63.1092,-0.389985
72.013,63.1092,-0.389985
72.044,63.1092,-0.389985
72.074,63.1092,-0.389985
72.106,63.1092,-0.389985
72.136,63.1092,-0.389985
72.167,63.1092,-0.389985
72.199,63.1092,-0.389985
72.230,63.1092,-0.378269
72.261,63.1092,-0.378269
72.292,63.1092,-0.378269
72.323,63.1092,-0.378269
72.354,63.1092,-0.378269
72.386,63.1092,-0.378269
72.417,63.1092,-0.378269
72.450,63.1092,-0.378269
72.478,63.1092,-0.369414
72.512,63.1092,-0.369414
72.541,63.1092,-0.369414
72.573,63.1092,-0.369414
72.604,63.1092,-0.369414
72.635,63.1092,-0.369414
72.668,63.1092,-0.369414
72.697,63.1092,-0.369414
72.729,63.1092,-0.362338
72.759,63.1092,-0.362338
72.793,63.1092,-0.362338
72.821,63.1092,-0.362338
72.854,63.1092,-0.362338
72.882,63.1092,-0.362338
72.913,63.1092,-0.362338
72.944,63.1092,-0.362338
72.976,63.1092,-0.356418
73.008,63.1092,-0.356418
73.039,63.1092,-0.356418
73.069,63.1092,-0.356418
73.100,63.1092,-0.356418
73.131,63.1092,-0.356418
73.163,63.1092,-0.356418
73.194,63.1092,-0.356418
73.225,63.1092,-0.356418
73.256,63.1092,-0.351440
73.287,63.1092,-0.351440
73.317,63.1092,-0.351440
73.349,63.1092,-0.351440
73.379,63.1092,-0.351440
73.410,63.1092,-0.351440
73.442,63.1092,-0.351440
73.473,63.1092,-0.351440
73.504,63.1092,-0.347159
73.535,63.1092,-0.347159
73.566,63.1092,-0.347159
73.596,63.1092,-0.347159
73.627,63.1092,-0.347159
73.658,63.1092,-0.347159
73.689,63.1092,-0.347159
73.720,63.1092,-0.347159
73.751,63.1092,-0.343507
73.782,63.1092,-0.343507
73.811,63.1092,-0.343507
73.842,63.1092,-0.343507
73.873,63.1092,-0.343507
73.904,63.1092,-0.343507
73.935,63.1092,-0.343507
73.966,63.1092,-0.340026
73.997,63.1092,-0.340026
74.028,63.1092,-0.340026
74.059,63.1092,-0.340026
74.091,63.1092,-0.340026
74.121,63.1092,-0.340026
74.153,63.1092,-0.340026
74.184,63.1092,-0.340026
74.215,63.1092,-0.335828
74.246,63.1092,-0.335828
74.279,63.1092,-0.335828
74.308,63.1092,-0.335828
74.338,63.1092,-0.335828
74.369,63.1092,-0.335828
74.401,63.1092,-0.335828
74.432,63.1092,-0.335828
74.463,63.1092,-0.335828
74.495,63.1092,-0.330963
74.527,63.1088,-0.330963
74.558,63.1078,-0.330963
74.590,63.1060,-0.330963
74.620,63.1036,-0.330963
74.650,63.1004,-0.330963
74.681,63.0966,-0.330963
74.712,63.0920,-0.330963
74.743,63.0864,-0.318956
74.774,63.0804,-0.318956
74.805,63.0735,-0.318956
74.836,63.0662,-0.318956
74.866,63.0581,-0.318956
74.897,63.0489,-0.318956
74.928,63.0395,-0.318956
74.959,63.0291,-0.318956
74.989,63.0179,0.369781
75.020,63.0063,0.369781
75.051,62.9936,0.369781
75.082,62.9802,0.369781
75.113,62.9662,0.369781
75.143,62.9517,0.369781
75.175,62.9361,0.369781
75.205,62.9198,0.369781
75.236,62.9031,0.502543
75.274,62.8810,0.502543
75.315,62.8569,0.502543
75.345,62.8375,0.502543
75.376,62.8176,0.502543
75.408,62.7959,0.502543
75.439,62.7741,0.502543
75.470,62.7515,-0.032635
75.500,62.7291,-0.032635
75.531,62.7048,-0.032635
75.562,62.6801,-0.032635
75.593,62.6549,-0.032635
75.624,62.6292,-0.032635
75.656,62.6021,-0.032635
75.688,62.5738,-0.032635
75.719,62.5454,-0.000311
75.750,62.5160,-0.000311
75.781,62.4871,-0.000311
75.816,62.4510,-0.000311
75.843,62.4241,-0.000311
75.874,62.3943,-0.000311
75.904,62.3636,-0.000311
75.937,62.3302,-0.000311
75.966,62.3019,-0.000311
75.996,62.2713,0.038027
76.027,62.2412,0.038027
76.061,62.2071,0.038027
76.089,62.1783,0.038027
76.121,62.1467,0.038027
76.152,62.1158,0.038027
76.183,62.0846,0.038027
76.213,62.0541,0.062852
76.244,62.0244,0.062852
76.275,61.9932,0.062852
76.306,61.9617,0.062852
76.337,61.9310,0.062852
76.368,61.8994,0.062852
76.399,61.8688,0.062852
76.430,61.8377,0.062852
76.460,61.8079,0.062852
76.491,61.7761,0.072507
76.522,61.7459,0.072507
76.554,61.7139,0.072507
76.584,61.6836,0.072507
76.616,61.6514,0.072507
76.648,61.6205,0.072507
76.679,61.5890,0.072507
76.710,61.5580,0.072507
76.741,61.5272,0.073824
76.771,61.4958,0.073824
76.802,61.4659,0.073824
76.834,61.4343,0.073824
76.864,61.4038,0.073824
76.896,61.3723,0.073824
76.927,61.3411,0.073824
76.957,61.3107,0.073824
76.989,61.2794,0.073824
77.019,61.2487,0.071274
77.050,61.2180,0.071274
77.081,61.1870,0.071274
77.113,61.1553,0.071274
77.144,61.1238,0.071274
77.174,61.0936,0.071274
77.205,61.0633,0.071274
77.235,61.0330,0.068602
77.266,61.0022,0.068602
77.296,60.9712,0.068602
77.327,60.9402,0.068602
77.360,60.9073,0.068602
77.389,60.8785,0.068602
77.420,60.8483,0.068602
77.451,60.8165,0.068602
77.483,60.7853,0.068602
77.513,60.7540,0.068197
77.544,60.7235,0.068197
77.575,60.6920,0.068197
77.607,60.6616,0.068197
77.638,60.6300,0.068197
77.668,60.5997,0.068197
77.700,60.5682,0.068197
77.732,60.5361,0.068197
77.761,60.5066,0.070042
77.793,60.4741,0.070042
77.824,60.4438,0.070042
77.854,60.4131,0.070042
77.886,60.3824,0.070042
77.916,60.3510,0.070042
77.947,60.3213,0.070042
77.978,60.2904,0.070042
78.010,60.2582,0.073937
78.041,60.2268,0.073937
78.072,60.1949,0.073937
78.103,60.1644,0.073937
78.134,60.1326,0.073937
78.165,60.1029,0.073937
78.196,60.0720,0.073937
78.226,60.0417,0.073937
78.258,60.0102,0.080609
78.289,59.9789,0.080609
78.321,59.9476,0.080609
78.352,59.9156,0.080609
78.382,59.8856,0.080609
78.415,59.8525,0.080609
78.445,59.8227,0.080609
78.476,59.7912,0.080609
78.507,59.7608,0.089643
78.538,59.7297,0.089643
78.569,59.6992,0.089643
78.605,59.6623,0.089643
78.631,59.6364,0.089643
78.662,59.6060,0.089643
78.693,59.5745,0.089643
78.725,59.5434,0.089643
78.755,59.5129,0.100437
78.786,59.4818,0.100437
78.817,59.4501,0.100437
78.848,59.4191,0.100437
78.879,59.3880,0.100437
78.910,59.3576,0.100437
78.942,59.3257,0.100437
78.973,59.2949,0.100437
79.004,59.2640,0.108709
79.040,59.2275,0.108709
79.081,59.1878,0.108709
79.111,59.1568,0.108709
79.144,59.1233,0.108709
79.173,59.0943,0.108709
79.204,59.0644,0.108709
79.235,59.0328,0.091648
79.266,59.0018,0.091648
79.297,58.9703,0.091648
79.328,58.9407,0.091648
79.361,58.9074,0.091648
79.390,58.8778,0.091648
79.422,58.8455,0.091648
79.453,58.8155,0.091648
79.483,58.7846,0.091648
79.514,58.7542,0.049122
79.545,58.7227,0.049122
79.575,58.6922,0.049122
79.607,58.6630,0.049122
79.638,58.6333,0.049122
79.669,58.6041,0.049122
79.701,58.5763,0.049122
79.732,58.5490,0.049122
79.763,58.5223,0.049122
79.794,58.4971,0.024298
79.824,58.4726,0.024298
79.857,58.4474,0.024298
79.887,58.4242,0.024298
79.918,58.4015,0.024298
79.951,58.3788,0.024298
79.980,58.3582,0.024298
80.011,58.3383,0.021653
80.042,58.3183,0.021653
80.073,58.2996,0.021653
80.104,58.2807,0.021653
80.135,58.2637,0.021653
80.165,58.2469,0.021653
80.196,58.2309,0.021653
80.227,58.2154,0.021653
80.258,58.2005,0.020251
80.289,58.1871,0.020251
80.319,58.1739,0.020251
80.350,58.1610,0.020251
80.381,58.1495,0.020251
80.412,58.1383,0.020251
80.443,58.1280,0.020251
80.474,58.1184,0.020251
80.505,58.1096,0.019404
80.535,58.1016,0.019404
80.566,58.0941,0.019404
80.597,58.0872,0.019404
80.627,58.0814,0.019404
80.659,58.0760,0.019404
80.690,58.0714,0.019404
80.721,58.0675,0.019404
80.752,58.0644,0.018887
80.783,58.0621,0.018887
80.814,58.0603,0.018887
80.844,58.0595,0.018887
80.875,58.0592,0.018887
80.906,58.0592,0.018887
80.938,58.0592,0.018887
80.968,58.0592,0.018887
80.998,58.0592,0.018567
81.029,58.0596,0.018567
81.061,58.0608,0.018567
81.091,58.0627,0.018567
81.123,58.0654,0.018567
81.154,58.0688,0.018567
81.185,58.0727,0.018567
81.217,58.0777,0.018567
81.247,58.0830,0.018369
81.283,58.0907,0.018369
81.325,58.1004,0.018369
81.356,58.1083,0.018369
81.387,58.1171,0.018369
81.418,58.1267,0.018369
81.450,58.1372,0.018369
81.481,58.1481,0.018162
81.512,58.1599,0.018162
81.542,58.1722,0.018162
81.573,58.1856,0.018162
81.603,58.1989,0.018162
81.635,58.2137,0.018162
81.666,58.2290,0.018162
81.697,58.2453,0.018162
81.728,58.2620,0.017814
81.759,58.2797,0.017814
81.790,58.2981,0.017814
81.821,58.3168,0.017814
81.851,58.3362,0.017814
81.883,58.3571,0.017814
81.913,58.3785,0.017814
81.945,58.3999,0.017814
81.976,58.4230,0.017494
82.007,58.4463,0.017494
82.039,58.4716,0.017494
82.070,58.4960,0.017494
82.100,58.5216,0.017494
82.131,58.5469,0.017494
82.162,58.5744,0.017494
82.194,58.6023,0.017494
82.223,58.6295,0.017494
82.254,58.6585,0.017089
82.290,58.6938,0.017089
82.316,58.7193,0.017089
82.347,58.7505,0.017089
82.379,58.7815,0.017089
82.410,58.8123,0.017089
82.440,58.8429,0.017089
82.470,58.8737,0.017089
82.502,58.9052,0.016412
82.533,58.9361,0.016412
82.565,58.9679,0.016412
82.593,58.9966,0.016412
82.627,59.0307,0.016412
82.655,59.0586,0.016412
82.686,59.0895,0.016412
82.717,59.1199,0.015480
82.748,59.1510,0.015480
82.780,59.1824,0.015480
82.811,59.2147,0.015480
82.841,59.2444,0.015480
82.872,59.2751,0.015480
82.903,59.3068,0.015480
82.934,59.3373,0.015480
82.965,59.3687,0.015480
82.997,59.3994,0.014304
83.028,59.4303,0.014304
83.058,59.4612,0.014304
83.089,59.4924,0.014304
83.121,59.5234,0.014304
83.152,59.5549,0.014304
83.182,59.5854,0.014304
83.213,59.6165,0.014304
83.245,59.6482,0.012864
83.275,59.6780,0.012864
83.306,59.7089,0.012864
83.337,59.7396,0.012864
83.370,59.7727,0.012864
83.400,59.8029,0.012864
83.431,59.8345,0.012864
83.463,59.8659,0.011123
83.493,59.8966,0.011123
83.525,59.9275,0.011123
83.555,59.9588,0.011123
83.586,59.9886,0.011123
83.618,60.0206,0.011123
83.648,60.0509,0.011123
83.679,60.0825,0.011123
83.711,60.1137,0.011123
83.745,60.1473,0.008959
83.775,60.1774,0.008959
83.807,60.2100,0.008959
83.838,60.2407,0.008959
83.868,60.2713,0.008959
83.899,60.3021,0.008959
83.930,60.3329,0.008959
83.964,60.3668,0.008959
83.993,60.3961,0.006201
84.023,60.4258,0.006201
84.053,60.4561,0.006201
84.084,60.4873,0.006201
84.115,60.5180,0.006201
84.147,60.5499,0.006201
84.178,60.5805,0.006201
84.208,60.6106,0.006201
84.238,60.6409,0.002588
84.270,60.6730,0.002588
84.300,60.7041,0.002588
84.332,60.7345,0.002588
84.363,60.7657,0.002588
84.395,60.7977,0.002588
84.426,60.8288,0.002588
84.457,60.8608,0.002588
84.489,60.8913,-0.002306
84.519,60.9219,-0.002306
84.550,60.9529,-0.002306
84.582,60.9844,-0.002306
84.612,61.0149,-0.002306
84.644,61.0466,-0.002306
84.674,61.0766,-0.002306
84.707,61.1094,-0.002306
84.737,61.1392,-0.009297
84.767,61.1701,-0.009297
84.798,61.2010,-0.009297
84.829,61.2322,-0.009297
84.859,61.2627,-0.009297
84.891,61.2936,-0.009297
84.921,61.3238,-0.009297
84.952,61.3550,-0.009297
84.984,61.3865,-0.019235
85.015,61.4185,-0.019235
85.046,61.4487,-0.019235
85.077,61.4808,-0.019235
85.107,61.5099,-0.019235
85.138,61.5418,-0.019235
85.169,61.5718,-0.019235
85.200,61.6038,-0.019235
85.231,61.6338,-0.032983
85.263,61.6661,-0.032983
85.294,61.6972,-0.032983
85.326,61.7292,-0.032983
85.357,61.7597,-0.032983
85.388,61.7917,-0.032983
85.419,61.8220,-0.032983
85.451,61.8537,-0.032983
85.482,61.8846,-0.052359
85.512,61.9156,-0.052359
85.544,61.9471,-0.052359
85.575,61.9774,-0.052359
85.606,62.0084,-0.052359
85.637,62.0405,-0.052359
85.668,62.0709,-0.052359
85.699,62.1019,-0.052359
85.730,62.1330,-0.080120
85.761,62.1633,-0.080120
85.791,62.1948,-0.080120
85.823,62.2258,-0.080120
85.854,62.2573,-0.080120
85.885,62.2879,-0.080120
85.916,62.3193,-0.080120
85.947,62.3496,-0.080120
85.978,62.3809,-0.119041
86.009,62.4119,-0.119041
86.040,62.4427,-0.119041
86.071,62.4713,-0.119041
86.102,62.5001,-0.119041
86.132,62.5279,-0.119041
86.163,62.5552,-0.119041
86.194,62.5824,-0.119041
86.225,62.6075,-0.174873
86.255,62.6325,-0.174873
86.286,62.6571,-0.174873
86.317,62.6811,-0.174873
86.348,62.7041,-0.174873
86.380,62.7268,-0.174873
86.410,62.7484,-0.174873
86.441,62.7689,-0.174873
86.473,62.7898,-0.274661
86.504,62.8088,-0.274661
86.535,62.8277,-0.274661
86.566,62.8458,-0.274661
86.598,62.8640,-0.274661
86.629,62.8799,-0.274661
86.661,62.8960,-0.274661
86.691,62.9110,-0.274661
86.723,62.9256,-0.456667
86.754,62.9395,-0.456667
86.785,62.9523,-0.456667
86.817,62.9645,-0.456667
86.847,62.9756,-0.456667
86.879,62.9867,-0.456667
86.910,62.9965,-0.456667
86.942,63.0060,-0.456667
86.972,63.0142,-0.714371
87.003,63.0220,-0.714371
87.034,63.0288,-0.714371
87.064,63.0350,-0.714371
87.096,63.0407,-0.714371
87.127,63.0456,-0.714371
87.158,63.0497,-0.714371
87.190,63.0531,-0.714371
87.221,63.0557,-0.976243
87.252,63.0576,-0.976243
87.282,63.0587,-0.976243
87.314,63.0592,-0.976243
87.344,63.0592,-0.976243
87.376,63.0592,-0.976243
87.406,63.0592,-0.976243
87.438,63.0592,-0.976243
87.469,63.0592,-0.991008
87.500,63.0592,-0.991008
87.531,63.0592,-0.991008
87.564,63.0592,-0.991008
87.593,63.0592,-0.991008
87.625,63.0592,-0.991008
87.656,63.0592,-0.991008
87.687,63.0592,-0.991008
87.718,63.0592,-0.755541
87.748,63.0592,-0.755541
87.780,63.0592,-0.755541
87.811,63.0592,-0.755541
87.842,63.0592,-0.755541
87.874,63.0592,-0.755541
87.904,63.0592,-0.755541
87.935,63.0592,-0.755541
87.966,63.0592,-0.755541
87.997,63.0592,-0.567399
88.028,63.0592,-0.567399
88.059,63.0592,-0.567399
88.092,63.0592,-0.567399
88.121,63.0592,-0.567399
88.151,63.0592,-0.567399
88.182,63.0592,-0.567399
88.214,63.0592,-0.567399
88.245,63.0592,-0.567399
88.276,63.0592,-0.480560
88.308,63.0592,-0.480560
88.339,63.0592,-0.480560
88.370,63.0592,-0.480560
88.401,63.0592,-0.480560
88.431,63.0592,-0.480560
88.462,63.0592,-0.480560
88.493,63.0592,-0.435287
88.524,63.0592,-0.435287
88.555,63.0592,-0.435287
88.586,63.0592,-0.435287
88.617,63.0592,-0.435287
88.648,63.0592,-0.435287
88.679,63.0592,-0.435287
88.710,63.0592,-0.435287
88.741,63.0592,-0.435287
88.772,63.0592,-0.409229
88.803,63.0592,-0.409229
88.835,63.0592,-0.409229
88.864,63.0592,-0.409229
88.896,63.0592,-0.409229
88.927,63.0592,-0.409229
88.958,63.0592,-0.409229
88.989,63.0592,-0.392197
89.021,63.0592,-0.392197
89.052,63.0592,-0.392197
89.083,63.0592,-0.392197
89.114,63.0592,-0.392197
89.145,63.0592,-0.392197
89.176,63.0592,-0.392197
89.207,63.0592,-0.392197
89.238,63.0592,-0.392197
89.269,63.0592,-0.379869
89.300,63.0592,-0.379869
89.332,63.0592,-0.379869
89.362,63.0592,-0.379869
89.393,63.0592,-0.379869
89.425,63.0592,-0.379869
89.456,63.0592,-0.379869
89.487,63.0592,-0.379869
89.518,63.0592,-0.370468
89.549,63.0592,-0.370468
89.580,63.0592,-0.370468
89.611,63.0592,-0.370468
89.642,63.0592,-0.370468
89.673,63.0592,-0.370468
89.704,63.0592,-0.370468
89.735,63.0592,-0.370468
89.766,63.0592,-0.363024
89.797,63.0592,-0.363024
89.828,63.0592,-0.363024
89.859,63.0592,-0.363024
89.890,63.0592,-0.363024
89.921,63.0592,-0.363024
89.951,63.0592,-0.363024
89.983,63.0592,-0.356861
90.013,63.0592,-0.356861
90.043,63.0592,-0.356861
90.074,63.0592,-0.356861
90.105,63.0592,-0.356861
90.136,63.0592,-0.356861
90.167,63.0592,-0.356861
90.199,63.0592,-0.356861
90.229,63.0592,-0.356861
90.260,63.0592,-0.351836
90.290,63.0592,-0.351836
90.322,63.0592,-0.351836
90.352,63.0592,-0.351836
90.384,63.0592,-0.351836
90.413,63.0592,-0.351836
90.445,63.0592,-0.351836
90.476,63.0592,-0.347601
90.507,63.0592,-0.347601
90.538,63.0592,-0.347601
90.569,63.0592,-0.347601
90.603,63.0592,-0.347601
90.631,63.0592,-0.347601
90.661,63.0592,-0.347601
90.692,63.0592,-0.347601
90.723,63.0592,-0.343837
90.753,63.0592,-0.343837
90.784,63.0592,-0.343837
90.815,63.0592,-0.343837
90.847,63.0592,-0.343837
90.878,63.0592,-0.343837
90.910,63.0592,-0.343837
90.941,63.0592,-0.343837
90.972,63.0592,-0.343837
91.002,63.0592,-0.340562
91.033,63.0592,-0.340562
91.065,63.0592,-0.340562
91.096,63.0592,-0.340562
91.126,63.0592,-0.340562
91.158,63.0592,-0.340562
91.188,63.0592,-0.340562
91.218,63.0592,-0.340562
91.248,63.0592,-0.337635
91.279,63.0592,-0.337635
91.310,63.0592,-0.337635
91.342,63.0592,-0.337635
91.373,63.0592,-0.337635
91.404,63.0592,-0.337635
91.436,63.0592,-0.337635
91.470,63.0592,-0.337635
91.498,63.0592,-0.334963
91.530,63.0592,-0.334963
91.562,63.0592,-0.334963
91.593,63.0592,-0.334963
91.626,63.0592,-0.334963
91.656,63.0592,-0.334963
91.687,63.0592,-0.334963
91.718,63.0592,-0.334963
91.748,63.0592,-0.332638
91.780,63.0592,-0.332638
91.811,63.0592,-0.332638
91.842,63.0592,-0.332638
91.873,63.0592,-0.332638
91.904,63.0592,-0.332638
91.936,63.0592,-0.332638
91.966,63.0592,-0.330069
91.997,63.0592,-0.330069
92.029,63.0592,-0.330069
92.059,63.0592,-0.330069
92.090,63.0592,-0.330069
92.121,63.0592,-0.330069
92.152,63.0592,-0.330069
92.183,63.0592,-0.330069
92.215,63.0592,-0.330069
92.246,63.0592,-0.326371
92.278,63.0592,-0.326371
92.309,63.0592,-0.326371
92.340,63.0592,-0.326371
92.375,63.0592,-0.326371
92.402,63.0592,-0.326371
92.433,63.0592,-0.326371
92.464,63.0592,-0.321798
92.495,63.0588,-0.321798
92.526,63.0579,-0.321798
92.557,63.0560,-0.321798
92.588,63.0535,-0.321798
92.618,63.0503,-0.321798
92.650,63.0463,-0.321798
92.682,63.0415,-0.321798
92.712,63.0362,-0.321798
92.744,63.0297,-0.321798
92.775,63.0228,-0.258964
92.801,63.0164,-0.258964
92.836,63.0070,-0.258964
92.867,62.9981,-0.258964
92.899,62.9880,-0.258964
92.929,62.9774,-0.258964
92.960,62.9662,0.277766
92.992,62.9542,0.277766
93.023,62.9415,0.277766
93.053,62.9284,0.277766
93.084,62.9141,0.277766
93.114,62.8996,0.277766
93.146,62.8837,0.277766
93.176,62.8679,0.277766
93.207,62.8504,0.277766
93.239,62.8324,0.355581
93.270,62.8135,0.355581
93.301,62.7947,0.355581
93.333,62.7743,0.355581
93.364,62.7538,0.355581
93.396,62.7313,0.355581
93.427,62.7092,0.355581
93.458,62.6860,0.355581
93.489,62.6626,-0.027939
93.521,62.6375,-0.027939
93.551,62.6130,-0.027939
93.581,62.5882,-0.027939
93.612,62.5613,-0.027939
93.644,62.5327,-0.027939
93.675,62.5042,-0.027939
93.707,62.4754,0.007999
93.738,62.4462,0.007999
93.769,62.4162,0.007999
93.800,62.3849,0.007999
93.831,62.3540,0.007999
93.862,62.3234,0.007999
93.893,62.2923,0.007999
93.923,62.2617,0.007999
93.954,62.2312,0.007999
93.985,62.1994,0.007999
94.016,62.1691,0.044897
94.048,62.1367,0.044897
94.079,62.1063,0.044897
94.111,62.0742,0.044897
94.141,62.0436,0.044897
94.173,62.0118,0.044897
94.204,61.9808,0.044897
94.234,61.9505,0.044897
94.264,61.9207,0.067143
94.295,61.8897,0.067143
94.326,61.8589,0.067143
94.362,61.8233,0.067143
94.402,61.7828,0.067143
94.433,61.7515,0.067143
94.465,61.7198,0.074954
94.496,61.6893,0.074954
94.527,61.6581,0.074954
94.559,61.6263,0.074954
94.589,61.5962,0.074954
94.620,61.5649,0.074954
94.651,61.5340,0.074954
94.683,61.5010,0.074954
94.714,61.4706,0.075387
94.746,61.4386,0.075387
94.777,61.4077,0.075387
94.806,61.3791,0.075387
94.838,61.3466,0.075387
94.869,61.3157,0.075387
94.900,61.2846,0.075387
94.932,61.2531,0.075387
94.962,61.2228,0.075387
94.993,61.1917,0.072545
95.024,61.1604,0.072545
95.055,61.1298,0.072545
95.085,61.0998,0.072545
95.116,61.0685,0.072545
95.150,61.0348,0.072545
95.177,61.0074,0.072545
95.209,60.9759,0.072545
95.240,60.9445,0.069872
95.272,60.9130,0.069872
95.303,60.8824,0.069872
95.334,60.8501,0.069872
95.365,60.8201,0.069872
95.396,60.7887,0.069872
95.427,60.7581,0.069872
95.457,60.7282,0.069872
95.488,60.6968,0.069524
95.519,60.6657,0.069524
95.550,60.6341,0.069524
95.582,60.6033,0.069524
95.612,60.5724,0.069524
95.643,60.5417,0.069524
95.676,60.5088,0.069524
95.706,60.4788,0.069524
95.737,60.4469,0.071406
95.769,60.4163,0.071406
95.799,60.3860,0.071406
95.830,60.3551,0.071406
95.861,60.3243,0.071406
95.892,60.2923,0.071406
95.923,60.2620,0.071406
95.953,60.2317,0.071406
95.984,60.2005,0.071406
96.015,60.1700,0.071406
96.045,60.1395,0.075631
96.076,60.1082,0.075631
96.108,60.0767,0.075631
96.139,60.0462,0.075631
96.169,60.0157,0.075631
96.201,59.9837,0.075631
96.232,59.9528,0.075631
96.262,59.9230,0.082755
96.299,59.8847,0.082755
96.339,59.8455,0.082755
96.370,59.8143,0.082755
96.402,59.7833,0.082755
96.432,59.7524,0.082755
96.463,59.7215,0.082755
96.495,59.6898,0.082755
96.526,59.6591,0.092109
96.558,59.6267,0.092109
96.589,59.5962,0.092109
96.621,59.5641,0.092109
96.652,59.5325,0.092109
96.683,59.5011,0.092109
96.715,59.4706,0.092109
96.746,59.4385,0.103072
96.777,59.4076,0.103072
96.810,59.3742,0.103072
96.840,59.3452,0.103072
96.870,59.3151,0.103072
96.900,59.2847,0.103072
96.931,59.2534,0.103072
96.963,59.2216,0.110751
96.994,59.1904,0.110751
97.025,59.1603,0.110751
97.056,59.1298,0.110751
97.087,59.0975,0.110751
97.118,59.0665,0.110751
97.150,59.0347,0.110751
97.181,59.0035,0.110751
97.211,58.9738,0.110751
97.244,58.9415,0.110751
97.274,58.9111,0.089069
97.304,58.8806,0.089069
97.338,58.8465,0.089069
97.366,58.8179,0.089069
97.397,58.7875,0.089069
97.429,58.7557,0.089069
97.460,58.7248,0.089069
97.491,58.6936,0.089069
97.522,58.6623,0.045650
97.554,58.6313,0.045650
97.585,58.6016,0.045650
97.615,58.5739,0.045650
97.646,58.5459,0.045650
97.677,58.5182,0.045650
97.707,58.4916,0.045650
97.738,58.4651,0.024072
97.769,58.4401,0.024072
97.801,58.4147,0.024072
97.833,58.3904,0.024072
97.863,58.3677,0.024072
97.894,58.3455,0.024072
97.925,58.3235,0.024072
97.956,58.3025,0.024072
97.986,58.2827,0.021531
98.018,58.2625,0.021531
98.048,58.2445,0.021531
98.079,58.2260,0.021531
98.110,58.2088,0.021531
98.143,58.1909,0.021531
98.173,58.1759,0.021531
98.203,58.1609,0.021531
98.234,58.1463,0.020214
98.265,58.1325,0.020214
98.297,58.1196,0.020214
98.328,58.1070,0.020214
98.359,58.0954,0.020214
98.390,58.0846,0.020214
98.421,58.0743,0.020214
98.452,58.0650,0.020214
98.484,58.0561,0.019423
98.519,58.0472,0.019423
98.546,58.0411,0.019423
98.577,58.0345,0.019423
98.608,58.0291,0.019423
98.639,58.0240,0.019423
98.670,58.0198,0.019423
98.702,58.0161,0.019423
98.732,58.0133,0.019423
98.762,58.0113,0.018924
98.795,58.0099,0.018924
98.825,58.0092,0.018924
98.856,58.0092,0.018924
98.888,58.0092,0.018924
98.918,58.0092,0.018924
98.949,58.0097,0.018924
98.980,58.0108,0.018614
99.012,58.0128,0.018614
99.043,58.0154,0.018614
99.074,58.0189,0.018614
99.106,58.0231,0.018614
99.136,58.0280,0.018614
99.168,58.0334,0.018614
99.199,58.0399,0.018614
99.230,58.0468,0.018275
99.261,58.0548,0.018275
99.292,58.0633,0.018275
99.323,58.0724,0.018275
99.354,58.0825,0.018275
99.379,58.0912,0.018275
99.416,58.1047,0.018275
99.447,58.1166,0.018275
99.478,58.1297,0.018021
99.510,58.1434,0.018021
99.540,58.1576,0.018021
99.572,58.1731,0.018021
99.602,58.1884,0.018021
99.633,58.2052,0.018021
99.664,58.2218,0.018021
99.695,58.2402,0.018021
99.726,58.2584,0.017776
99.758,58.2784,0.017776
99.788,58.2980,0.017776
99.819,58.3188,0.017776
99.850,58.3404,0.017776
99.881,58.3629,0.017776
99.911,58.3851,0.017776
99.942,58.4086,0.017776
99.973,58.4329,0.017456
100.004,58.4584,0.017456
100.034,58.4837,0.017456
100.065,58.5098,0.017456
100.094,58.5370,0.017456
100.125,58.5644,0.017456
100.158,58.5946,0.017456
100.188,58.6230,0.017456
100.219,58.6530,0.016939
100.249,58.6837,0.016939
100.280,58.7142,0.016939
100.311,58.7458,0.016939
100.342,58.7758,0.016939
100.374,58.8086,0.016939
100.404,58.8382,0.016939
100.437,58.8717,0.016939
100.466,58.9002,0.016176
100.497,58.9323,0.016176
100.529,58.9631,0.016176
100.563,58.9984,0.016176
100.591,59.0255,0.016176
100.622,59.0560,0.016176
100.653,59.0876,0.016176
100.686,59.1206,0.016176
100.715,59.1495,0.015217
100.746,59.1799,0.015217
100.776,59.2114,0.015217
100.808,59.2424,0.015217
100.839,59.2735,0.015217
100.871,59.3048,0.015217
100.901,59.3354,0.015217
100.932,59.3657,0.015217
100.962,59.3967,0.015217
100.993,59.4272,0.013927
101.025,59.4592,0.013927
101.055,59.4890,0.013927
101.085,59.5196,0.013927
101.117,59.5511,0.013927
101.148,59.5825,0.013927
101.179,59.6143,0.013927
101.209,59.6435,0.013927
101.241,59.6750,0.012356
101.271,59.7059,0.012356
101.303,59.7370,0.012356
101.333,59.7671,0.012356
101.363,59.7980,0.012356
101.395,59.8294,0.012356
101.426,59.8604,0.012356
101.457,59.8915,0.012356
101.489,59.9232,0.012356
101.519,59.9542,0.010530
101.550,59.9844,0.010530
101.581,60.0151,0.010530
101.612,60.0464,0.010530
101.645,60.0791,0.010530
101.674,60.1093,0.010530
101.706,60.1401,0.010530
101.737,60.1718,0.008206
101.767,60.2010,0.008206
101.799,60.2335,0.008206
101.830,60.2641,0.008206
101.860,60.2951,0.008206
101.892,60.3259,0.008206
101.922,60.3569,0.008206
101.953,60.3878,0.008206
101.985,60.4195,0.008206
102.016,60.4503,0.005176
102.048,60.4826,0.005176
102.079,60.5133,0.005176
102.111,60.5458,0.005176
102.142,60.5763,0.005176
102.174,60.6089,0.005176
102.204,60.6390,0.005176
102.235,60.6692,0.005176
102.266,60.7000,0.001186
102.297,60.7314,0.001186
102.329,60.7633,0.001186
102.360,60.7942,0.001186
102.391,60.8251,0.001186
102.421,60.8554,0.001186
102.452,60.8865,0.001186
102.484,60.9178,-0.004357
102.514,60.9486,-0.004357
102.547,60.9808,-0.004357
102.576,61.0104,-0.004357
102.607,61.0406,-0.004357
102.638,61.0720,-0.004357
102.669,61.1032,-0.004357
102.700,61.1347,-0.004357
102.732,61.1661,-0.004357
102.763,61.1973,-0.012234
102.795,61.2294,-0.012234
102.827,61.2616,-0.012234
102.857,61.2909,-0.012234
102.888,61.3226,-0.012234
102.919,61.3530,-0.012234
102.950,61.3853,-0.012234
102.981,61.4152,-0.012234
103.012,61.4464,-0.023291
103.044,61.4779,-0.023291
103.074,61.5083,-0.023291
103.105,61.5399,-0.023291
103.137,61.5711,-0.023291
103.168,61.6029,-0.023291
103.200,61.6338,-0.023291
103.231,61.6651,-0.023291
103.262,61.6957,-0.038630
103.293,61.7278,-0.038630
103.325,61.7591,-0.038630
103.356,61.7906,-0.038630
103.388,61.8233,-0.038630
103.419,61.8535,-0.038630
103.450,61.8841,-0.038630
103.482,61.9157,-0.038630
103.511,61.9451,-0.060368
103.542,61.9765,-0.060368
103.573,62.0075,-0.060368
103.604,62.0378,-0.060368
103.634,62.0685,-0.060368
103.666,62.0997,-0.060368
103.697,62.1309,-0.060368
103.728,62.1619,-0.060368
103.759,62.1928,-0.091337
103.789,62.2228,-0.091337
103.820,62.2538,-0.091337
103.851,62.2858,-0.091337
103.883,62.3167,-0.091337
103.914,62.3482,-0.091337
103.945,62.3793,-0.091337
103.976,62.4090,-0.134587
104.007,62.4381,-0.134587
104.038,62.4663,-0.134587
104.068,62.4935,-0.134587
104.099,62.5211,-0.134587
104.131,62.5470,-0.134587
104.161,62.5722,-0.134587
104.192,62.5972,-0.134587
104.224,62.6217,-0.198964
104.255,62.6456,-0.198964
104.286,62.6681,-0.198964
104.317,62.6899,-0.198964
104.348,62.7106,-0.198964
104.379,62.7318,-0.198964
104.410,62.7516,-0.198964
104.441,62.7707,-0.198964
104.473,62.7888,-0.322663
104.504,62.8072,-0.322663
104.535,62.8233,-0.322663
104.566,62.8397,-0.322663
104.596,62.8545,-0.322663
104.628,62.8692,-0.322663
104.660,62.8836,-0.322663
104.692,62.8972,-0.322663
104.721,62.9093,-0.529014
104.752,62.9208,-0.529014
104.783,62.9317,-0.529014
104.814,62.9418,-0.529014
104.845,62.9516,-0.529014
104.876,62.9602,-0.529014
104.908,62.9686,-0.529014
104.939,62.9760,-0.529014
104.970,62.9825,-0.529014
105.001,62.9883,-0.798942
105.032,62.9935,-0.798942
105.062,62.9978,-0.798942
105.087,63.0009,-0.798942
105.125,63.0045,-0.798942
105.155,63.0068,-0.798942
105.185,63.0082,-0.798942
105.215,63.0091,-1.016294
105.245,63.0092,-1.016294
105.276,63.0092,-1.016294
105.309,63.0092,-1.016294
105.339,63.0092,-1.016294
105.370,63.0092,-1.016294
105.401,63.0092,-1.016294
105.432,63.0092,-1.016294
105.463,63.0092,-1.016294
105.493,63.0092,-0.926829
105.524,63.0092,-0.926829
105.556,63.0092,-0.926829
105.586,63.0092,-0.926829
105.618,63.0092,-0.926829
105.648,63.0092,-0.926829
105.680,63.0092,-0.926829
105.711,63.0092,-0.669126
105.742,63.0092,-0.669126
105.773,63.0092,-0.669126
105.804,63.0092,-0.669126
105.834,63.0092,-0.669126
105.866,63.0092,-0.669126
105.897,63.0092,-0.669126
105.928,63.0092,-0.669126
105.958,63.0092,-0.669126
105.989,63.0092,-0.525975
106.021,63.0092,-0.525975
106.050,63.0092,-0.525975
106.082,63.0092,-0.525975
106.113,63.0092,-0.525975
106.139,63.0092,-0.525975
106.174,63.0092,-0.525975
106.206,63.0092,-0.525975
106.240,63.0092,-0.458126
106.269,63.0092,-0.458126
