Elapsed Time (s),Position (mm),Force (N)
-0.018,54.1000,0.002417
0.001,54.1000,-0.003625
0.014,54.1000,-0.006042
0.031,54.1000,-0.009668
0.047,54.1000,-0.006042
0.063,54.1000,-0.003625
0.081,54.1000,-0.010876
0.094,54.1000,-0.010876
0.110,54.1000,-0.006042
0.127,54.1000,-0.006042
0.143,54.1000,-0.002417
0.158,54.1000,-0.006042
0.175,54.1000,-0.006042
0.190,54.1000,-0.001208
0.206,54.1000,-0.001208
0.222,54.1000,0.001208
0.238,54.1000,-0.004834
0.254,54.1000,-0.004834
0.270,54.1000,-0.009668
0.286,54.1000,-0.009668
0.302,54.1000,-0.003625
0.319,54.1000,-0.004834
0.336,54.1000,-0.004834
0.351,54.1000,-0.001208
0.367,54.1000,-0.003625
0.383,54.1000,-0.007251
0.398,54.1000,-0.003625
0.414,54.1000,-0.004834
0.430,54.1000,-0.003625
0.446,54.1000,-0.003625
0.462,54.1000,0.000000
0.478,54.1000,-0.003625
0.497,54.1000,-0.002417
0.521,54.1000,-0.002417
0.537,54.1000,-0.006042
0.554,54.1000,-0.006042
0.569,54.1000,-0.009668
0.585,54.1000,-0.009668
0.601,54.1000,-0.006042
0.617,54.1000,-0.002417
0.635,54.1000,-0.002417
0.649,54.1000,-0.003625
0.668,54.1000,-0.004834
0.681,54.1000,-0.001208
0.697,54.1000,-0.002417
0.713,54.1000,-0.002417
0.730,54.1000,-0.006042
0.745,54.1000,-0.006042
0.761,54.1000,0.001208
0.777,54.1000,-0.004834
0.793,54.1000,-0.003625
0.809,54.1000,-0.003625
0.825,54.1000,-0.009668
0.844,54.1000,-0.009668
0.857,54.1000,-0.007251
0.873,54.1000,-0.002417
0.889,54.1000,-0.002417
0.905,54.1000,-0.002417
0.920,54.1000,-0.002417
0.937,54.1000,-0.004834
0.953,54.1000,-0.004834
0.969,54.1000,-0.003625
0.985,54.1000,-0.003625
1.001,54.1000,-0.002417
1.016,54.1000,0.002417
1.033,54.1000,-0.001208
1.049,54.1000,-0.009668
1.064,54.1000,-0.010876
1.081,54.1000,-0.006042
1.097,54.1000,-0.001208
1.114,54.1000,-0.001208
1.129,54.1000,-0.004834
1.144,54.1000,-0.004834
1.161,54.1000,-0.007251
1.178,54.1000,-0.008459
1.194,54.1000,-0.008459
1.211,54.1000,-0.003625
1.225,54.1000,-0.003625
1.241,54.1000,-0.002417
1.256,54.1000,-0.002417
1.272,54.1000,-0.008459
1.288,54.1000,-0.006042
1.305,54.1000,-0.006042
1.321,54.1000,0.000000
1.336,54.1000,-0.001208
1.353,54.1000,-0.008459
1.368,54.1000,-0.008459
1.384,54.1000,-0.002417
1.401,54.1000,-0.004834
1.417,54.1000,-0.003625
1.433,54.1000,-0.003625
1.448,54.1000,-0.001208
1.465,54.1000,0.001208
1.480,54.1000,-0.003625
1.496,54.1000,-0.006042
1.512,54.1000,-0.001208
1.528,54.1000,-0.003625
1.545,54.1000,-0.001208
1.560,54.1000,-0.003625
1.590,54.1000,0.001208
1.605,54.1000,-0.003625
1.621,54.1000,-0.007251
1.637,54.1000,-0.007251
1.654,54.1000,-0.003625
1.670,54.1000,0.001208
1.685,54.1000,0.000000
1.701,54.1000,-0.003625
1.718,54.1000,0.003625
1.734,54.1000,0.003625
1.752,54.1000,-0.003625
1.765,54.1000,-0.001208
1.782,54.1000,-0.003625
1.798,54.1000,0.002417
1.815,54.1000,0.002417
1.830,54.1000,-0.003625
1.846,54.1000,-0.006042
1.861,54.1000,-0.003625
1.877,54.1000,-0.003625
1.894,54.1000,-0.003625
1.909,54.1000,-0.003625
1.925,54.1000,0.002417
1.942,54.1000,0.003625
1.958,54.1000,-0.004834
1.974,54.1000,-0.002417
1.989,54.1000,-0.003625
2.006,54.1000,-0.007251
2.022,54.1000,-0.006042
2.038,54.1000,0.000000
2.053,54.1000,0.000000
2.070,54.1000,-0.004834
2.085,54.1000,0.000000
2.103,54.1000,-0.003625
2.127,54.1000,-0.003625
2.144,54.1000,-0.002417
2.159,54.1000,-0.008459
2.175,54.1000,-0.009668
2.193,54.1000,-0.001208
2.207,54.1000,0.000000
2.223,54.1000,-0.008459
2.239,54.1000,-0.004834
2.256,54.1000,-0.004834
2.271,54.1000,-0.002417
2.287,54.1000,-0.003625
2.303,54.1000,-0.003625
2.321,54.1000,-0.003625
2.335,54.1000,-0.003625
2.351,54.1000,-0.002417
2.367,54.1000,-0.002417
2.385,54.1000,-0.002417
2.399,54.1000,-0.004834
2.415,54.1000,-0.008459
2.431,54.1000,-0.007251
2.447,54.1000,-0.006042
2.463,54.1000,-0.002417
2.479,54.1000,-0.002417
2.496,54.1000,-0.002417
2.511,54.1000,-0.004834
2.527,54.1000,-0.012084
2.543,54.1000,-0.007251
2.559,54.1000,-0.003625
2.575,54.1000,0.001208
2.592,54.1000,-0.004834
2.607,54.1000,0.002417
2.625,54.1000,0.002417
2.640,54.1000,-0.001208
2.656,54.1000,-0.002417
2.671,54.1000,0.000000
2.687,54.1000,0.000000
2.703,54.1000,0.001208
2.719,54.1000,-0.003625
2.735,54.1000,-0.007251
2.751,54.1000,-0.004834
2.767,54.1000,-0.006042
2.784,54.1000,-0.002417
2.799,54.1000,-0.007251
2.818,54.1000,-0.007251
2.831,54.1000,-0.003625
2.847,54.1000,-0.006042
2.864,54.1000,-0.006042
2.879,54.1000,-0.007251
2.895,54.1000,-0.007251
2.911,54.1000,-0.002417
2.927,54.1000,0.000000
2.944,54.1000,-0.003625
2.959,54.1000,-0.009668
2.975,54.1000,-0.006042
2.991,54.1000,-0.002417
3.008,54.1000,-0.001208
3.023,54.1000,-0.003625
3.039,54.1000,-0.004834
3.055,54.1000,0.000000
3.071,54.1000,-0.002417
3.087,54.1000,-0.002417
3.103,54.1000,0.002417
3.119,54.1000,-0.002417
3.135,54.1000,-0.006042
3.152,54.1000,0.000000
3.166,54.1000,-0.004834
3.183,54.1000,-0.008459
3.211,54.1000,-0.003625
3.226,54.1000,-0.006042
3.243,54.1000,-0.001208
3.258,54.1000,-0.004834
3.279,54.1000,-0.002417
3.291,54.1000,-0.006042
3.307,54.1000,-0.006042
3.326,54.1000,-0.006042
3.340,54.1000,-0.002417
3.354,54.1000,-0.003625
3.371,54.1000,-0.006042
3.387,54.1000,-0.002417
3.403,54.1000,-0.007251
3.419,54.1000,-0.004834
3.434,54.1000,-0.004834
3.451,54.1000,0.001208
3.467,54.1000,0.001208
3.483,54.1000,-0.001208
3.498,54.1000,-0.002417
3.515,54.1000,-0.001208
3.530,54.1000,-0.004834
3.546,54.1000,-0.001208
3.562,54.1000,-0.003625
3.579,54.1000,-0.001208
3.598,54.1000,-0.001208
3.612,54.1000,-0.001208
3.627,54.1000,-0.006042
3.644,54.1000,-0.003625
3.659,54.1000,-0.003625
3.674,54.1000,-0.004834
3.690,54.1000,-0.001208
3.710,54.1000,0.002417
3.723,54.1000,-0.001208
3.738,54.1000,-0.002417
3.754,54.1000,0.000000
3.777,54.1000,0.002417
3.798,54.1000,0.002417
3.809,54.1000,-0.006042
3.824,54.1000,-0.004834
3.841,54.1000,-0.007251
3.857,54.1000,-0.008459
3.873,54.1000,-0.007251
3.888,54.1000,-0.003625
3.904,54.1000,-0.003625
3.920,54.1000,0.002417
3.936,54.1000,0.002417
3.953,54.1000,-0.004834
3.968,54.1000,-0.006042
3.984,54.1000,-0.001208
4.000,54.1000,-0.003625
4.021,54.1000,-0.007251
4.034,54.1000,-0.003625
4.049,54.1000,-0.007251
4.065,54.1000,-0.001208
4.081,54.1000,-0.004834
4.096,54.1000,-0.004834
4.116,54.1000,-0.004834
4.128,54.1000,-0.002417
4.145,54.1000,-0.002417
4.161,54.1000,-0.002417
4.176,54.1000,-0.002417
4.192,54.1000,-0.003625
4.208,54.1000,-0.007251
4.224,54.1000,-0.007251
4.240,54.1000,-0.006042
4.257,54.1000,-0.006042
4.272,54.1000,-0.004834
4.288,54.1000,-0.002417
4.319,54.1000,-0.001208
4.337,54.1000,-0.002417
4.351,54.1000,0.002417
4.366,54.1000,-0.002417
4.382,54.1000,-0.004834
4.398,54.1000,-0.004834
4.414,54.1000,0.000000
4.430,54.1000,-0.006042
4.449,54.1000,-0.003625
4.463,54.1000,0.001208
4.478,54.1000,-0.006042
4.494,54.1000,-0.006042
4.511,54.1000,-0.004834
4.526,54.1000,-0.003625
4.545,54.1000,-0.003625
4.558,54.1000,-0.001208
4.574,54.1000,-0.004834
4.590,54.1000,-0.007251
4.606,54.1000,-0.007251
4.622,54.1000,-0.007251
4.638,54.1000,-0.007251
4.654,54.1000,-0.007251
4.670,54.1000,0.001208
4.686,54.1000,-0.003625
4.702,54.1000,-0.003625
4.718,54.1000,-0.002417
4.734,54.1000,-0.007251
4.750,54.1000,-0.001208
4.766,54.1000,-0.003625
4.782,54.1000,0.001208
4.798,54.1000,-0.002417
4.814,54.1000,-0.008459
4.830,54.1000,-0.006042
4.846,54.1000,-0.003625
4.877,54.1000,0.000000
4.893,54.1000,-0.008459
4.909,54.1000,-0.002417
4.925,54.1000,-0.001208
4.941,54.1000,0.003625
4.957,54.1000,-0.003625
4.976,54.1000,-0.006042
4.989,54.1000,0.001208
5.006,54.1000,0.001208
5.021,54.1000,0.001208
5.037,54.1000,-0.002417
5.054,54.1000,-0.001208
5.069,54.1000,0.001208
5.085,54.1000,0.001208
5.101,54.1000,-0.007251
5.117,54.1000,-0.006042
5.133,54.1000,-0.003625
5.149,54.1000,-0.003625
5.166,54.1000,0.000000
5.181,54.1000,-0.002417
5.197,54.1000,-0.002417
5.213,54.1000,0.001208
5.229,54.1000,-0.002417
5.245,54.1000,-0.004834
5.261,54.1000,-0.001208
5.277,54.1000,-0.007251
5.294,54.1000,-0.003625
5.309,54.1000,-0.004834
5.325,54.1000,0.000000
5.341,54.1000,-0.001208
5.357,54.1000,-0.006042
5.373,54.1000,-0.003625
5.389,54.1000,-0.008459
5.411,54.1000,-0.006042
5.428,54.1000,-0.004834
5.444,54.1000,0.000000
5.460,54.1000,0.003625
5.476,54.1000,0.003625
5.492,54.1000,-0.002417
5.508,54.1000,-0.004834
5.524,54.1000,-0.008459
5.540,54.1000,-0.004834
5.556,54.1000,-0.004834
5.571,54.1000,-0.002417
5.588,54.1000,-0.002417
5.603,54.1000,0.004834
5.620,54.1000,-0.007251
5.638,54.1000,-0.007251
5.652,54.1000,-0.007251
5.668,54.1000,0.000000
5.684,54.1000,0.001208
5.700,54.1000,-0.001208
5.716,54.1000,-0.003625
5.732,54.1000,-0.004834
5.747,54.1000,-0.008459
5.765,54.1000,-0.004834
5.780,54.1000,0.002417
5.795,54.1000,0.002417
5.813,54.1000,0.002417
5.828,54.1000,-0.007251
5.844,54.1000,-0.007251
5.860,54.1000,-0.003625
5.876,54.1000,0.000000
5.892,54.1000,-0.003625
5.908,54.1000,-0.001208
5.933,54.1000,-0.002417
5.949,54.1000,-0.008459
5.964,54.1000,-0.003625
5.980,54.1000,-0.007251
5.999,54.1000,-0.002417
6.012,54.1000,-0.002417
6.028,54.1000,-0.006042
6.044,54.1000,0.000000
6.063,54.1000,0.000000
6.077,54.1000,0.000000
6.093,54.1000,-0.002417
6.111,54.1000,0.000000
6.125,54.1000,-0.001208
6.141,54.1000,-0.002417
6.156,54.1000,-0.004834
6.172,54.1000,-0.008459
6.191,54.1000,-0.008459
6.204,54.1000,-0.002417
6.221,54.1000,-0.002417
6.236,54.1000,-0.001208
6.254,54.1000,-0.003625
6.269,54.1000,-0.003625
6.284,54.1000,-0.002417
6.300,54.1000,-0.006042
6.316,54.1000,-0.006042
6.333,54.1000,-0.002417
6.348,54.1000,-0.003625
6.365,54.1000,-0.003625
6.380,54.1000,0.004834
6.396,54.1000,0.002417
6.412,54.1000,-0.008459
6.428,54.1000,-0.007251
6.444,54.1000,-0.003625
6.460,54.1000,-0.002417
6.476,54.1000,0.004834
6.492,54.1000,-0.001208
6.508,54.1000,-0.009668
6.524,54.1000,-0.013293
6.540,54.1000,-0.007251
6.556,54.1000,-0.001208
6.572,54.1000,0.004834
6.591,54.1000,-0.002417
6.604,54.1000,-0.002417
6.621,54.1000,-0.004834
6.636,54.1000,0.002417
6.652,54.1000,-0.004834
6.669,54.1000,-0.004834
6.685,54.1000,-0.004834
6.701,54.1000,-0.002417
6.716,54.1000,-0.002417
6.732,54.1000,-0.002417
6.748,54.1000,-0.003625
6.765,54.1000,-0.003625
6.780,54.1000,-0.002417
6.803,54.1000,-0.002417
6.813,54.1000,-0.001208
6.828,54.1000,-0.006042
6.844,54.1000,-0.003625
6.860,54.1000,-0.006042
6.876,54.1000,0.002417
6.896,54.1000,0.002417
6.908,54.1000,-0.001208
6.924,54.1000,0.000000
6.940,54.1000,-0.003625
6.956,54.1000,-0.003625
6.975,54.1000,0.000000
6.988,54.1000,-0.009668
7.004,54.1000,-0.009668
7.020,54.1000,-0.001208
7.037,54.1000,0.000000
7.058,54.1000,0.000000
7.068,54.1000,-0.003625
7.084,54.1000,-0.002417
7.100,54.1000,-0.001208
7.116,54.1000,-0.001208
7.132,54.1000,0.001208
7.148,54.1000,-0.002417
7.171,54.1000,0.001208
7.183,54.1000,-0.012084
7.196,54.1000,-0.013293
7.213,54.1000,-0.006042
7.229,54.1000,-0.006042
7.244,54.1000,-0.003625
7.260,54.1000,-0.006042
7.276,54.1000,-0.003625
7.293,54.1000,-0.004834
7.308,54.1000,-0.004834
7.324,54.1000,-0.002417
7.340,54.1000,-0.001208
7.356,54.1000,0.001208
7.373,54.1000,0.001208
7.390,54.1000,-0.004834
7.404,54.1000,-0.003625
7.420,54.1000,-0.002417
7.436,54.1000,-0.003625
7.452,54.1000,-0.003625
7.468,54.1000,-0.002417
7.484,54.1000,0.001208
7.500,54.1000,-0.003625
7.517,54.1000,-0.004834
7.531,54.1000,0.000000
7.548,54.1000,0.000000
7.564,54.1000,0.000000
7.580,54.1000,0.000000
7.597,54.1000,0.000000
7.612,54.1000,0.001208
7.628,54.1000,0.002417
7.644,54.1000,-0.001208
7.661,54.1000,0.000000
7.676,54.1000,0.001208
7.692,54.1000,0.001208
7.708,54.1000,-0.004834
7.725,54.1000,-0.004834
7.740,54.1000,-0.008459
7.756,54.1000,-0.003625
7.772,54.1000,-0.001208
7.788,54.1000,0.001208
7.804,54.1000,0.000000
7.820,54.1000,0.000000
7.837,54.1000,0.000000
7.852,54.1000,-0.012084
7.868,54.1000,-0.004834
7.884,54.1000,-0.003625
7.900,54.1000,-0.001208
7.916,54.1000,-0.001208
7.933,54.1000,0.000000
7.948,54.1000,-0.006042
7.964,54.1000,-0.006042
7.980,54.1000,-0.004834
7.995,54.1000,-0.004834
8.011,54.1000,0.002417
8.027,54.1000,-0.002417
8.043,54.1000,-0.001208
8.060,54.1000,-0.004834
8.076,54.1000,-0.004834
8.091,54.1000,-0.006042
8.108,54.1000,-0.006042
8.123,54.1000,-0.002417
8.140,54.1000,0.000000
8.161,54.1000,0.004834
8.186,54.1000,-0.004834
8.204,54.1000,-0.004834
8.219,54.1000,-0.010876
8.237,54.1000,0.000000
8.252,54.1000,-0.006042
8.267,54.1000,-0.003625
8.284,54.1000,-0.004834
8.300,54.1000,0.001208
8.316,54.1000,-0.004834
8.335,54.1000,-0.003625
8.348,54.1000,-0.006042
8.364,54.1000,-0.006042
8.380,54.1000,-0.002417
8.395,54.1000,-0.002417
8.411,54.1000,-0.007251
8.430,54.1000,-0.007251
8.444,54.1000,-0.003625
8.460,54.1000,-0.003625
8.476,54.1000,-0.003625
8.492,54.1000,0.001208
8.507,54.1000,-0.002417
8.523,54.1000,-0.007251
8.539,54.1000,0.001208
8.555,54.1000,-0.001208
8.571,54.1000,-0.002417
8.590,54.1000,-0.003625
8.603,54.1000,-0.002417
8.620,54.1000,-0.003625
8.635,54.1000,-0.008459
8.651,54.1000,-0.006042
8.667,54.1000,-0.003625
8.684,54.1000,-0.001208
8.699,54.1000,-0.004834
8.719,54.1000,-0.001208
8.732,54.1000,-0.003625
8.747,54.1000,-0.009668
8.763,54.1000,-0.009668
8.781,54.1000,0.000000
8.796,54.1000,0.000000
8.812,54.1000,-0.003625
8.827,54.1000,-0.001208
8.843,54.1000,-0.008459
8.859,54.1000,-0.004834
8.875,54.1000,-0.001208
8.891,54.1000,-0.004834
8.908,54.1000,0.002417
8.923,54.1000,0.000000
8.939,54.1000,-0.004834
8.955,54.1000,-0.004834
8.972,54.1000,-0.008459
8.988,54.1000,-0.002417
9.003,54.1000,-0.002417
9.019,54.1000,-0.001208
9.035,54.1000,0.000000
9.051,54.1000,0.000000
9.067,54.1000,-0.006042
9.087,54.1000,-0.008459
9.099,54.1000,-0.007251
9.115,54.1000,-0.007251
9.131,54.1000,-0.004834
9.148,54.1000,-0.007251
9.164,54.1000,-0.004834
9.182,54.1000,-0.002417
9.205,54.1000,-0.001208
9.221,54.1000,-0.010876
9.237,54.1000,-0.002417
9.253,54.1000,-0.002417
9.272,54.1000,-0.004834
9.285,54.1000,-0.006042
9.301,54.1000,-0.006042
9.317,54.1000,-0.006042
9.333,54.1000,-0.004834
9.350,54.1000,-0.006042
9.367,54.1000,-0.006042
9.381,54.1000,-0.003625
9.398,54.1000,-0.002417
9.413,54.1000,-0.003625
9.429,54.1000,-0.004834
9.446,54.1000,-0.003625
9.461,54.1000,-0.002417
9.477,54.1000,-0.006042
9.493,54.1000,-0.007251
9.509,54.1000,0.001208
9.525,54.1000,0.000000
9.541,54.1000,-0.002417
9.557,54.1000,-0.004834
9.573,54.1000,-0.002417
9.589,54.1000,-0.007251
9.605,54.1000,-0.008459
9.622,54.1000,-0.001208
9.637,54.1000,0.000000
9.653,54.1000,-0.001208
9.669,54.1000,0.001208
9.685,54.1000,-0.006042
9.701,54.1000,-0.002417
9.717,54.1000,0.000000
9.746,54.1000,0.000000
9.762,54.1000,-0.001208
9.778,54.1000,-0.002417
9.794,54.1000,-0.006042
9.812,54.1000,-0.004834
9.826,54.1000,0.002417
9.842,54.1000,-0.002417
9.858,54.1000,-0.003625
9.874,54.1000,-0.002417
9.890,54.1000,-0.006042
9.905,54.1000,-0.004834
9.922,54.1000,-0.002417
9.937,54.1000,-0.004834
9.955,54.1000,-0.004834
9.970,54.1000,-0.001208
9.989,54.1000,-0.001208
10.002,54.1000,-0.006042
10.019,54.1000,-0.001208
10.033,54.1000,-0.001208
10.050,54.1000,-0.002417
10.066,54.1000,-0.002417
10.081,54.1000,-0.001208
10.097,54.1000,-0.001208
10.114,54.1000,0.001208
10.130,54.1000,0.001208
10.145,54.1000,0.004834
10.162,54.1000,-0.002417
10.177,54.1000,-0.004834
10.194,54.1000,-0.004834
10.209,54.1000,-0.003625
10.226,54.1000,-0.003625
10.241,54.1000,-0.006042
10.258,54.1000,-0.006042
10.285,54.1000,-0.007251
10.302,54.1000,-0.004834
10.318,54.1000,-0.006042
10.333,54.1000,-0.010876
10.350,54.1000,-0.006042
10.365,54.1000,-0.007251
10.381,54.1000,-0.004834
10.397,54.1000,-0.009668
10.414,54.1000,0.001208
10.429,54.1000,-0.003625
10.445,54.1000,-0.003625
10.464,54.1000,-0.003625
10.478,54.1000,-0.004834
10.494,54.1000,-0.002417
10.509,54.1000,-0.006042
10.526,54.1000,-0.006042
10.541,54.1000,0.000000
10.558,54.1000,-0.003625
10.573,54.1000,-0.009668
10.590,54.1000,-0.006042
10.605,54.1000,-0.001208
10.621,54.1000,-0.007251
10.638,54.1000,-0.003625
10.654,54.1000,-0.003625
10.669,54.1000,0.002417
10.685,54.1000,-0.004834
10.701,54.1000,0.002417
10.717,54.1000,0.002417
10.733,54.1000,-0.003625
10.750,54.1000,-0.004834
10.766,54.1000,-0.004834
10.781,54.1000,0.001208
10.812,54.1000,-0.003625
10.829,54.1000,0.000000
10.844,54.1000,0.001208
10.860,54.1000,-0.003625
10.877,54.1000,-0.003625
10.895,54.1000,-0.006042
10.909,54.1000,-0.006042
10.924,54.1000,-0.002417
10.940,54.1000,-0.007251
10.957,54.1000,-0.007251
10.974,54.1000,-0.007251
10.988,54.1000,-0.008459
11.004,54.1000,-0.008459
11.022,54.1000,-0.007251
11.036,54.1000,-0.007251
11.052,54.1000,-0.003625
11.068,54.1000,-0.006042
11.085,54.1000,-0.006042
11.100,54.1000,-0.008459
11.116,54.1000,-0.002417
11.133,54.1000,-0.001208
11.148,54.1000,0.001208
11.164,54.0569,0.021752
11.180,53.9271,0.008459
11.196,53.7949,-0.008459
11.212,53.6628,0.007251
11.229,53.5181,0.003625
11.244,53.3951,0.003625
11.260,53.2604,0.001208
11.276,53.1315,0.008459
11.294,52.9777,0.002417
11.308,52.8655,-0.002417
11.324,52.7325,0.001208
11.353,52.4923,-0.004834
11.371,52.3384,-0.001208
11.386,52.2178,0.001208
11.401,52.0923,-0.006042
11.417,51.9511,-0.009668
11.434,51.8164,-0.010876
11.452,51.6692,0.000000
11.465,51.5611,-0.001208
11.482,51.4206,-0.006042
11.497,51.2893,-0.007251
11.516,51.1337,0.002417
11.529,51.0299,-0.002417
11.545,50.8910,-0.004834
11.561,50.7630,-0.010876
11.578,50.6217,-0.002417
11.593,50.4961,-0.003625
11.609,50.3574,-0.003625
11.625,50.2268,-0.003625
11.641,50.0996,-0.002417
11.657,49.9650,-0.002417
11.673,49.8311,-0.006042
11.689,49.6947,-0.004834
11.705,49.5658,0.002417
11.721,49.4329,-0.001208
11.738,49.2874,-0.001208
11.753,49.1619,-0.009668
11.769,49.0304,-0.003625
11.786,48.8925,-0.006042
11.802,48.7628,-0.004834
11.818,48.6290,-0.004834
11.833,48.5035,-0.003625
11.849,48.3621,-0.002417
11.865,48.2307,-0.003625
11.881,48.1003,-0.049546
11.911,48.0500,-0.093050
11.926,48.0500,-0.004834
11.942,48.0500,-0.015710
11.957,48.0500,-0.010876
11.975,48.0500,-0.010876
11.990,48.0500,-0.003625
12.010,48.0500,-0.012084
12.022,48.0500,-0.007251
12.037,48.0500,-0.001208
12.054,48.0500,-0.001208
12.070,48.0500,-0.003625
12.086,48.0500,-0.001208
12.102,48.0500,-0.001208
12.118,48.0500,-0.007251
12.133,48.0500,-0.002417
12.150,48.0500,-0.007251
12.165,48.0500,-0.007251
12.181,48.0500,-0.003625
12.197,48.0500,-0.007251
12.213,48.0500,-0.007251
12.229,48.0500,-0.004834
12.245,48.0500,-0.008459
12.261,48.0500,0.000000
12.279,48.1331,-0.021752
12.294,48.2570,-0.015710
12.310,48.3859,-0.007251
12.326,48.5172,-0.015710
12.341,48.6494,0.002417
12.357,48.7857,0.000000
12.374,48.9187,0.000000
12.389,49.0459,-0.008459
12.405,49.1872,-0.010876
12.421,49.3128,-0.008459
12.437,49.4458,-0.006042
12.466,49.6878,-0.006042
12.483,49.8216,0.000000
12.499,49.9630,-0.001208
12.514,50.0851,-0.007251
12.531,50.2281,-0.001208
12.547,50.3561,0.003625
12.566,50.5249,-0.002417
12.578,50.6172,-0.004834
12.595,50.7577,-0.004834
12.611,50.8890,0.001208
12.628,51.0379,-0.004834
12.642,51.1517,0.001208
12.658,51.2848,-0.002417
12.675,51.4227,-0.002417
12.690,51.5475,0.000000
12.706,51.6813,0.000000
12.722,51.8151,-0.001208
12.738,51.9482,-0.001208
12.754,52.0795,-0.001208
12.770,52.2134,-0.002417
12.786,52.3464,-0.002417
12.802,52.4794,-0.004834
12.818,52.6132,0.000000
12.834,52.7504,-0.001208
12.850,52.8785,0.000000
12.866,53.0106,0.000000
12.882,53.1445,-0.003625
12.898,53.2784,-0.007251
12.914,53.4122,-0.006042
12.930,53.5444,-0.007251
12.946,53.6773,-0.009668
12.963,53.8162,-0.002417
12.978,53.9460,-0.003625
12.994,54.0494,0.094259
13.024,54.0500,-0.002417
13.040,54.0500,0.000000
13.056,54.0500,-0.012084
13.072,54.0500,0.001208
13.088,54.0500,-0.003625
13.104,54.0500,0.004834
13.120,54.0500,-0.010876
13.136,54.0500,-0.001208
13.152,54.0500,-0.004834
13.170,54.0500,-0.002417
13.184,54.0500,-0.010876
13.201,54.0500,-0.002417
13.216,54.0500,-0.010876
13.232,54.0500,-0.010876
13.248,54.0500,0.001208
13.265,54.0500,0.001208
13.281,54.0500,-0.006042
13.296,54.0500,-0.006042
13.312,54.0500,-0.003625
13.328,54.0500,-0.002417
13.345,54.0500,-0.002417
13.361,54.0500,-0.003625
13.376,54.0500,-0.004834
13.393,54.0500,-0.004834
13.409,54.0500,-0.003625
13.424,54.0500,0.001208
13.446,54.0500,-0.001208
13.457,54.0500,-0.004834
13.473,54.0500,-0.001208
13.489,54.0500,-0.002417
13.504,54.0500,-0.001208
13.520,54.0500,-0.002417
13.536,54.0500,-0.003625
13.564,54.0500,-0.007251
13.580,54.0500,-0.004834
13.596,54.0500,-0.003625
13.612,54.0500,-0.004834
13.629,54.0500,-0.003625
13.644,54.0500,-0.002417
13.660,54.0500,-0.006042
13.676,54.0500,-0.006042
13.692,54.0500,-0.008459
13.708,54.0500,0.002417
13.726,54.0500,0.002417
13.740,54.0500,0.002417
13.757,54.0500,0.002417
13.772,54.0500,-0.004834
13.788,54.0500,-0.007251
13.804,54.0500,-0.007251
13.820,54.0500,0.000000
13.836,54.0500,0.000000
13.852,54.0500,-0.008459
13.868,54.0500,-0.006042
13.884,54.0500,0.001208
13.903,54.0500,0.001208
13.915,54.0500,-0.001208
13.933,54.0500,-0.002417
13.948,54.0500,-0.006042
13.964,54.0500,-0.001208
13.981,54.0500,-0.007251
13.996,54.0500,-0.010876
14.012,54.0500,-0.009668
14.028,54.0500,-0.004834
14.048,54.0500,0.003625
14.059,54.0500,0.000000
14.076,54.0500,-0.007251
14.092,54.0500,-0.006042
14.108,54.0500,-0.002417
14.124,54.0500,-0.003625
14.139,54.0500,-0.004834
14.156,54.0500,0.001208
14.172,54.0500,-0.006042
14.188,54.0500,-0.002417
14.204,54.0500,-0.002417
14.220,54.0500,0.003625
14.235,54.0500,0.003625
14.251,54.0500,-0.004834
14.267,54.0500,0.000000
14.284,54.0500,0.000000
14.300,54.0500,-0.003625
14.315,54.0500,-0.003625
14.332,54.0500,0.000000
14.348,54.0500,-0.001208
14.364,54.0500,-0.001208
14.380,54.0500,0.002417
14.395,54.0500,-0.001208
14.412,54.0500,0.000000
14.428,54.0500,0.001208
14.444,54.0500,-0.009668
14.459,54.0500,-0.010876
14.476,54.0500,-0.008459
14.491,54.0500,-0.002417
14.507,54.0500,0.000000
14.523,54.0500,-0.007251
14.539,54.0500,0.000000
14.556,54.0500,-0.007251
14.571,54.0500,-0.007251
14.588,54.0500,-0.004834
14.604,54.0500,-0.007251
14.619,54.0500,-0.002417
14.647,54.0500,-0.002417
14.663,54.0500,-0.009668
14.679,54.0500,-0.003625
14.694,54.0500,-0.003625
14.713,54.0500,-0.003625
14.727,54.0500,-0.002417
14.744,54.0500,-0.002417
14.758,54.0500,0.000000
14.775,54.0500,0.000000
14.791,54.0500,-0.008459
14.808,54.0500,-0.008459
14.822,54.0500,-0.008459
14.839,54.0500,-0.004834
14.855,54.0500,-0.002417
14.870,54.0500,-0.002417
14.887,54.0500,-0.006042
14.903,54.0500,-0.006042
14.919,54.0500,-0.001208
14.934,54.0500,-0.001208
14.950,54.0500,-0.004834
14.966,54.0500,-0.001208
14.982,54.0500,-0.001208
14.998,54.0500,-0.002417
15.016,54.0500,-0.002417
15.030,54.0500,-0.007251
15.046,54.0500,-0.006042
15.062,54.0500,-0.010876
15.078,54.0500,-0.002417
15.095,54.0500,-0.002417
15.110,54.0500,0.000000
15.126,54.0500,0.000000
15.143,54.0500,-0.008459
15.158,54.0500,-0.007251
15.175,54.0500,-0.001208
15.204,54.0500,-0.003625
15.220,54.0500,-0.002417
15.236,54.0500,-0.004834
15.252,54.0500,-0.006042
15.269,54.0500,-0.001208
15.285,54.0500,-0.001208
15.302,54.0500,-0.003625
15.316,54.0500,-0.003625
15.333,54.0500,-0.009668
15.348,54.0500,-0.001208
15.364,54.0500,-0.001208
15.381,54.0500,-0.004834
15.396,54.0500,-0.004834
15.412,54.0500,-0.006042
15.428,54.0500,-0.004834
15.444,54.0500,-0.004834
15.461,54.0500,-0.002417
15.476,54.0500,-0.004834
15.492,54.0500,0.001208
15.508,54.0500,-0.002417
15.524,54.0500,-0.002417
15.541,54.0500,-0.006042
15.557,54.0500,-0.007251
15.573,54.0500,-0.004834
15.588,54.0500,0.000000
15.604,54.0500,-0.006042
15.621,54.0500,-0.003625
15.636,54.0500,0.002417
15.653,54.0500,-0.007251
15.667,54.0500,-0.004834
15.685,54.0500,-0.007251
15.702,54.0500,-0.003625
15.718,54.0500,-0.006042
15.741,54.0500,-0.008459
15.758,54.0500,-0.009668
15.774,54.0500,-0.009668
15.789,54.0500,-0.006042
15.806,54.0500,-0.002417
15.821,54.0500,-0.006042
15.837,54.0500,-0.006042
15.853,54.0500,-0.002417
15.870,54.0500,0.000000
15.885,54.0500,-0.006042
15.903,54.0500,-0.008459
15.917,54.0500,-0.007251
15.934,54.0500,-0.002417
15.949,54.0500,-0.007251
15.965,54.0500,-0.007251
15.981,54.0500,0.000000
15.997,54.0500,-0.002417
16.013,54.0500,-0.006042
16.029,54.0500,-0.004834
16.045,54.0500,-0.001208
16.060,54.0500,0.000000
16.077,54.0500,-0.004834
16.093,54.0500,0.000000
16.109,54.0500,0.002417
16.125,54.0500,-0.004834
16.141,54.0500,-0.002417
16.157,54.0500,0.003625
16.173,54.0500,0.003625
16.189,54.0500,-0.001208
16.205,54.0500,0.000000
16.223,54.0500,-0.006042
16.237,54.0500,0.000000
16.253,54.0500,-0.006042
16.269,54.0500,-0.003625
16.285,54.0500,-0.006042
16.301,54.0500,-0.007251
16.317,54.0500,-0.007251
16.333,54.0500,0.002417
16.349,54.0500,-0.004834
16.365,54.0500,-0.004834
16.381,54.0500,-0.002417
16.397,54.0500,-0.002417
16.413,54.0500,0.000000
16.428,54.0500,-0.006042
16.444,54.0500,-0.006042
16.461,54.0500,-0.003625
16.477,54.0500,-0.003625
16.492,54.0500,-0.004834
16.508,54.0500,0.000000
16.525,54.0500,-0.001208
16.540,54.0500,-0.004834
16.556,54.0500,-0.007251
16.572,54.0500,-0.007251
16.593,54.0500,-0.007251
16.605,54.0500,-0.007251
16.621,54.0500,0.000000
16.637,54.0500,-0.004834
16.653,54.0500,-0.003625
16.669,54.0500,-0.001208
16.685,54.0500,-0.001208
16.704,54.0500,-0.008459
16.716,54.0500,-0.004834
16.733,54.0500,-0.008459
16.748,54.0500,-0.004834
16.768,54.0500,0.000000
16.781,54.0500,-0.004834
16.796,54.0500,-0.004834
16.812,54.0500,-0.002417
16.829,54.0500,-0.007251
16.844,54.0500,-0.002417
16.861,54.0500,-0.007251
16.876,54.0500,-0.003625
16.893,54.0500,-0.002417
16.908,54.0500,-0.003625
16.924,54.0500,-0.003625
16.940,54.0500,-0.006042
16.961,54.0500,-0.006042
16.972,54.0500,0.000000
16.988,54.0500,0.000000
17.005,54.0500,0.000000
17.021,54.0500,-0.007251
17.036,54.0500,-0.006042
17.052,54.0500,-0.006042
17.068,54.0500,-0.008459
17.084,54.0500,-0.006042
17.100,54.0500,-0.007251
17.116,54.0500,-0.006042
17.133,54.0500,-0.003625
17.149,54.0500,-0.003625
17.164,54.0500,-0.002417
17.181,54.0500,-0.007251
17.197,54.0500,-0.006042
17.214,54.0500,0.000000
17.228,54.0500,-0.001208
17.244,54.0500,-0.008459
17.260,54.0500,-0.008459
17.276,54.0500,-0.008459
17.292,54.0500,-0.003625
17.308,54.0500,-0.002417
17.325,54.0500,-0.008459
17.354,54.0500,-0.009668
17.369,54.0500,-0.008459
17.385,54.0500,-0.004834
17.401,54.0500,-0.007251
17.418,54.0500,-0.008459
17.433,54.0500,-0.004834
17.449,54.0500,-0.002417
17.472,54.0500,0.000000
17.483,54.0500,0.000000
17.498,54.0500,-0.004834
17.513,54.0500,-0.004834
17.530,54.0500,-0.004834
17.546,54.0500,-0.004834
17.561,54.0500,0.001208
17.578,54.0500,-0.004834
17.594,54.0500,-0.010876
17.610,54.0500,0.002417
17.625,54.0500,-0.001208
17.647,54.0500,-0.004834
17.658,54.0500,-0.001208
17.673,54.0500,0.001208
17.689,54.0500,-0.006042
17.705,54.0500,-0.006042
17.721,54.0500,-0.004834
17.737,54.0500,-0.006042
17.752,54.0500,-0.002417
17.769,54.0500,-0.008459
17.785,54.0500,-0.007251
17.802,54.0500,-0.003625
17.817,54.0500,-0.003625
17.833,54.0500,-0.003625
17.849,54.0500,0.002417
17.865,54.0500,-0.006042
17.888,54.0500,-0.007251
17.904,54.0500,-0.004834
17.920,54.0500,-0.002417
17.936,54.0500,0.002417
17.954,54.0500,0.002417
17.968,54.0500,-0.003625
17.984,54.0500,-0.001208
18.001,54.0500,0.001208
18.016,54.0500,-0.003625
18.032,54.0500,-0.008459
18.048,54.0500,-0.002417
18.065,54.0500,0.000000
18.080,54.0500,0.006042
18.095,54.0500,0.006042
18.112,54.0500,-0.012084
18.128,54.0500,-0.007251
18.144,54.0500,-0.007251
18.159,54.0500,-0.010876
18.176,54.0500,-0.010876
18.191,54.0500,-0.007251
18.208,54.0500,-0.002417
18.224,54.0500,0.003625
18.241,54.0500,-0.007251
18.257,54.0500,-0.003625
18.272,54.0500,-0.001208
18.288,54.0500,-0.002417
18.304,54.0500,0.000000
18.320,54.0500,0.000000
18.335,54.0500,0.000000
18.352,54.0500,-0.001208
18.368,54.0500,0.000000
18.383,54.0500,0.001208
18.402,54.0500,-0.003625
18.428,54.0500,-0.006042
18.443,54.0500,-0.009668
18.458,54.0500,-0.003625
18.474,54.0500,-0.007251
18.491,54.0500,-0.008459
18.507,54.0500,-0.008459
18.523,54.0500,-0.006042
18.538,54.0500,-0.001208
18.555,54.0500,-0.001208
18.571,54.0500,-0.003625
18.589,54.0500,-0.006042
18.602,54.0500,-0.007251
18.619,54.0500,-0.007251
18.635,54.0500,-0.001208
18.651,54.0500,-0.008459
18.667,54.0500,-0.004834
18.683,54.0500,-0.004834
18.698,54.0500,-0.002417
18.714,54.0500,-0.002417
18.731,54.0500,-0.006042
18.747,54.0500,-0.006042
18.762,54.0500,0.006042
18.782,54.0500,-0.004834
18.794,54.0500,-0.003625
18.811,54.0500,0.000000
18.827,54.0500,-0.003625
18.842,54.0500,-0.002417
18.861,54.0500,-0.004834
18.874,54.0500,-0.002417
18.890,54.0500,-0.004834
18.906,54.0500,-0.004834
18.923,54.0500,-0.003625
18.939,54.0500,-0.004834
18.954,54.0500,0.000000
18.978,54.0500,-0.001208
18.993,54.0500,-0.001208
19.011,54.0500,-0.006042
19.025,54.0500,-0.009668
19.041,54.0500,-0.003625
19.058,54.0500,-0.002417
19.074,54.0500,-0.001208
19.091,54.0500,-0.002417
19.105,54.0500,-0.002417
19.121,54.0500,-0.001208
19.137,54.0500,0.000000
19.155,54.0500,-0.003625
19.170,54.0500,-0.004834
19.185,54.0500,-0.008459
19.201,54.0500,-0.006042
19.218,54.0500,-0.002417
19.234,54.0500,-0.002417
19.251,54.0500,-0.006042
19.265,54.0500,-0.003625
19.282,54.0500,-0.007251
19.298,54.0500,-0.008459
19.314,54.0500,-0.008459
19.329,54.0500,-0.008459
19.345,54.0500,-0.008459
19.361,54.0500,-0.003625
19.377,54.0500,-0.001208
19.393,54.0500,-0.001208
19.409,54.0500,0.002417
19.425,54.0500,-0.004834
19.441,54.0500,-0.002417
19.458,54.0500,-0.004834
19.473,54.0500,-0.003625
19.489,54.0500,-0.009668
19.505,54.0500,-0.009668
19.521,54.0500,-0.006042
19.537,54.0500,-0.002417
19.553,54.0500,-0.007251
19.569,54.0500,-0.006042
19.585,54.0500,-0.008459
19.601,54.0500,-0.004834
19.617,54.0500,-0.009668
19.633,54.0500,-0.008459
19.649,54.0500,-0.002417
19.665,54.0500,-0.002417
19.684,54.0500,-0.002417
19.697,54.0500,-0.007251
19.713,54.0500,-0.003625
19.730,54.0500,-0.004834
19.745,54.0500,-0.004834
19.761,54.0500,-0.002417
19.777,54.0500,-0.004834
19.793,54.0500,-0.004834
19.809,54.0500,-0.007251
19.825,54.0500,-0.007251
19.841,54.0500,-0.004834
19.857,54.0500,-0.002417
19.873,54.0500,-0.003625
19.897,54.0500,-0.001208
19.921,54.0500,0.000000
19.937,54.0500,-0.004834
19.956,54.0500,-0.004834
19.969,54.0500,0.003625
19.985,54.0500,-0.006042
20.001,54.0500,-0.003625
20.017,54.0500,-0.004834
20.033,54.0500,-0.003625
20.050,54.0500,-0.008459
20.078,54.0500,-0.008459
20.094,54.0500,-0.003625
20.111,54.0500,-0.006042
20.126,54.0500,-0.007251
20.144,54.0500,-0.007251
20.159,54.0500,-0.006042
20.175,54.0500,0.000000
20.190,54.0500,-0.001208
20.206,54.0500,-0.003625
20.222,54.0500,0.000000
20.238,54.0500,-0.002417
20.254,54.0500,-0.002417
20.270,54.0500,-0.004834
20.286,54.0500,-0.002417
20.302,54.0500,-0.003625
20.320,54.0500,-0.006042
20.334,54.0500,-0.006042
20.350,54.0500,-0.006042
20.367,54.0500,-0.006042
20.382,54.0500,-0.004834
20.399,54.0500,-0.001208
20.415,54.0500,-0.001208
20.430,54.0500,-0.002417
20.446,54.0500,-0.003625
20.462,54.0500,0.001208
20.479,54.0500,-0.001208
20.494,54.0500,-0.002417
20.510,54.0500,0.002417
20.526,54.0500,-0.007251
20.541,54.0500,-0.002417
20.558,54.0500,-0.001208
20.574,54.0500,-0.010876
20.605,54.0500,-0.002417
20.620,54.0500,-0.004834
20.635,54.0500,-0.008459
20.651,54.0500,-0.001208
20.669,54.0500,-0.006042
20.684,54.0500,-0.006042
20.700,54.0500,-0.002417
20.715,54.0500,-0.001208
20.732,54.0500,-0.002417
20.748,54.0500,-0.004834
20.765,54.0500,-0.004834
20.779,54.0500,-0.001208
20.796,54.0500,-0.003625
20.812,54.0500,0.000000
20.827,54.0500,-0.002417
20.843,54.0500,-0.002417
20.860,54.0500,-0.001208
20.875,54.0500,-0.001208
20.891,54.0500,-0.006042
20.908,54.0500,-0.003625
20.923,54.0500,-0.003625
20.939,54.0500,-0.010876
20.955,54.0500,-0.008459
20.972,54.0500,-0.001208
20.987,54.0500,0.000000
21.003,54.0500,0.000000
21.020,54.0500,0.000000
21.036,54.0500,-0.006042
21.052,54.0500,-0.001208
21.068,54.0500,-0.001208
21.083,54.0500,0.000000
21.100,54.0500,0.001208
21.116,54.0500,-0.001208
21.131,54.0500,-0.001208
21.161,54.0500,-0.001208
21.178,54.0500,-0.001208
21.193,54.0500,0.003625
21.209,54.0500,-0.001208
21.226,54.0500,-0.001208
21.241,54.0500,0.000000
21.257,54.0500,-0.008459
21.273,54.0500,-0.002417
21.290,54.0500,-0.002417
21.306,54.0500,-0.007251
21.321,54.0500,-0.004834
21.337,54.0500,-0.003625
21.353,54.0500,-0.001208
21.370,54.0500,-0.001208
21.386,54.0500,-0.002417
21.402,54.0500,-0.004834
21.418,54.0500,0.000000
21.433,54.0500,0.000000
21.450,54.0500,-0.001208
21.466,54.0500,-0.008459
21.481,54.0500,-0.009668
21.497,54.0500,-0.009668
21.513,54.0500,-0.004834
21.534,54.0500,-0.004834
21.546,54.0500,0.000000
21.561,54.0500,-0.003625
21.577,54.0500,-0.001208
21.595,54.0500,-0.007251
21.610,54.0500,-0.008459
21.629,54.0500,-0.008459
21.641,54.0500,-0.003625
21.657,54.0500,0.000000
21.674,54.0500,0.002417
21.689,54.0500,-0.006042
21.711,54.0500,-0.002417
21.726,54.0500,-0.001208
21.742,54.0500,-0.003625
21.758,54.0500,-0.004834
21.783,54.0500,-0.003625
21.804,54.0500,0.000000
21.822,54.0500,-0.003625
21.838,54.0500,-0.001208
21.854,54.0500,-0.010876
21.871,54.0500,-0.001208
21.886,54.0500,-0.006042
21.907,54.0500,-0.007251
21.918,54.0500,0.003625
21.934,54.0500,-0.003625
21.950,54.0500,-0.007251
21.968,54.0500,-0.008459
21.983,54.0500,-0.006042
21.998,54.0500,-0.001208
22.014,54.0500,-0.006042
22.031,54.0500,-0.006042
22.046,54.0500,-0.007251
22.062,54.0500,-0.006042
22.078,54.0500,-0.001208
22.094,54.0500,-0.001208
22.110,54.0500,-0.004834
22.126,54.0500,-0.004834
22.142,54.0500,-0.006042
22.158,54.0500,-0.006042
22.174,54.0500,-0.006042
22.190,54.0500,-0.001208
22.207,54.0500,-0.001208
22.222,54.0500,-0.006042
22.238,54.0500,-0.004834
22.254,54.0500,-0.009668
22.276,54.0500,-0.004834
22.292,54.0500,-0.006042
22.308,54.0500,-0.003625
22.324,54.0500,-0.004834
22.340,54.0500,-0.003625
22.356,54.0500,-0.002417
22.372,54.0500,-0.006042
22.389,54.0500,-0.004834
22.404,54.0500,-0.006042
22.420,54.0500,0.000000
22.436,54.0500,0.001208
22.452,54.0500,0.002417
22.468,54.0500,-0.006042
22.483,54.0500,-0.007251
22.500,54.0500,-0.004834
22.516,54.0500,-0.004834
22.535,54.0500,0.002417
22.551,54.0500,-0.001208
22.565,54.0500,0.004834
22.580,54.0500,0.004834
22.596,54.0500,0.002417
22.615,54.0500,0.002417
22.629,54.0500,-0.010876
22.645,54.0500,-0.003625
22.660,54.0500,-0.001208
22.676,54.0500,-0.001208
22.692,54.0500,0.000000
22.711,54.0500,-0.002417
22.724,54.0500,-0.003625
22.740,54.0500,-0.007251
22.756,54.0500,-0.003625
22.774,54.0500,-0.003625
22.798,54.0500,-0.002417
22.821,54.0500,-0.003625
22.839,54.0500,-0.003625
22.855,54.0500,-0.003625
22.871,54.0500,-0.002417
22.885,54.0500,0.001208
22.904,54.0500,0.003625
22.916,54.0500,-0.001208
22.926,54.0500,-0.001208
22.941,54.0500,-0.006042
22.957,54.0500,-0.009668
22.973,54.0500,-0.009668
22.990,54.0500,-0.001208
23.005,54.0500,-0.001208
23.021,54.0500,-0.006042
23.037,54.0500,-0.006042
23.054,54.0500,-0.002417
23.070,54.0500,-0.002417
23.085,54.0500,-0.002417
23.101,54.0500,-0.002417
23.117,54.0500,-0.003625
23.134,54.0500,-0.001208
23.149,54.0500,-0.008459
23.166,54.0500,-0.007251
23.182,54.0500,-0.001208
23.197,54.0500,-0.003625
23.213,54.0500,-0.002417
23.231,54.0500,-0.003625
23.246,54.0500,-0.009668
23.262,54.0500,-0.010876
23.277,54.0500,-0.007251
23.295,54.0500,-0.007251
23.310,54.0500,-0.003625
23.326,54.0500,-0.003625
23.350,54.0500,-0.004834
23.367,54.0500,-0.003625
23.382,54.0500,-0.004834
23.398,54.0500,-0.002417
23.414,54.0500,-0.002417
23.430,54.0500,-0.004834
23.450,54.0500,-0.004834
23.462,54.0500,-0.004834
23.479,54.0500,-0.008459
23.495,54.0500,-0.003625
23.512,54.0500,-0.003625
23.526,54.0500,-0.003625
23.542,54.0500,-0.006042
23.558,54.0500,-0.006042
23.574,54.0500,0.004834
23.591,54.0500,-0.004834
23.606,54.0500,-0.004834
23.625,54.0500,-0.004834
23.638,54.0500,0.000000
23.654,54.0500,-0.004834
23.670,54.0500,-0.001208
23.686,54.0500,-0.001208
23.703,54.0500,0.002417
23.718,54.0500,-0.003625
23.734,54.0500,-0.003625
23.750,54.0500,-0.006042
23.767,54.0500,-0.004834
23.782,54.0500,0.004834
23.798,54.0500,-0.001208
23.814,54.0500,-0.008459
23.834,54.0500,-0.008459
23.846,54.0500,0.001208
23.862,54.0500,0.002417
23.878,54.0500,-0.003625
23.895,54.0500,-0.007251
23.910,54.0500,0.000000
23.926,54.0500,-0.001208
23.942,54.0500,-0.002417
23.959,54.0500,-0.006042
23.974,54.0500,-0.008459
23.992,54.0500,-0.003625
24.006,54.0500,-0.003625
24.028,54.0500,0.000000
24.043,54.0500,-0.007251
24.054,54.0500,-0.004834
24.071,54.0500,-0.006042
24.086,54.0500,-0.004834
24.102,54.0500,-0.006042
24.118,54.0500,-0.002417
24.135,54.0500,-0.002417
24.151,54.0500,-0.003625
24.169,54.0500,-0.006042
24.185,54.0500,-0.006042
24.198,54.0500,-0.001208
24.214,54.0500,-0.008459
24.230,54.0500,-0.006042
24.247,54.0500,-0.004834
24.262,54.0500,-0.003625
24.278,54.0500,-0.002417
24.294,54.0500,-0.006042
24.311,54.0500,-0.002417
24.326,54.0500,-0.003625
24.343,54.0500,0.000000
24.358,54.0500,-0.007251
24.375,54.0500,-0.007251
24.391,54.0500,-0.006042
24.408,54.0500,-0.002417
24.432,54.0500,-0.009668
24.448,54.0500,-0.007251
24.464,54.0500,-0.002417
24.480,54.0500,-0.006042
24.499,54.0500,-0.001208
24.512,54.0500,-0.006042
24.530,54.0500,-0.001208
24.544,54.0500,-0.003625
24.560,54.0500,-0.004834
24.576,54.0500,0.004834
24.592,54.0500,0.001208
24.608,54.0500,-0.001208
24.624,54.0500,-0.002417
24.640,54.0500,-0.004834
24.656,54.0493,-0.002417
24.672,53.9635,0.006042
24.688,53.8269,0.043504
24.703,53.6979,-0.001208
24.720,53.5554,0.001208
24.737,53.4138,-0.009668
24.753,53.2739,-0.009668
24.768,53.1551,0.007251
24.784,53.0143,-0.008459
24.800,52.8802,-0.003625
24.816,52.7488,0.001208
24.835,52.5851,0.001208
24.848,52.4739,-0.006042
24.864,52.3365,0.000000
24.879,52.2059,0.002417
24.896,52.0634,0.002417
24.912,51.9328,0.000000
24.928,51.7937,-0.003625
24.960,51.5239,-0.003625
24.974,51.4010,-0.003625
24.991,51.2610,-0.009668
25.006,51.1287,0.000000
25.023,50.9837,-0.003625
25.039,50.8505,0.000000
25.054,50.7224,0.000000
25.071,50.5858,-0.006042
25.086,50.4450,-0.004834
25.103,50.3110,-0.006042
25.118,50.1795,-0.003625
25.136,50.0319,0.000000
25.150,49.9005,-0.010876
25.169,49.7520,-0.006042
25.182,49.6333,-0.001208
25.198,49.5001,-0.001208
25.214,49.3602,0.002417
25.230,49.2295,-0.002417
25.247,49.0879,-0.007251
25.263,48.9530,0.000000
25.279,48.8156,-0.003625
25.294,48.6866,-0.004834
25.315,48.5136,-0.002417
25.327,48.4118,-0.003625
25.343,48.2744,-0.003625
25.358,48.1438,-0.003625
25.375,48.0076,-0.003625
25.390,48.0000,-0.084591
25.407,48.0000,-0.084591
25.423,48.0000,-0.012084
25.439,48.0000,-0.003625
25.455,48.0000,-0.003625
25.470,48.0000,0.000000
25.495,48.0000,-0.001208
25.510,48.0000,-0.004834
25.526,48.0000,-0.006042
25.541,48.0000,-0.003625
25.558,48.0000,-0.001208
25.573,48.0000,-0.002417
25.592,48.0000,-0.008459
25.605,48.0000,-0.007251
25.623,48.0000,-0.008459
25.637,48.0000,-0.008459
25.656,48.0000,-0.008459
25.669,48.0000,0.000000
25.686,48.0000,0.000000
25.701,48.0000,-0.001208
25.717,48.0000,-0.001208
25.733,48.0000,-0.001208
25.750,48.0000,-0.004834
25.766,48.0000,0.000000
25.781,48.0000,-0.009668
25.797,48.0740,-0.029003
25.813,48.2063,-0.015710
25.829,48.3428,-0.001208
25.845,48.4734,-0.012084
25.862,48.6193,0.004834
25.878,48.7516,-0.006042
25.893,48.8840,-0.001208
25.909,49.0172,0.003625
25.927,49.1681,0.003625
25.942,49.2962,-0.003625
25.958,49.4319,-0.004834
25.973,49.5583,0.000000
25.989,49.7008,-0.006042
26.006,49.8391,-0.006042
26.023,49.9900,-0.003625
26.048,50.1953,0.001208
26.070,50.3828,-0.004834
26.089,50.5439,-0.008459
26.104,50.6703,-0.007251
26.120,50.8043,-0.001208
26.135,50.9392,0.001208
26.150,51.0604,-0.006042
26.166,51.2005,-0.004834
26.181,51.3192,-0.004834
26.191,51.4126,-0.008459
26.208,51.5500,-0.002417
26.223,51.6780,0.002417
26.239,51.8189,-0.004834
26.255,51.9519,-0.004834
26.271,52.0911,0.000000
26.288,52.2302,-0.001208
26.304,52.3668,0.004834
26.319,52.4923,-0.003625
26.335,52.6348,0.001208
26.352,52.7722,-0.003625
26.367,52.9028,-0.006042
26.383,53.0352,-0.004834
26.400,53.1794,-0.004834
26.415,53.3116,-0.006042
26.431,53.4432,-0.004834
26.447,53.5797,-0.007251
26.464,53.7230,0.003625
26.479,53.8553,-0.007251
26.497,53.9921,-0.007251
26.511,54.0001,0.047129
26.528,54.0001,-0.006042
26.544,54.0001,-0.014501
26.574,54.0001,0.006042
26.589,54.0001,-0.009668
26.605,54.0001,-0.002417
26.621,54.0001,-0.002417
26.637,54.0001,-0.002417
26.653,54.0001,-0.008459
26.669,54.0001,-0.004834
26.684,54.0001,-0.004834
26.701,54.0001,-0.002417
26.717,54.0001,-0.007251
26.733,54.0001,-0.006042
26.751,54.0001,-0.008459
26.766,54.0001,-0.004834
26.782,54.0001,-0.004834
26.797,54.0001,-0.006042
26.814,54.0001,-0.007251
26.830,54.0001,-0.006042
26.845,54.0001,-0.002417
26.861,54.0001,-0.006042
26.878,54.0001,0.000000
26.892,54.0001,0.000000
26.908,54.0001,-0.003625
26.925,54.0001,-0.003625
26.941,54.0001,0.002417
26.956,54.0001,-0.002417
26.973,54.0001,-0.006042
26.988,54.0001,0.001208
27.004,54.0001,0.004834
27.023,54.0001,0.006042
27.037,54.0001,0.006042
27.057,54.0001,0.000000
27.069,54.0001,-0.004834
27.085,54.0001,-0.012084
27.101,54.0001,-0.002417
27.117,54.0001,0.000000
27.132,54.0001,0.000000
27.148,54.0001,0.000000
27.164,54.0001,0.002417
27.181,54.0001,-0.007251
27.196,54.0001,-0.007251
27.214,54.0001,-0.009668
27.229,54.0001,-0.007251
27.244,54.0001,-0.006042
27.261,54.0001,-0.003625
27.277,54.0001,0.001208
27.293,54.0001,-0.007251
27.309,54.0001,-0.006042
27.324,54.0001,0.001208
27.341,54.0001,-0.004834
27.357,54.0001,-0.002417
27.376,54.0001,-0.002417
27.388,54.0001,-0.002417
27.405,54.0001,-0.002417
27.421,54.0001,-0.007251
27.436,54.0001,-0.007251
27.453,54.0001,-0.002417
27.479,54.0001,-0.002417
27.504,54.0001,-0.007251
27.516,54.0001,-0.007251
27.533,54.0001,-0.004834
27.548,54.0001,-0.004834
27.564,54.0001,-0.007251
27.589,54.0001,-0.004834
27.610,54.0001,0.001208
27.628,54.0001,-0.003625
27.644,54.0001,-0.006042
27.668,54.0001,-0.002417
27.683,54.0001,0.000000
27.699,54.0001,-0.002417
27.715,54.0001,-0.007251
27.731,54.0001,-0.003625
27.747,54.0001,-0.001208
27.763,54.0001,-0.003625
27.780,54.0001,-0.001208
27.796,54.0001,0.003625
27.811,54.0001,0.000000
27.827,54.0001,-0.003625
27.844,54.0001,-0.003625
27.859,54.0001,-0.007251
27.875,54.0001,0.000000
27.891,54.0001,0.003625
27.907,54.0001,0.001208
27.923,54.0001,0.002417
27.939,54.0001,-0.003625
27.956,54.0001,-0.003625
27.972,54.0001,-0.007251
27.989,54.0001,-0.008459
28.003,54.0001,-0.008459
28.020,54.0001,0.000000
28.035,54.0001,0.000000
28.051,54.0001,-0.002417
28.068,54.0001,-0.006042
28.084,54.0001,-0.003625
28.102,54.0001,-0.007251
28.115,54.0001,-0.002417
28.133,54.0001,-0.004834
28.147,54.0001,-0.003625
28.163,54.0001,0.000000
28.179,54.0001,-0.003625
28.201,54.0001,-0.001208
28.217,54.0001,-0.004834
28.233,54.0001,-0.004834
28.249,54.0001,0.000000
28.265,54.0001,0.000000
28.281,54.0001,-0.003625
28.297,54.0001,-0.012084
28.314,54.0001,-0.012084
28.329,54.0001,-0.004834
28.345,54.0001,-0.004834
28.361,54.0001,0.001208
28.378,54.0001,-0.003625
28.394,54.0001,-0.006042
28.410,54.0001,-0.003625
28.425,54.0001,-0.006042
28.443,54.0001,-0.001208
28.457,54.0001,0.000000
28.473,54.0001,0.002417
28.489,54.0001,0.003625
28.505,54.0001,-0.006042
28.523,54.0001,-0.004834
28.537,54.0001,-0.006042
28.553,54.0001,-0.004834
28.570,54.0001,-0.001208
28.585,54.0001,-0.001208
28.601,54.0001,-0.002417
28.618,54.0001,-0.001208
28.636,54.0001,-0.001208
28.648,54.0001,-0.006042
28.666,54.0001,-0.006042
28.682,54.0001,-0.003625
28.699,54.0001,0.002417
28.723,54.0001,-0.001208
28.739,54.0001,-0.003625
28.755,54.0001,-0.003625
28.770,54.0001,-0.003625
28.787,54.0001,-0.002417
28.803,54.0001,-0.003625
28.819,54.0001,0.000000
28.834,54.0001,0.000000
28.851,54.0001,-0.004834
28.867,54.0001,-0.004834
28.882,54.0001,-0.002417
28.898,54.0001,-0.002417
28.915,54.0001,-0.002417
28.931,54.0001,-0.004834
28.947,54.0001,-0.006042
28.964,54.0001,-0.006042
28.979,54.0001,-0.009668
28.995,54.0001,-0.007251
29.010,54.0001,-0.004834
29.026,54.0001,0.002417
29.042,54.0001,0.001208
29.059,54.0001,0.003625
29.075,54.0001,-0.008459
29.091,54.0001,-0.003625
29.106,54.0001,-0.003625
29.122,54.0001,0.002417
29.139,54.0001,0.000000
29.155,54.0001,-0.002417
29.170,54.0001,-0.002417
29.186,54.0001,-0.003625
29.203,54.0001,-0.002417
29.218,54.0001,-0.010876
29.235,54.0001,-0.001208
29.260,54.0001,-0.002417
29.275,54.0001,-0.004834
29.290,54.0001,-0.006042
29.306,54.0001,-0.002417
29.324,54.0001,-0.003625
29.338,54.0001,-0.002417
29.354,54.0001,0.000000
29.371,54.0001,-0.003625
29.389,54.0001,-0.009668
29.403,54.0001,-0.007251
29.419,54.0001,-0.003625
29.434,54.0001,0.002417
29.451,54.0001,-0.003625
29.467,54.0001,-0.002417
29.482,54.0001,-0.006042
29.499,54.0001,-0.003625
29.514,54.0001,-0.002417
29.531,54.0001,-0.001208
29.546,54.0001,-0.001208
29.562,54.0001,-0.006042
29.578,54.0001,-0.004834
29.594,54.0001,-0.006042
29.610,54.0001,0.001208
29.628,54.0001,-0.002417
29.643,54.0001,-0.010876
29.659,54.0001,-0.010876
29.674,54.0001,-0.002417
29.692,54.0001,-0.004834
29.706,54.0001,0.001208
29.723,54.0001,-0.006042
29.738,54.0001,0.000000
29.754,54.0001,0.000000
29.770,54.0001,-0.009668
29.789,54.0001,-0.001208
29.813,54.0001,0.001208
29.829,54.0001,-0.001208
29.845,54.0001,-0.002417
29.861,54.0001,-0.007251
29.878,54.0001,-0.003625
29.893,54.0001,-0.003625
29.911,54.0001,-0.004834
29.927,54.0001,-0.004834
29.941,54.0001,-0.006042
29.958,54.0001,-0.006042
29.973,54.0001,-0.007251
29.990,54.0001,-0.008459
30.005,54.0001,-0.008459
30.023,54.0001,-0.004834
30.037,54.0001,0.000000
30.053,54.0001,-0.002417
30.069,54.0001,-0.004834
30.085,54.0001,-0.004834
30.102,54.0001,-0.008459
30.118,54.0001,-0.007251
30.133,54.0001,-0.006042
30.149,54.0001,-0.002417
30.165,54.0001,-0.003625
30.181,54.0001,-0.009668
30.197,54.0001,-0.009668
30.214,54.0001,-0.006042
30.229,54.0001,-0.008459
30.245,54.0001,-0.001208
30.262,54.0001,0.001208
30.277,54.0001,-0.004834
30.296,54.0001,-0.004834
30.309,54.0001,-0.006042
30.335,54.0001,-0.008459
30.351,54.0001,-0.003625
30.367,54.0001,-0.001208
30.384,54.0001,-0.001208
30.399,54.0001,0.000000
30.415,54.0001,-0.008459
30.431,54.0001,-0.009668
30.451,54.0001,-0.010876
30.463,54.0001,-0.004834
30.479,54.0001,-0.001208
30.495,54.0001,-0.001208
30.511,54.0001,-0.004834
30.528,54.0001,-0.006042
30.544,54.0001,-0.004834
30.559,54.0001,0.004834
30.575,54.0001,0.000000
30.591,54.0001,-0.003625
30.607,54.0001,-0.003625
30.623,54.0001,-0.004834
30.639,54.0001,-0.001208
30.655,54.0001,-0.006042
30.671,54.0001,0.001208
30.688,54.0001,-0.007251
30.704,54.0001,-0.007251
30.719,54.0001,-0.007251
30.735,54.0001,-0.007251
30.751,54.0001,-0.002417
30.767,54.0001,-0.002417
30.783,54.0001,0.000000
30.800,54.0001,0.000000
30.815,54.0001,-0.002417
30.831,54.0001,-0.001208
30.859,54.0001,-0.004834
30.875,54.0001,-0.004834
30.891,54.0001,-0.006042
30.907,54.0001,-0.004834
30.923,54.0001,-0.006042
30.939,54.0001,-0.004834
30.955,54.0001,-0.007251
30.972,54.0001,-0.008459
30.987,54.0001,-0.012084
31.003,54.0001,-0.008459
31.019,54.0001,-0.002417
31.035,54.0001,-0.002417
31.052,54.0001,-0.002417
31.067,54.0001,-0.002417
31.083,54.0001,-0.002417
31.100,54.0001,-0.007251
31.115,54.0001,-0.007251
31.130,54.0001,0.001208
31.148,54.0001,0.001208
31.162,54.0001,-0.004834
31.178,54.0001,-0.002417
31.195,54.0001,-0.002417
31.211,54.0001,0.001208
31.227,54.0001,-0.003625
31.243,54.0001,-0.008459
31.259,54.0001,-0.002417
31.277,54.0001,-0.006042
31.291,54.0001,-0.008459
31.307,54.0001,-0.003625
31.322,54.0001,-0.004834
31.338,54.0001,-0.004834
31.354,54.0001,-0.004834
31.370,54.0001,-0.003625
31.395,54.0001,-0.003625
31.410,54.0001,0.002417
31.425,54.0001,0.002417
31.441,54.0001,-0.004834
31.458,54.0001,-0.007251
31.474,54.0001,-0.008459
31.489,54.0001,-0.001208
31.505,54.0001,-0.001208
31.521,54.0001,-0.010876
31.538,54.0001,-0.004834
31.553,54.0001,-0.003625
31.575,54.0001,-0.003625
31.586,54.0001,-0.003625
31.602,54.0001,-0.006042
31.618,54.0001,0.001208
31.633,54.0001,-0.001208
31.650,54.0001,-0.001208
31.667,54.0001,0.000000
31.681,54.0001,-0.001208
31.698,54.0001,-0.004834
31.714,54.0001,-0.004834
31.729,54.0001,-0.006042
31.745,54.0001,-0.006042
31.762,54.0001,-0.003625
31.777,54.0001,-0.002417
31.793,54.0001,-0.003625
31.809,54.0001,0.001208
31.826,54.0001,0.000000
31.842,54.0001,-0.006042
31.857,54.0001,-0.006042
31.873,54.0001,-0.012084
31.890,54.0001,-0.010876
31.906,54.0001,-0.006042
31.921,54.0001,-0.006042
31.937,54.0001,-0.003625
31.954,54.0001,-0.004834
31.969,54.0001,-0.006042
31.985,54.0001,-0.001208
32.005,54.0001,-0.002417
32.016,54.0001,-0.001208
32.033,54.0001,-0.004834
32.049,54.0001,-0.002417
32.066,54.0001,-0.002417
32.082,54.0001,-0.001208
32.099,54.0001,-0.002417
32.113,54.0001,-0.003625
32.130,54.0001,-0.007251
32.145,54.0001,-0.007251
32.161,54.0001,-0.007251
32.177,54.0001,-0.003625
32.200,54.0001,-0.003625
32.213,54.0001,-0.003625
32.225,54.0001,-0.004834
32.243,54.0001,-0.003625
32.257,54.0001,0.001208
32.273,54.0001,0.001208
32.289,54.0001,0.000000
32.305,54.0001,0.000000
32.321,54.0001,-0.001208
32.337,54.0001,-0.001208
32.354,54.0001,-0.002417
32.369,54.0001,-0.007251
32.385,54.0001,-0.006042
32.401,54.0001,-0.002417
32.417,54.0001,-0.002417
32.434,54.0001,-0.004834
32.450,54.0001,-0.002417
32.479,54.0001,0.000000
32.495,54.0001,-0.004834
32.511,54.0001,-0.003625
32.527,54.0001,-0.003625
32.544,54.0001,-0.001208
32.559,54.0001,-0.006042
32.575,54.0001,-0.008459
32.591,54.0001,-0.001208
32.607,54.0001,-0.004834
32.623,54.0001,-0.002417
32.639,54.0001,-0.002417
32.655,54.0001,-0.002417
32.672,54.0001,-0.007251
32.687,54.0001,-0.008459
32.703,54.0001,-0.008459
32.719,54.0001,-0.002417
32.735,54.0001,-0.002417
32.750,54.0001,-0.006042
32.767,54.0001,-0.003625
32.783,54.0001,-0.003625
32.799,54.0001,-0.007251
32.815,54.0001,-0.007251
32.838,54.0001,-0.004834
32.862,54.0001,-0.007251
32.880,54.0001,-0.006042
32.895,54.0001,-0.006042
32.911,54.0001,-0.007251
32.927,54.0001,-0.004834
32.943,54.0001,-0.001208
32.959,54.0001,-0.003625
32.975,54.0001,-0.007251
32.994,54.0001,-0.004834
33.018,54.0001,0.002417
33.034,54.0001,-0.003625
33.051,54.0001,-0.002417
33.066,54.0001,-0.001208
33.083,54.0001,-0.007251
33.098,54.0001,-0.002417
33.114,54.0001,-0.002417
33.130,54.0001,-0.008459
33.146,54.0001,-0.010876
33.163,54.0001,0.003625
33.178,54.0001,0.003625
33.194,54.0001,-0.002417
33.210,54.0001,-0.004834
33.226,54.0001,-0.004834
33.242,54.0001,-0.003625
33.258,54.0001,-0.001208
33.274,54.0001,-0.004834
33.290,54.0001,-0.006042
33.306,54.0001,-0.006042
33.322,54.0001,-0.002417
33.338,54.0001,-0.006042
33.353,54.0001,-0.003625
33.370,54.0001,-0.002417
33.386,54.0001,-0.002417
33.402,54.0001,-0.006042
33.419,54.0001,-0.009668
33.434,54.0001,-0.003625
33.449,54.0001,-0.002417
33.466,54.0001,-0.007251
33.484,54.0001,-0.001208
33.497,54.0001,-0.002417
33.513,54.0001,-0.003625
33.529,54.0001,-0.002417
33.546,54.0001,-0.001208
33.562,54.0001,-0.006042
33.578,54.0001,-0.010876
33.593,54.0001,-0.007251
33.612,54.0001,0.002417
33.626,54.0001,0.002417
33.642,54.0001,0.001208
33.658,54.0001,-0.004834
33.674,54.0001,-0.004834
33.690,54.0001,0.000000
33.705,54.0001,0.000000
33.722,54.0001,0.002417
33.738,54.0001,-0.008459
33.753,54.0001,-0.008459
33.769,54.0001,-0.006042
33.785,54.0001,-0.006042
33.802,54.0001,-0.006042
33.819,54.0001,-0.002417
33.833,54.0001,-0.006042
33.850,54.0001,-0.002417
33.865,54.0001,-0.006042
33.881,54.0001,-0.004834
33.905,54.0001,-0.002417
33.928,54.0001,-0.003625
33.945,54.0001,0.000000
33.969,54.0001,-0.002417
33.989,54.0001,-0.004834
34.010,54.0001,-0.006042
34.026,54.0001,-0.002417
34.042,54.0001,0.001208
34.057,54.0001,0.000000
34.084,54.0001,0.001208
34.101,54.0001,-0.008459
34.117,54.0001,-0.013293
34.132,54.0001,-0.009668
34.151,54.0001,-0.004834
34.165,54.0001,-0.001208
34.181,54.0001,-0.002417
34.197,54.0001,-0.002417
34.214,54.0001,0.003625
34.229,54.0001,-0.003625
34.246,54.0001,-0.008459
34.260,54.0001,0.003625
34.276,54.0001,0.003625
34.292,54.0001,-0.007251
34.308,54.0001,-0.002417
34.325,54.0001,-0.010876
34.341,54.0001,-0.003625
34.356,54.0001,-0.003625
34.372,54.0001,0.001208
34.390,54.0001,0.001208
34.404,54.0001,-0.003625
34.420,54.0001,0.001208
34.436,54.0001,-0.006042
34.453,54.0001,-0.010876
34.469,54.0001,-0.010876
34.485,54.0001,-0.006042
34.500,54.0001,0.001208
34.518,54.0001,-0.003625
34.533,54.0001,-0.006042
34.548,54.0001,-0.012084
34.564,54.0001,-0.009668
34.581,54.0001,-0.007251
34.596,54.0001,-0.006042
34.613,54.0001,-0.001208
34.637,54.0001,0.001208
34.654,54.0001,-0.001208
34.670,54.0001,-0.003625
34.685,54.0001,-0.003625
34.704,54.0001,-0.002417
34.717,54.0001,-0.003625
34.733,54.0001,-0.003625
34.750,54.0001,-0.001208
34.765,54.0001,-0.003625
34.781,54.0001,0.001208
34.797,54.0001,-0.006042
34.813,54.0001,-0.007251
34.829,54.0001,-0.002417
34.845,54.0001,0.000000
34.861,54.0001,-0.001208
34.878,54.0001,-0.001208
34.894,54.0001,-0.002417
34.909,54.0001,-0.002417
34.925,54.0001,-0.007251
34.941,54.0001,-0.002417
34.957,54.0001,0.001208
34.973,54.0001,-0.003625
34.993,54.0001,0.001208
35.005,54.0001,-0.004834
35.021,54.0001,0.000000
35.037,54.0001,0.000000
35.054,54.0001,-0.001208
35.069,54.0001,-0.001208
35.085,54.0001,-0.001208
35.101,54.0001,-0.002417
35.117,54.0001,-0.007251
35.133,54.0001,-0.004834
35.152,54.0001,-0.009668
35.176,54.0001,-0.008459
35.192,54.0001,-0.004834
35.209,54.0001,-0.003625
35.224,54.0001,-0.001208
35.240,54.0001,-0.004834
35.256,54.0001,0.001208
35.272,54.0001,-0.003625
35.289,54.0001,0.000000
35.304,54.0001,-0.001208
35.320,54.0001,-0.003625
35.336,54.0001,-0.007251
35.353,54.0001,-0.001208
35.369,54.0001,0.003625
35.384,54.0001,-0.001208
35.400,54.0001,-0.004834
35.416,54.0001,-0.004834
35.432,54.0001,0.002417
35.448,54.0001,-0.003625
35.464,54.0001,-0.007251
35.483,54.0001,-0.003625
35.496,54.0001,-0.003625
35.513,54.0001,-0.006042
35.528,54.0001,0.004834
35.544,54.0001,-0.003625
35.560,54.0001,-0.002417
35.576,54.0001,-0.003625
35.595,54.0001,-0.003625
35.608,54.0001,-0.004834
35.623,54.0001,0.004834
35.640,54.0001,-0.009668
35.656,54.0001,-0.009668
35.672,54.0001,-0.004834
35.688,54.0001,-0.002417
35.715,54.0001,-0.003625
35.733,54.0001,-0.004834
35.748,54.0001,-0.003625
35.764,54.0001,-0.004834
35.780,54.0001,-0.002417
35.796,54.0001,-0.002417
35.815,54.0001,-0.003625
35.827,54.0001,-0.003625
35.844,54.0001,-0.003625
35.860,54.0001,-0.007251
35.875,54.0001,-0.007251
35.892,54.0001,-0.007251
35.907,54.0001,-0.007251
35.924,54.0001,-0.007251
35.939,54.0001,0.003625
35.959,54.0001,0.003625
35.972,54.0001,-0.006042
35.988,54.0001,-0.001208
36.003,54.0001,-0.004834
36.020,54.0001,-0.006042
36.036,54.0001,-0.001208
36.053,54.0001,0.000000
36.068,54.0001,-0.002417
36.084,54.0001,-0.008459
36.100,54.0001,0.000000
36.115,54.0001,-0.004834
36.134,54.0001,-0.004834
36.147,54.0001,-0.003625
36.163,54.0001,-0.009668
36.179,54.0001,0.001208
36.196,54.0001,0.001208
36.212,54.0001,-0.006042
36.228,54.0001,-0.003625
36.243,54.0001,-0.009668
36.259,54.0001,-0.006042
36.275,54.0001,0.002417
36.292,54.0001,-0.003625
36.307,54.0001,-0.002417
36.324,54.0001,0.000000
36.339,54.0001,-0.008459
36.355,54.0001,-0.002417
36.381,54.0001,-0.002417
36.403,54.0001,-0.002417
36.419,54.0001,-0.002417
36.436,54.0001,-0.006042
36.452,54.0001,-0.007251
36.468,54.0001,-0.004834
36.483,54.0001,-0.001208
36.501,54.0001,0.000000
36.516,54.0001,-0.004834
36.532,54.0001,0.002417
36.547,54.0001,-0.004834
36.564,54.0001,-0.006042
36.580,54.0001,-0.010876
36.596,54.0001,-0.010876
36.611,54.0001,0.000000
36.628,54.0001,-0.002417
36.644,54.0001,-0.002417
36.661,54.0001,-0.002417
36.675,54.0001,-0.002417
36.691,54.0001,0.000000
36.707,54.0001,-0.003625
36.723,54.0001,-0.003625
36.739,54.0001,0.002417
36.755,54.0001,0.002417
36.771,54.0001,-0.004834
36.787,54.0001,-0.002417
36.810,54.0001,0.000000
36.826,54.0001,-0.003625
36.842,54.0001,0.000000
36.858,54.0001,-0.002417
36.875,54.0001,-0.002417
36.891,54.0001,-0.004834
36.907,54.0001,-0.006042
36.922,54.0001,-0.006042
36.938,54.0001,-0.004834
36.954,54.0001,-0.006042
36.969,54.0001,-0.003625
36.986,54.0001,-0.003625
37.002,54.0001,-0.002417
37.018,54.0001,0.001208
37.034,54.0001,-0.002417
37.050,54.0001,-0.004834
37.067,54.0001,-0.004834
37.082,54.0001,-0.001208
37.099,54.0001,-0.001208
37.116,54.0001,-0.003625
37.130,54.0001,-0.003625
37.146,54.0001,-0.007251
37.164,54.0001,-0.003625
37.178,54.0001,-0.003625
37.194,54.0001,-0.003625
37.212,54.0001,-0.002417
37.227,54.0001,-0.003625
37.242,54.0001,-0.001208
37.258,54.0001,-0.002417
37.277,54.0001,-0.003625
37.291,54.0001,-0.002417
37.306,54.0001,-0.008459
37.322,54.0001,-0.007251
37.338,54.0001,-0.003625
37.354,54.0001,-0.006042
37.370,54.0001,-0.003625
37.386,54.0001,-0.001208
37.403,54.0001,0.003625
37.418,54.0001,-0.007251
37.436,54.0001,-0.007251
37.450,54.0001,-0.012084
37.466,54.0001,-0.008459
37.482,54.0001,-0.003625
37.498,54.0001,-0.002417
37.513,54.0001,-0.002417
37.530,54.0001,-0.001208
37.545,54.0001,-0.004834
37.562,54.0001,-0.008459
37.588,54.0001,-0.008459
37.609,54.0001,0.000000
37.628,54.0001,-0.002417
37.642,54.0001,0.002417
37.657,54.0001,-0.006042
37.673,54.0001,-0.003625
37.690,54.0001,0.002417
37.706,54.0001,-0.003625
37.722,54.0001,-0.004834
37.737,54.0001,0.001208
37.758,54.0001,-0.003625
37.770,54.0001,-0.007251
37.786,54.0001,-0.007251
37.801,54.0001,-0.004834
37.818,54.0001,-0.004834
37.834,54.0001,-0.008459
37.852,54.0001,-0.003625
37.875,54.0001,-0.002417
37.892,54.0001,0.000000
37.907,54.0001,-0.004834
37.924,54.0001,-0.006042
37.940,54.0001,-0.006042
37.955,54.0001,-0.003625
37.971,54.0001,-0.006042
37.988,54.0001,0.000000
38.004,54.0001,0.000000
38.021,54.0001,-0.004834
38.035,54.0001,-0.004834
38.052,54.0001,-0.003625
38.069,54.0001,-0.003625
38.086,54.0001,-0.003625
38.100,53.9715,0.000000
38.115,53.8362,0.096676
38.132,53.6972,-0.001208
38.147,53.5717,0.009668
38.164,53.4343,-0.014501
38.179,53.3002,-0.009668
38.195,53.1661,-0.009668
38.212,53.0229,0.001208
38.228,52.8828,-0.002417
38.244,52.7531,-0.007251
38.259,52.6233,0.001208
38.278,52.4622,-0.001208
38.291,52.3519,-0.002417
38.307,52.2136,0.000000
38.323,52.0804,-0.002417
38.344,51.9057,-0.004834
38.356,51.8014,-0.008459
38.372,51.6690,-0.001208
38.390,51.4995,-0.007251
38.413,51.3188,-0.003625
38.429,51.1822,-0.003625
38.446,51.0363,0.003625
38.461,50.9090,-0.003625
38.480,50.7496,-0.003625
38.494,50.6343,-0.006042
38.509,50.5045,-0.006042
38.525,50.3670,-0.010876
38.546,50.1770,-0.003625
38.558,50.0880,-0.002417
38.573,49.9583,-0.002417
38.589,49.8191,-0.004834
38.606,49.6801,-0.004834
38.621,49.5511,-0.001208
38.639,49.3975,-0.002417
38.653,49.2831,-0.004834
38.670,49.1397,-0.009668
38.686,49.0065,-0.008459
38.702,48.8615,-0.010876
38.717,48.7360,-0.010876
38.736,48.5672,0.002417
38.749,48.4696,0.000000
38.765,48.3297,0.000000
38.781,48.1981,-0.003625
38.797,48.0556,-0.007251
38.814,47.9502,-0.007251
38.829,47.9501,-0.108760
38.849,47.9501,-0.007251
38.868,47.9501,-0.007251
38.893,47.9501,-0.009668
38.909,47.9501,0.000000
38.925,47.9501,-0.006042
38.941,47.9501,0.003625
38.957,47.9501,-0.006042
38.978,47.9501,-0.004834
38.994,47.9501,-0.003625
39.010,47.9501,-0.009668
39.025,47.9501,-0.007251
39.043,47.9501,-0.002417
39.058,47.9501,-0.006042
39.073,47.9501,-0.004834
39.092,47.9501,-0.008459
39.106,47.9501,-0.002417
39.122,47.9501,-0.004834
39.138,47.9501,-0.009668
39.154,47.9501,-0.009668
39.170,47.9501,-0.012084
39.186,47.9501,-0.012084
39.203,48.0298,-0.004834
39.218,48.1537,-0.068882
39.234,48.2911,-0.002417
39.250,48.4252,-0.003625
39.271,48.6117,0.007251
39.283,48.7050,0.000000
39.298,48.8348,-0.007251
39.317,48.9968,0.002417
39.331,49.1113,-0.006042
39.346,49.2445,-0.006042
39.364,49.3896,-0.001208
39.378,49.5176,0.004834
39.394,49.6534,-0.001208
39.410,49.7882,0.001208
39.426,49.9172,0.006042
39.443,50.0690,0.003625
39.459,50.1963,-0.007251
39.474,50.3235,-0.002417
39.501,50.5533,-0.004834
39.517,50.6932,-0.004834
39.532,50.8189,-0.003625
39.548,50.9519,-0.002417
39.564,51.0920,-0.002417
39.580,51.2294,-0.008459
39.596,51.3677,0.001208
39.612,51.4932,-0.006042
39.628,51.6416,-0.002417
39.646,51.7959,0.000000
39.660,51.9011,-0.002417
39.676,52.0378,-0.002417
39.692,52.1794,-0.006042
39.708,52.3151,-0.001208
39.727,52.4770,-0.009668
39.740,52.5916,-0.002417
39.756,52.7188,-0.006042
39.772,52.8562,-0.003625
39.788,52.9860,-0.006042
39.807,53.1506,-0.009668
39.820,53.2600,-0.003625
39.835,53.3940,-0.004834
39.852,53.5298,-0.008459
39.869,53.6747,-0.003625
39.884,53.8029,-0.007251
39.900,53.9366,-0.002417
39.916,53.9501,0.094259
39.932,53.9501,0.029003
39.948,53.9501,0.002417
39.964,53.9501,0.000000
39.980,53.9501,0.001208
39.995,53.9501,-0.002417
40.012,53.9501,-0.010876
40.044,53.9501,-0.006042
40.059,53.9501,-0.004834
40.074,53.9501,-0.002417
40.090,53.9501,-0.002417
40.106,53.9501,-0.002417
40.122,53.9501,-0.002417
40.138,53.9501,-0.002417
40.154,53.9501,-0.007251
40.170,53.9501,-0.004834
40.186,53.9501,0.002417
40.202,53.9501,-0.001208
40.220,53.9501,0.001208
40.235,53.9501,-0.006042
40.252,53.9501,-0.010876
40.271,53.9501,-0.007251
40.285,53.9501,-0.007251
40.298,53.9501,-0.007251
40.314,53.9501,0.002417
40.331,53.9501,-0.001208
40.347,53.9501,-0.001208
