Elapsed Time (s),Position (mm),Force (N)
-0.018,56.6001,0.002417
0.000,56.6001,-0.004834
0.014,56.6001,-0.002417
0.033,56.6001,-0.003625
0.047,56.6001,-0.003625
0.062,56.6001,-0.002417
0.078,56.6001,-0.009668
0.095,56.6001,-0.009668
0.110,56.6001,-0.004834
0.126,56.6001,-0.003625
0.142,56.6001,-0.004834
0.159,56.6001,0.000000
0.174,56.6001,-0.004834
0.190,56.6001,-0.008459
0.206,56.6001,0.000000
0.223,56.6001,-0.001208
0.239,56.6001,0.000000
0.255,56.6001,0.000000
0.270,56.6001,-0.006042
0.287,56.6001,-0.006042
0.303,56.6001,-0.008459
0.318,56.6001,-0.006042
0.334,56.6001,-0.006042
0.351,56.6001,-0.004834
0.366,56.6001,-0.004834
0.381,56.6001,-0.003625
0.403,56.6001,-0.007251
0.419,56.6001,-0.009668
0.435,56.6001,-0.004834
0.451,56.6001,0.001208
0.470,56.6001,-0.003625
0.483,56.6001,-0.004834
0.499,56.6001,-0.008459
0.514,56.6001,-0.007251
0.531,56.6001,-0.004834
0.548,56.6001,-0.008459
0.563,56.6001,-0.003625
0.579,56.6001,0.002417
0.596,56.6001,0.001208
0.611,56.6001,-0.006042
0.630,56.6001,-0.001208
0.642,56.6001,-0.001208
0.658,56.6001,-0.001208
0.675,56.6001,-0.001208
0.691,56.6001,-0.012084
0.707,56.6001,0.000000
0.723,56.6001,-0.001208
0.742,56.6001,0.001208
0.762,56.6001,-0.004834
0.772,56.6001,-0.006042
0.787,56.6001,-0.001208
0.802,56.6001,0.003625
0.820,56.6001,-0.001208
0.835,56.6001,0.000000
0.850,56.6001,0.001208
0.866,56.6001,-0.003625
0.884,56.6001,-0.003625
0.899,56.6001,-0.002417
0.915,56.6001,-0.001208
0.946,56.6001,-0.007251
0.965,56.6001,-0.006042
0.978,56.6001,-0.003625
0.993,56.6001,-0.006042
1.010,56.6001,-0.007251
1.026,56.6001,-0.007251
1.041,56.6001,0.000000
1.057,56.6001,-0.001208
1.073,56.6001,-0.001208
1.089,56.6001,-0.001208
1.106,56.6001,-0.007251
1.122,56.6001,-0.007251
1.139,56.6001,-0.002417
1.153,56.6001,-0.003625
1.173,56.6001,-0.003625
1.186,56.6001,-0.001208
1.202,56.6001,-0.003625
1.218,56.6001,-0.003625
1.234,56.6001,0.000000
1.249,56.6001,-0.003625
1.265,56.6001,0.004834
1.281,56.6001,-0.002417
1.303,56.6001,-0.003625
1.315,56.6001,-0.002417
1.329,56.6001,-0.003625
1.346,56.6001,0.000000
1.361,56.6001,0.001208
1.378,56.6001,-0.003625
1.394,56.6001,-0.008459
1.409,56.6001,-0.003625
1.425,56.6001,-0.003625
1.441,56.6001,-0.007251
1.457,56.6001,-0.001208
1.481,56.6001,-0.004834
1.497,56.6001,0.000000
1.512,56.6001,-0.003625
1.528,56.6001,-0.002417
1.544,56.6001,-0.008459
1.560,56.6001,-0.001208
1.577,56.6001,-0.001208
1.592,56.6001,-0.001208
1.611,56.6001,0.000000
1.624,56.6001,-0.006042
1.640,56.6001,-0.003625
1.656,56.6001,-0.001208
1.672,56.6001,-0.007251
1.688,56.6001,-0.006042
1.704,56.6001,-0.004834
1.722,56.6001,-0.004834
1.736,56.6001,-0.004834
1.752,56.6001,-0.004834
1.768,56.6001,-0.004834
1.784,56.6001,-0.002417
1.801,56.6001,-0.001208
1.816,56.6001,-0.004834
1.832,56.6001,-0.004834
1.848,56.6001,-0.007251
1.864,56.6001,-0.007251
1.880,56.6001,-0.006042
1.896,56.6001,-0.002417
1.912,56.6001,-0.002417
1.928,56.6001,0.006042
1.944,56.6001,0.000000
1.960,56.6001,-0.001208
1.976,56.6001,-0.002417
1.992,56.6001,-0.001208
2.015,56.6001,-0.002417
2.031,56.6001,0.001208
2.047,56.6001,0.000000
2.063,56.6001,0.000000
2.079,56.6001,-0.004834
2.095,56.6001,-0.008459
2.111,56.6001,-0.003625
2.128,56.6001,-0.006042
2.143,56.6001,-0.006042
2.159,56.6001,-0.003625
2.176,56.6001,-0.003625
2.191,56.6001,-0.004834
2.207,56.6001,-0.004834
2.223,56.6001,-0.001208
2.239,56.6001,0.000000
2.255,56.6001,-0.003625
2.271,56.6001,-0.004834
2.287,56.6001,-0.006042
2.304,56.6001,-0.006042
2.320,56.6001,-0.007251
2.335,56.6001,-0.002417
2.350,56.6001,-0.002417
2.367,56.6001,-0.003625
2.383,56.6001,-0.003625
2.399,56.6001,-0.004834
2.414,56.6001,0.002417
2.431,56.6001,-0.003625
2.448,56.6001,-0.006042
2.463,56.6001,-0.006042
2.479,56.6001,0.003625
2.496,56.6001,0.003625
2.510,56.6001,-0.004834
2.529,56.6001,-0.009668
2.553,56.6001,-0.009668
2.569,56.6001,-0.001208
2.585,56.6001,-0.001208
2.600,56.6001,-0.003625
2.618,56.6001,-0.007251
2.634,56.6001,-0.007251
2.649,56.6001,-0.004834
2.664,56.6001,-0.002417
2.682,56.6001,-0.008459
2.697,56.6001,-0.006042
2.712,56.6001,-0.003625
2.728,56.6001,-0.001208
2.745,56.6001,-0.001208
2.761,56.6001,-0.003625
2.776,56.6001,-0.007251
2.792,56.6001,-0.002417
2.809,56.6001,-0.002417
2.825,56.6001,0.002417
2.841,56.6001,0.000000
2.856,56.6001,-0.003625
2.877,56.6001,-0.003625
2.890,56.6001,-0.001208
2.904,56.6001,-0.002417
2.922,56.6001,0.002417
2.937,56.6001,-0.001208
2.952,56.6001,-0.001208
2.968,56.6001,-0.002417
2.984,56.6001,-0.003625
3.002,56.6001,-0.003625
3.017,56.6001,-0.006042
3.033,56.6001,-0.006042
3.049,56.6001,-0.001208
3.065,56.6001,-0.001208
3.081,56.6001,-0.003625
3.096,56.6001,-0.003625
3.119,56.6001,-0.002417
3.137,56.6001,-0.006042
3.151,56.6001,-0.004834
3.167,56.6001,-0.003625
3.183,56.6001,0.001208
3.198,56.6001,-0.001208
3.214,56.6001,-0.003625
3.230,56.6001,-0.004834
3.246,56.6001,-0.004834
3.262,56.6001,-0.003625
3.278,56.6001,-0.001208
3.297,56.6001,0.001208
3.310,56.6001,0.002417
3.326,56.6001,-0.004834
3.342,56.6001,-0.008459
3.358,56.6001,-0.002417
3.374,56.6001,-0.003625
3.390,56.6001,-0.002417
3.407,56.6001,-0.002417
3.423,56.6001,-0.002417
3.442,56.6001,-0.007251
3.454,56.6001,-0.009668
3.471,56.6001,-0.001208
3.487,56.6001,-0.002417
3.504,56.6001,-0.002417
3.519,56.6001,-0.004834
3.534,56.6001,-0.004834
3.550,56.6001,-0.007251
3.566,56.6001,-0.004834
3.582,56.6001,0.000000
3.598,56.6001,-0.003625
3.614,56.6001,-0.003625
3.630,56.6001,-0.001208
3.653,56.6001,-0.004834
3.670,56.6001,-0.002417
3.685,56.6001,-0.001208
3.701,56.6001,-0.001208
3.719,56.6001,-0.002417
3.734,56.6001,-0.006042
3.749,56.6001,-0.002417
3.766,56.6001,-0.002417
3.781,56.6001,-0.007251
3.797,56.6001,0.001208
3.813,56.6001,-0.002417
3.829,56.6001,-0.002417
3.845,56.6001,-0.004834
3.861,56.6001,-0.007251
3.878,56.6001,-0.006042
3.894,56.6001,-0.008459
3.909,56.6001,-0.001208
3.927,56.6001,-0.001208
3.941,56.6001,-0.001208
3.957,56.6001,-0.003625
3.973,56.6001,0.000000
3.991,56.6001,0.000000
4.005,56.6001,-0.009668
4.021,56.6001,0.003625
4.037,56.6001,0.000000
4.054,56.6001,-0.002417
4.069,56.6001,-0.001208
4.085,56.6001,-0.003625
4.101,56.6001,-0.004834
4.118,56.6001,-0.006042
4.134,56.6001,-0.006042
4.149,56.6001,0.000000
4.165,56.6001,-0.002417
4.181,56.6001,-0.001208
4.197,56.6001,-0.001208
4.213,56.6001,0.000000
4.229,56.6001,-0.003625
4.245,56.6001,-0.003625
4.261,56.6001,-0.009668
4.278,56.6001,-0.006042
4.293,56.6001,-0.003625
4.309,56.6001,0.001208
4.325,56.6001,-0.006042
4.341,56.6001,-0.003625
4.357,56.6001,-0.004834
4.373,56.6001,-0.004834
4.389,56.6001,-0.004834
4.406,56.6001,-0.003625
4.421,56.6001,-0.003625
4.437,56.6001,-0.006042
4.453,56.6001,-0.003625
4.470,56.6001,-0.007251
4.485,56.6001,-0.007251
4.501,56.6001,-0.006042
4.517,56.6001,-0.006042
4.534,56.6001,-0.006042
4.549,56.6001,-0.006042
4.566,56.6001,-0.006042
4.581,56.6001,-0.006042
4.598,56.6001,0.004834
4.613,56.6001,0.002417
4.629,56.6001,-0.006042
4.646,56.6001,0.000000
4.662,56.6001,0.000000
4.678,56.6001,0.000000
4.703,56.6001,-0.001208
4.718,56.6001,0.000000
4.735,56.6001,-0.001208
4.750,56.6001,-0.003625
4.767,56.6001,-0.001208
4.783,56.6001,0.001208
4.799,56.6001,0.000000
4.820,56.6001,0.004834
4.832,56.6001,0.006042
4.847,56.6001,0.006042
4.863,56.6001,0.006042
4.879,56.6001,0.002417
4.895,56.6001,-0.004834
4.913,56.6001,-0.004834
4.927,56.6001,-0.006042
4.944,56.6001,-0.006042
4.959,56.6001,-0.001208
4.975,56.6001,-0.003625
4.992,56.6001,-0.003625
5.008,56.6001,-0.006042
5.022,56.6001,-0.004834
5.041,56.6001,-0.003625
5.055,56.6001,-0.007251
5.070,56.6001,-0.003625
5.086,56.6001,-0.001208
5.102,56.6001,-0.003625
5.118,56.6001,-0.001208
5.134,56.6001,0.000000
5.151,56.6001,0.001208
5.167,56.6001,-0.003625
5.183,56.6001,-0.010876
5.199,56.6001,-0.006042
5.215,56.6001,-0.009668
5.231,56.6001,-0.004834
5.246,56.6001,-0.006042
5.268,56.6001,-0.002417
5.285,56.6001,0.000000
5.300,56.6001,0.001208
5.316,56.6001,-0.004834
5.332,56.6001,-0.004834
5.348,56.6001,-0.008459
5.365,56.6001,0.002417
5.383,56.6001,0.002417
5.396,56.6001,0.000000
5.412,56.6001,-0.007251
5.428,56.6001,-0.003625
5.449,56.6001,-0.003625
5.462,56.6001,-0.001208
5.477,56.6001,-0.001208
5.494,56.6001,-0.001208
5.509,56.6001,0.000000
5.526,56.6001,0.000000
5.544,56.6001,-0.001208
5.556,56.6001,-0.001208
5.572,56.6001,0.001208
5.589,56.6001,-0.002417
5.605,56.6001,-0.003625
5.622,56.6001,0.004834
5.637,56.6001,-0.008459
5.654,56.6001,-0.008459
5.670,56.6001,-0.003625
5.684,56.6001,-0.003625
5.700,56.6001,0.003625
5.716,56.6001,0.002417
5.735,56.6001,-0.006042
5.750,56.6001,0.000000
5.765,56.6001,0.000000
5.780,56.6001,-0.003625
5.808,56.6001,0.000000
5.824,56.6001,-0.001208
5.840,56.6001,-0.002417
5.856,56.6001,-0.007251
5.873,56.6001,-0.001208
5.888,56.6001,-0.006042
5.906,56.6001,-0.004834
5.921,56.6001,-0.002417
5.936,56.6001,-0.002417
5.952,56.6001,0.000000
5.968,56.6001,0.000000
5.985,56.6001,-0.002417
6.000,56.6001,-0.003625
6.017,56.6001,0.002417
6.032,56.6001,-0.001208
6.048,56.6001,-0.003625
6.065,56.6001,-0.003625
6.082,56.6001,-0.006042
6.096,56.6001,0.001208
6.112,56.6001,0.001208
6.128,56.6001,-0.002417
6.144,56.6001,-0.002417
6.160,56.6001,-0.004834
6.176,56.6001,-0.003625
6.192,56.6001,-0.006042
6.208,56.6001,0.002417
6.228,56.6001,0.002417
6.240,56.6001,-0.008459
6.256,56.6001,-0.003625
6.272,56.6001,-0.010876
6.289,56.6001,-0.006042
6.303,56.6001,-0.004834
6.320,56.6001,-0.001208
6.336,56.6001,-0.003625
6.359,56.6001,-0.003625
6.375,56.6001,-0.003625
6.391,56.6001,-0.003625
6.407,56.6001,0.002417
6.423,56.6001,0.001208
6.440,56.6001,-0.004834
6.455,56.6001,-0.002417
6.471,56.6001,0.002417
6.487,56.6001,-0.004834
6.503,56.6001,-0.004834
6.520,56.6001,-0.003625
6.535,56.6001,-0.003625
6.551,56.6001,-0.004834
6.567,56.6001,-0.009668
6.583,56.6001,-0.002417
6.600,56.6001,0.002417
6.615,56.6001,-0.002417
6.631,56.6001,-0.004834
6.648,56.6001,-0.003625
6.665,56.6001,0.002417
6.679,56.6001,-0.001208
6.694,56.6001,-0.001208
6.711,56.6001,-0.003625
6.727,56.6001,0.000000
6.742,56.6001,0.000000
6.760,56.6001,-0.012084
6.774,56.6001,-0.012084
6.791,56.6001,-0.007251
6.807,56.6001,0.003625
6.823,56.6001,-0.003625
6.839,56.6001,0.003625
6.855,56.6001,0.000000
6.871,56.6001,-0.002417
6.898,56.6001,-0.001208
6.915,56.6001,0.000000
6.930,56.6001,-0.006042
6.946,56.6001,-0.004834
6.964,56.6001,-0.006042
6.979,56.6001,-0.002417
6.995,56.6001,-0.007251
7.011,56.6001,-0.004834
7.027,56.6001,-0.006042
7.043,56.6001,-0.001208
7.059,56.6001,0.001208
7.074,56.6001,-0.009668
7.091,56.6001,-0.006042
7.107,56.6001,-0.004834
7.123,56.6001,-0.004834
7.138,56.6001,-0.001208
7.155,56.6001,-0.001208
7.171,56.6001,0.001208
7.189,56.6001,-0.004834
7.204,56.6001,-0.004834
7.219,56.6001,-0.003625
7.235,56.6001,-0.006042
7.250,56.6001,0.001208
7.266,56.6001,0.003625
7.282,56.6001,-0.007251
7.298,56.6001,0.001208
7.314,56.6001,-0.002417
7.331,56.6001,-0.003625
7.347,56.6001,-0.003625
7.362,56.6001,-0.002417
7.380,56.6001,-0.003625
7.396,56.6001,-0.003625
7.410,56.6001,-0.002417
7.427,56.6001,-0.002417
7.442,56.6001,-0.001208
7.458,56.6001,-0.004834
7.474,56.6001,-0.004834
7.490,56.6001,-0.004834
7.507,56.6001,-0.001208
7.524,56.6001,-0.001208
7.538,56.6001,-0.002417
7.554,56.6001,-0.010876
7.571,56.6001,-0.006042
7.586,56.6001,-0.008459
7.605,56.6001,-0.008459
7.618,56.6001,-0.001208
7.635,56.6001,0.003625
7.651,56.6001,-0.006042
7.666,56.6001,-0.004834
7.685,56.6001,-0.001208
7.698,56.6001,-0.001208
7.715,56.6001,-0.001208
7.730,56.6001,0.001208
7.747,56.6001,0.001208
7.764,56.6001,0.000000
7.779,56.6001,-0.004834
7.794,56.6001,-0.004834
7.810,56.6001,-0.001208
7.827,56.6001,0.001208
7.842,56.6001,0.000000
7.859,56.6001,-0.001208
7.875,56.6001,0.000000
7.892,56.6001,-0.002417
7.907,56.6001,-0.006042
7.922,56.6001,0.000000
7.939,56.6001,-0.002417
7.967,56.6001,-0.002417
7.983,56.6001,0.001208
7.999,56.6001,-0.001208
8.015,56.6001,-0.006042
8.031,56.6001,-0.004834
8.047,56.6001,-0.004834
8.063,56.6001,-0.004834
8.079,56.6001,0.001208
8.095,56.6001,-0.008459
8.111,56.6001,-0.008459
8.127,56.6001,0.001208
8.143,56.6001,0.001208
8.159,56.6001,-0.003625
8.175,56.6001,-0.003625
8.191,56.6001,0.001208
8.210,56.6001,-0.004834
8.223,56.6001,-0.004834
8.239,56.6001,0.001208
8.255,56.6001,0.001208
8.272,56.6001,-0.004834
8.288,56.6001,-0.002417
8.304,56.6001,-0.008459
8.323,56.6001,-0.008459
8.336,56.6001,-0.004834
8.352,56.6001,0.000000
8.371,56.6001,-0.001208
8.384,56.6001,-0.001208
8.399,56.6001,0.000000
8.415,56.6001,-0.003625
8.431,56.6001,-0.001208
8.448,56.6001,-0.003625
8.463,56.6001,-0.004834
8.479,56.6001,-0.007251
8.498,56.6001,-0.003625
8.522,56.6001,-0.001208
8.537,56.6001,-0.002417
8.553,56.6001,-0.007251
8.569,56.6001,-0.008459
8.586,56.6001,-0.003625
8.601,56.6001,-0.001208
8.617,56.6001,-0.003625
8.633,56.6001,0.001208
8.651,56.6001,-0.001208
8.666,56.6001,-0.004834
8.681,56.6001,-0.002417
8.697,56.6001,-0.003625
8.713,56.6001,-0.003625
8.729,56.6001,0.001208
8.745,56.6001,-0.009668
8.761,56.6001,-0.002417
8.777,56.6001,-0.006042
8.793,56.6001,-0.006042
8.810,56.6001,-0.004834
8.826,56.6001,-0.003625
8.841,56.6001,-0.004834
8.857,56.6001,-0.002417
8.879,56.6001,-0.004834
8.890,56.6001,-0.006042
8.905,56.6001,-0.001208
8.922,56.6001,-0.002417
8.939,56.6001,0.000000
8.954,56.6001,-0.008459
8.969,56.6001,-0.003625
8.985,56.6001,-0.007251
9.001,56.6001,-0.003625
9.017,56.6001,-0.003625
9.033,56.6001,-0.003625
9.057,56.6001,-0.004834
9.071,56.6001,-0.004834
9.088,56.6001,-0.002417
9.103,56.6001,-0.001208
9.121,56.6001,0.001208
9.136,56.6001,-0.002417
9.152,56.6001,0.000000
9.168,56.6001,0.001208
9.187,56.6001,0.002417
9.199,56.6001,0.001208
9.215,56.6001,0.002417
9.231,56.6001,0.003625
9.248,56.6001,-0.010876
9.265,56.6001,-0.002417
9.280,56.6001,0.001208
9.296,56.6001,0.002417
9.313,56.6001,0.000000
9.328,56.6001,-0.001208
9.347,56.6001,-0.002417
9.359,56.6001,-0.006042
9.375,56.6001,-0.004834
9.392,56.6001,-0.004834
9.407,56.6001,-0.002417
9.424,56.6001,-0.002417
9.439,56.6001,-0.007251
9.458,56.6001,-0.008459
9.471,56.6001,-0.008459
9.487,56.6001,-0.003625
9.503,56.6001,-0.003625
9.519,56.6001,0.000000
9.543,56.6001,-0.002417
9.553,56.6001,-0.002417
9.568,56.6001,-0.002417
9.583,56.6001,-0.007251
9.600,56.6001,-0.002417
9.616,56.6001,-0.002417
9.631,56.6001,-0.003625
9.648,56.6001,-0.002417
9.663,56.6001,-0.007251
9.680,56.6001,-0.007251
9.696,56.6001,0.001208
9.712,56.6001,0.001208
9.728,56.6001,-0.004834
9.745,56.6001,0.001208
9.760,56.6001,-0.004834
9.775,56.6001,-0.006042
9.792,56.6001,-0.003625
9.808,56.6001,-0.002417
9.824,56.6001,0.001208
9.839,56.6001,-0.003625
9.856,56.6001,-0.003625
9.872,56.6001,-0.003625
9.890,56.6001,0.002417
9.903,56.6001,-0.004834
9.919,56.6001,-0.002417
9.935,56.6001,-0.002417
9.951,56.6001,0.002417
9.970,56.6001,0.002417
9.984,56.6001,-0.002417
10.000,56.6001,-0.004834
10.015,56.6001,-0.004834
10.034,56.6001,-0.003625
10.048,56.6001,-0.003625
10.063,56.6001,-0.003625
10.079,56.6001,-0.003625
10.096,56.6001,-0.004834
10.111,56.6001,-0.004834
10.128,56.6001,-0.002417
10.143,56.6001,0.000000
10.166,56.6001,0.000000
10.182,56.6001,-0.003625
10.198,56.6001,-0.001208
10.214,56.6001,-0.002417
10.233,56.6001,0.000000
10.246,56.6001,-0.007251
10.262,56.6001,-0.006042
10.278,56.6001,-0.006042
10.294,56.6001,-0.006042
10.310,56.6001,-0.003625
10.326,56.6001,-0.006042
10.348,56.6001,-0.001208
10.359,56.6001,-0.001208
10.374,56.6001,0.000000
10.391,56.6001,-0.003625
10.406,56.6001,0.000000
10.422,56.6001,0.004834
10.438,56.6001,-0.004834
10.455,56.6001,-0.004834
10.470,56.6001,-0.009668
10.486,56.6001,-0.012084
10.502,56.6001,-0.004834
10.518,56.6001,-0.001208
10.534,56.6001,-0.001208
10.550,56.6001,-0.007251
10.567,56.6001,-0.007251
10.582,56.6001,-0.003625
10.599,56.6001,-0.001208
10.614,56.6001,-0.001208
10.630,56.6001,-0.008459
10.646,56.6001,-0.003625
10.662,56.6001,-0.003625
10.678,56.6001,-0.008459
10.702,56.6001,-0.008459
10.718,56.6001,-0.006042
10.734,56.6001,-0.002417
10.750,56.6001,-0.006042
10.766,56.6001,-0.002417
10.783,56.6001,-0.003625
10.798,56.6001,-0.009668
10.814,56.6001,-0.008459
10.831,56.6001,-0.001208
10.847,56.6001,-0.001208
10.863,56.6001,-0.001208
10.878,56.6001,-0.003625
10.894,56.6001,-0.003625
10.910,56.6001,-0.006042
10.926,56.6001,-0.001208
10.945,56.6001,0.001208
10.962,56.6001,-0.008459
10.974,56.6001,-0.008459
10.990,56.6001,-0.001208
11.006,56.6001,-0.007251
11.022,56.6001,-0.006042
11.038,56.6001,-0.003625
11.053,56.6001,0.002417
11.071,56.6001,-0.003625
11.086,56.6001,-0.001208
11.102,56.6001,0.001208
11.118,56.6001,0.003625
11.135,56.6001,-0.002417
11.150,56.6001,-0.003625
11.166,56.6001,-0.004834
11.183,56.5733,-0.002417
11.198,56.4773,0.078549
11.214,56.3665,0.000000
11.244,56.1677,0.000000
11.259,56.0704,-0.002417
11.276,55.9604,-0.008459
11.291,55.8583,-0.008459
11.308,55.7423,0.000000
11.323,55.6462,-0.003625
11.342,55.5196,-0.003625
11.356,55.4315,-0.002417
11.372,55.3195,-0.003625
11.388,55.2181,-0.007251
11.406,55.0948,-0.007251
11.421,54.9961,-0.001208
11.436,54.9013,-0.007251
11.452,54.7926,-0.009668
11.467,54.6926,-0.008459
11.484,54.5832,-0.008459
11.500,54.4772,-0.001208
11.515,54.3698,-0.001208
11.532,54.2611,-0.001208
11.547,54.1624,-0.001208
11.564,54.0490,-0.006042
11.579,53.9503,0.003625
11.598,53.8270,0.002417
11.612,53.7356,0.004834
11.627,53.6296,-0.004834
11.643,53.5269,-0.006042
11.663,53.3916,-0.002417
11.675,53.3135,0.000000
11.691,53.2080,-0.002417
11.707,53.1027,0.000000
11.725,52.9860,0.006042
11.740,52.8827,-0.006042
11.759,52.7555,-0.003625
11.783,52.5983,-0.007251
11.799,52.4917,-0.004834
11.815,52.3850,-0.002417
11.831,52.2810,-0.002417
11.848,52.1676,-0.002417
11.864,52.0643,0.000000
11.879,51.9635,-0.008459
11.895,51.8522,0.002417
11.911,51.7514,-0.002417
11.927,51.6441,-0.004834
11.943,51.5394,-0.004834
11.960,51.4281,-0.008459
11.976,51.3226,-0.007251
11.996,51.1888,-0.007251
12.007,51.1145,-0.008459
12.024,51.0059,-0.003625
12.040,50.8972,-0.003625
12.056,50.7898,0.001208
12.071,50.6917,0.001208
12.087,50.5844,-0.007251
12.103,50.5501,-0.064048
12.119,50.5501,0.003625
12.138,50.5501,-0.010876
12.151,50.5501,-0.010876
12.167,50.5501,-0.010876
12.183,50.5501,0.001208
12.199,50.5501,-0.004834
12.215,50.5501,0.002417
12.232,50.5501,-0.004834
12.247,50.5501,-0.006042
12.263,50.5501,-0.006042
12.279,50.5501,0.007251
12.295,50.5501,-0.002417
12.311,50.5501,-0.007251
12.334,50.5501,-0.006042
12.349,50.5501,-0.006042
12.365,50.5501,-0.001208
12.381,50.5501,-0.002417
12.402,50.5501,0.001208
12.413,50.5501,0.000000
12.429,50.5501,-0.004834
12.445,50.5501,0.001208
12.461,50.6086,-0.059214
12.477,50.7153,-0.072507
12.494,50.8241,-0.010876
12.510,50.9313,-0.007251
12.526,51.0368,-0.007251
12.541,51.1375,-0.015710
12.558,51.2443,-0.001208
12.573,51.3529,-0.007251
12.589,51.4510,-0.003625
12.606,51.5650,0.000000
12.622,51.6736,-0.001208
12.638,51.7777,0.002417
12.653,51.8804,-0.004834
12.669,51.9818,-0.001208
12.685,52.0952,-0.007251
12.701,52.1971,-0.007251
12.719,52.3184,-0.002417
12.733,52.4092,-0.002417
12.750,52.5160,-0.003625
12.766,52.6220,-0.003625
12.781,52.7227,-0.006042
12.800,52.8512,-0.008459
12.813,52.9361,-0.009668
12.829,53.0415,-0.001208
12.845,53.1469,0.000000
12.868,53.3039,-0.004834
12.885,53.4133,-0.004834
12.900,53.5113,0.000000
12.916,53.6167,-0.001208
12.932,53.7307,-0.004834
12.948,53.8321,-0.009668
12.965,53.9441,-0.009668
12.980,54.0402,-0.003625
12.996,54.1515,-0.003625
13.012,54.2583,-0.006042
13.028,54.3655,-0.001208
13.046,54.4775,-0.006042
13.060,54.5703,-0.004834
13.076,54.6811,-0.004834
13.092,54.7824,0.000000
13.108,54.8957,-0.001208
13.125,55.0018,-0.008459
13.140,55.1031,0.000000
13.156,55.2072,-0.010876
13.173,55.3219,-0.010876
13.188,55.4260,-0.004834
13.204,55.5260,-0.002417
13.220,55.6347,-0.002417
13.238,55.7540,-0.006042
13.252,55.8514,-0.008459
13.268,55.9548,-0.002417
13.285,56.0700,-0.003625
13.301,56.1728,-0.004834
13.315,56.2662,-0.004834
13.333,56.3895,-0.004834
13.347,56.4783,-0.008459
13.363,56.5501,-0.008459
13.379,56.5501,0.008459
13.395,56.5501,-0.002417
13.420,56.5501,0.001208
13.435,56.5501,0.001208
13.451,56.5501,-0.007251
13.467,56.5501,-0.002417
13.484,56.5501,0.001208
13.500,56.5501,0.004834
13.519,56.5501,-0.003625
13.533,56.5501,-0.003625
13.548,56.5501,-0.006042
13.563,56.5501,-0.006042
13.579,56.5501,-0.006042
13.597,56.5501,-0.004834
13.612,56.5501,-0.003625
13.629,56.5501,-0.004834
13.645,56.5501,-0.004834
13.660,56.5501,-0.009668
13.679,56.5501,-0.003625
13.692,56.5501,-0.008459
13.708,56.5501,-0.002417
13.724,56.5501,-0.001208
13.739,56.5501,-0.002417
13.760,56.5501,-0.003625
13.774,56.5501,0.000000
13.788,56.5501,-0.003625
13.804,56.5501,0.000000
13.820,56.5501,0.001208
13.836,56.5501,0.000000
13.852,56.5501,-0.003625
13.867,56.5501,-0.002417
13.884,56.5501,-0.002417
13.900,56.5501,-0.001208
13.919,56.5501,-0.002417
13.943,56.5501,-0.003625
13.959,56.5501,-0.004834
13.975,56.5501,-0.004834
13.990,56.5501,-0.001208
14.008,56.5501,-0.004834
14.023,56.5501,-0.006042
14.042,56.5501,-0.006042
14.054,56.5501,0.001208
14.071,56.5501,0.002417
14.087,56.5501,0.002417
14.104,56.5501,0.001208
14.119,56.5501,0.000000
14.135,56.5501,0.000000
14.150,56.5501,-0.007251
14.171,56.5501,-0.007251
14.182,56.5501,-0.009668
14.198,56.5501,0.000000
14.216,56.5501,0.001208
14.231,56.5501,-0.003625
14.247,56.5501,-0.004834
14.262,56.5501,-0.006042
14.279,56.5501,0.000000
14.296,56.5501,-0.004834
14.310,56.5501,-0.002417
14.326,56.5501,0.002417
14.344,56.5501,-0.004834
14.360,56.5501,-0.004834
14.375,56.5501,-0.007251
14.390,56.5501,-0.004834
14.407,56.5501,-0.004834
14.422,56.5501,-0.001208
14.441,56.5501,-0.007251
14.466,56.5501,-0.004834
14.481,56.5501,-0.006042
14.497,56.5501,-0.002417
14.513,56.5501,-0.001208
14.531,56.5501,-0.001208
14.546,56.5501,-0.004834
14.565,56.5501,-0.001208
14.577,56.5501,-0.008459
14.593,56.5501,-0.009668
14.610,56.5501,0.000000
14.625,56.5501,0.000000
14.641,56.5501,-0.003625
14.657,56.5501,-0.003625
14.673,56.5501,-0.003625
14.689,56.5501,-0.007251
14.705,56.5501,0.002417
14.722,56.5501,-0.003625
14.738,56.5501,-0.004834
14.754,56.5501,-0.001208
14.769,56.5501,-0.002417
14.785,56.5501,0.000000
14.801,56.5501,-0.004834
14.822,56.5501,-0.002417
14.834,56.5501,-0.002417
14.849,56.5501,-0.002417
14.866,56.5501,-0.002417
14.881,56.5501,0.000000
14.897,56.5501,-0.003625
14.913,56.5501,-0.004834
14.930,56.5501,-0.002417
14.946,56.5501,-0.006042
14.961,56.5501,-0.006042
14.977,56.5501,-0.002417
14.993,56.5501,-0.004834
15.009,56.5501,-0.004834
15.025,56.5501,-0.004834
15.041,56.5501,0.000000
15.057,56.5501,-0.007251
15.072,56.5501,-0.001208
15.088,56.5501,-0.003625
15.105,56.5501,0.002417
15.122,56.5501,0.003625
15.136,56.5501,0.000000
15.153,56.5501,0.001208
15.168,56.5501,-0.003625
15.185,56.5501,0.002417
15.201,56.5501,0.002417
15.217,56.5501,-0.001208
15.233,56.5501,0.001208
15.249,56.5501,-0.006042
15.265,56.5501,-0.004834
15.281,56.5501,-0.007251
15.296,56.5501,-0.003625
15.312,56.5501,0.000000
15.328,56.5501,0.001208
15.344,56.5501,0.001208
15.361,56.5501,0.000000
15.378,56.5501,-0.006042
15.393,56.5501,-0.006042
15.412,56.5501,-0.006042
15.427,56.5501,-0.004834
15.440,56.5501,-0.006042
15.456,56.5501,-0.002417
15.472,56.5501,-0.002417
15.491,56.5501,-0.004834
15.505,56.5501,-0.004834
15.520,56.5501,-0.003625
15.536,56.5501,-0.001208
15.560,56.5501,0.001208
15.575,56.5501,-0.001208
15.591,56.5501,-0.001208
15.608,56.5501,-0.004834
15.629,56.5501,-0.009668
15.639,56.5501,-0.001208
15.656,56.5501,-0.009668
15.671,56.5501,-0.009668
15.690,56.5501,0.001208
15.703,56.5501,-0.002417
15.720,56.5501,0.000000
15.735,56.5501,0.004834
15.752,56.5501,0.004834
15.767,56.5501,-0.001208
15.783,56.5501,-0.003625
15.799,56.5501,-0.003625
15.818,56.5501,-0.004834
15.831,56.5501,-0.004834
15.847,56.5501,-0.009668
15.863,56.5501,-0.009668
15.882,56.5501,-0.002417
15.895,56.5501,-0.001208
15.911,56.5501,0.001208
15.928,56.5501,-0.008459
15.944,56.5501,-0.008459
15.959,56.5501,-0.001208
15.975,56.5501,-0.003625
15.992,56.5501,-0.006042
16.007,56.5501,-0.004834
16.023,56.5501,-0.006042
16.047,56.5501,-0.004834
16.057,56.5501,-0.006042
16.072,56.5501,0.000000
16.088,56.5501,-0.002417
16.103,56.5501,0.000000
16.126,56.5501,-0.004834
16.142,56.5501,-0.002417
16.157,56.5501,0.000000
16.174,56.5501,0.000000
16.191,56.5501,-0.001208
16.205,56.5501,-0.007251
16.224,56.5501,-0.007251
16.238,56.5501,0.001208
16.253,56.5501,0.001208
16.269,56.5501,-0.006042
16.285,56.5501,-0.006042
16.302,56.5501,-0.003625
16.318,56.5501,0.000000
16.334,56.5501,0.002417
16.350,56.5501,-0.010876
16.365,56.5501,-0.004834
16.382,56.5501,-0.002417
16.399,56.5501,-0.001208
16.414,56.5501,-0.004834
16.430,56.5501,-0.001208
16.445,56.5501,-0.002417
16.463,56.5501,0.000000
16.478,56.5501,-0.002417
16.493,56.5501,0.001208
16.509,56.5501,-0.003625
16.526,56.5501,-0.001208
16.542,56.5501,-0.001208
16.557,56.5501,-0.004834
16.573,56.5501,-0.003625
16.590,56.5501,-0.006042
16.606,56.5501,-0.008459
16.622,56.5501,-0.003625
16.652,56.5501,-0.003625
16.672,56.5501,-0.001208
16.683,56.5501,-0.006042
16.699,56.5501,-0.007251
16.715,56.5501,-0.007251
16.730,56.5501,-0.001208
16.747,56.5501,0.002417
16.762,56.5501,0.002417
16.787,56.5501,-0.001208
16.797,56.5501,-0.001208
16.811,56.5501,-0.002417
16.827,56.5501,0.000000
16.844,56.5501,-0.003625
16.859,56.5501,-0.002417
16.874,56.5501,-0.003625
16.891,56.5501,-0.007251
16.907,56.5501,-0.002417
16.924,56.5501,-0.002417
16.940,56.5501,-0.004834
16.956,56.5501,-0.007251
16.972,56.5501,-0.004834
16.987,56.5501,-0.003625
17.003,56.5501,0.000000
17.020,56.5501,-0.001208
17.035,56.5501,0.000000
17.054,56.5501,0.000000
17.068,56.5501,0.000000
17.083,56.5501,0.000000
17.099,56.5501,-0.003625
17.115,56.5501,0.000000
17.131,56.5501,-0.004834
17.147,56.5501,-0.001208
17.163,56.5501,-0.006042
17.186,56.5501,-0.001208
17.202,56.5501,-0.003625
17.217,56.5501,-0.001208
17.234,56.5501,-0.001208
17.250,56.5501,-0.002417
17.267,56.5501,-0.003625
17.283,56.5501,-0.003625
17.297,56.5501,-0.007251
17.314,56.5501,-0.007251
17.329,56.5501,-0.002417
17.345,56.5501,-0.004834
17.361,56.5501,-0.004834
17.377,56.5501,-0.003625
17.393,56.5501,-0.002417
17.409,56.5501,-0.001208
17.427,56.5501,-0.001208
17.441,56.5501,0.001208
17.458,56.5501,-0.004834
17.473,56.5501,-0.004834
17.490,56.5501,-0.002417
17.505,56.5501,-0.001208
17.522,56.5501,-0.001208
17.538,56.5501,0.002417
17.559,56.5501,0.002417
17.569,56.5501,0.000000
17.585,56.5501,-0.007251
17.601,56.5501,-0.008459
17.617,56.5501,-0.003625
17.633,56.5501,-0.003625
17.649,56.5501,-0.004834
17.667,56.5501,0.000000
17.682,56.5501,0.000000
17.699,56.5501,-0.003625
17.723,56.5501,-0.002417
17.740,56.5501,-0.003625
17.756,56.5501,0.000000
17.771,56.5501,-0.004834
17.789,56.5501,-0.004834
17.803,56.5501,-0.003625
17.822,56.5501,-0.001208
17.835,56.5501,-0.009668
17.858,56.5501,-0.009668
17.872,56.5501,0.000000
17.884,56.5501,0.000000
17.900,56.5501,-0.004834
17.915,56.5501,-0.007251
17.931,56.5501,-0.003625
17.947,56.5501,-0.006042
17.963,56.5501,-0.003625
17.979,56.5501,-0.003625
17.996,56.5501,-0.001208
18.011,56.5501,-0.001208
18.030,56.5501,-0.004834
18.044,56.5501,-0.008459
18.060,56.5501,-0.004834
18.075,56.5501,-0.001208
18.093,56.5501,-0.003625
18.108,56.5501,-0.008459
18.124,56.5501,-0.004834
18.139,56.5501,-0.004834
18.157,56.5501,0.000000
18.171,56.5501,-0.009668
18.187,56.5501,-0.006042
18.203,56.5501,-0.003625
18.220,56.5501,-0.003625
18.236,56.5501,-0.007251
18.252,56.5501,-0.003625
18.281,56.5501,-0.004834
18.297,56.5501,-0.006042
18.312,56.5501,-0.001208
18.328,56.5501,0.001208
18.345,56.5501,-0.003625
18.361,56.5501,0.001208
18.377,56.5501,-0.007251
18.392,56.5501,-0.003625
18.408,56.5501,-0.004834
18.424,56.5501,-0.004834
18.441,56.5501,-0.007251
18.456,56.5501,-0.003625
18.476,56.5501,-0.003625
18.489,56.5501,-0.007251
18.504,56.5501,-0.007251
18.520,56.5501,-0.003625
18.537,56.5501,0.000000
18.552,56.5501,0.000000
18.568,56.5501,-0.003625
18.584,56.5501,-0.006042
18.600,56.5501,-0.004834
18.616,56.5501,-0.006042
18.632,56.5501,-0.002417
18.648,56.5501,-0.003625
18.665,56.5501,0.002417
18.681,56.5501,0.000000
18.696,56.5501,-0.007251
18.712,56.5501,-0.007251
18.729,56.5501,-0.008459
18.746,56.5501,-0.008459
18.759,56.5501,-0.007251
18.776,56.5501,-0.001208
18.792,56.5501,-0.002417
18.808,56.5501,-0.003625
18.831,56.5501,-0.008459
18.855,56.5501,-0.006042
18.874,56.5501,-0.002417
18.897,56.5501,-0.002417
18.911,56.5501,-0.001208
18.927,56.5501,-0.008459
18.946,56.5501,-0.008459
18.960,56.5501,0.000000
18.975,56.5501,-0.002417
18.991,56.5501,-0.002417
19.010,56.5501,-0.002417
19.023,56.5501,0.001208
19.039,56.5501,-0.008459
19.055,56.5501,-0.003625
19.071,56.5501,-0.003625
19.087,56.5501,-0.002417
19.104,56.5501,-0.003625
19.119,56.5501,-0.004834
19.135,56.5501,-0.004834
19.152,56.5501,-0.002417
19.167,56.5501,-0.001208
19.183,56.5501,0.000000
19.199,56.5501,-0.003625
19.215,56.5501,-0.002417
19.231,56.5501,-0.004834
19.247,56.5501,-0.004834
19.269,56.5501,-0.006042
19.279,56.5501,-0.003625
19.295,56.5501,-0.003625
19.314,56.5501,-0.003625
19.328,56.5501,-0.004834
19.343,56.5501,0.000000
19.359,56.5501,-0.002417
19.388,56.5501,-0.007251
19.404,56.5501,-0.003625
19.420,56.5501,-0.007251
19.435,56.5501,-0.002417
19.452,56.5501,-0.002417
19.468,56.5501,-0.007251
19.484,56.5501,-0.007251
19.501,56.5501,-0.006042
19.516,56.5501,-0.002417
19.533,56.5501,0.001208
19.547,56.5501,-0.004834
19.565,56.5501,-0.004834
19.581,56.5501,-0.001208
19.599,56.5501,-0.001208
19.611,56.5501,-0.001208
19.628,56.5501,-0.007251
19.643,56.5501,-0.007251
19.660,56.5501,-0.003625
19.676,56.5501,-0.002417
19.694,56.5501,-0.002417
19.708,56.5501,-0.007251
19.724,56.5501,-0.006042
19.740,56.5501,0.003625
19.755,56.5501,-0.002417
19.773,56.5501,0.004834
19.787,56.5501,0.002417
19.805,56.5501,-0.002417
19.820,56.5501,-0.004834
19.836,56.5501,-0.003625
19.853,56.5501,-0.002417
19.868,56.5501,-0.004834
19.884,56.5501,-0.004834
19.899,56.5501,-0.002417
19.920,56.5501,0.002417
19.936,56.5501,-0.007251
19.952,56.5501,-0.006042
19.968,56.5501,-0.002417
19.984,56.5501,-0.006042
20.000,56.5501,0.000000
20.017,56.5501,-0.006042
20.032,56.5501,-0.007251
20.056,56.5501,-0.007251
20.066,56.5501,-0.004834
20.080,56.5501,-0.002417
20.096,56.5501,-0.002417
20.113,56.5501,-0.002417
20.128,56.5501,-0.004834
20.145,56.5501,-0.002417
20.160,56.5501,0.000000
20.177,56.5501,-0.006042
20.193,56.5501,-0.006042
20.209,56.5501,-0.001208
20.224,56.5501,-0.002417
20.241,56.5501,-0.007251
20.257,56.5501,0.001208
20.275,56.5501,0.001208
20.288,56.5501,-0.006042
20.304,56.5501,-0.006042
20.320,56.5501,0.000000
20.337,56.5501,-0.002417
20.353,56.5501,-0.001208
20.370,56.5501,-0.002417
20.385,56.5501,-0.004834
20.400,56.5501,0.001208
20.416,56.5501,-0.002417
20.432,56.5501,-0.002417
20.448,56.5501,-0.003625
20.480,56.5501,-0.001208
20.495,56.5501,-0.001208
20.512,56.5501,-0.007251
20.528,56.5501,0.003625
20.544,56.5501,-0.006042
20.559,56.5501,-0.002417
20.576,56.5501,-0.006042
20.591,56.5501,-0.006042
20.608,56.5501,-0.003625
20.623,56.5501,-0.003625
20.641,56.5501,0.001208
20.655,56.5501,0.002417
20.671,56.5501,0.001208
20.687,56.5501,-0.002417
20.705,56.5501,-0.002417
20.721,56.5501,-0.003625
20.735,56.5501,-0.003625
20.751,56.5501,0.001208
20.767,56.5501,-0.001208
20.783,56.5501,0.001208
20.799,56.5501,-0.004834
20.815,56.5501,-0.004834
20.832,56.5501,-0.007251
20.847,56.5501,-0.004834
20.864,56.5501,-0.002417
20.879,56.5501,-0.004834
20.899,56.5501,-0.004834
20.913,56.5501,-0.002417
20.927,56.5501,0.000000
20.943,56.5501,-0.004834
20.959,56.5501,-0.004834
20.975,56.5501,-0.008459
20.991,56.5501,-0.002417
21.007,56.5501,-0.002417
21.023,56.5501,-0.002417
21.039,56.5501,-0.002417
21.055,56.5501,-0.003625
21.070,56.5501,-0.004834
21.088,56.5501,-0.004834
21.103,56.5501,-0.003625
21.121,56.5501,-0.002417
21.134,56.5501,-0.006042
21.151,56.5501,-0.006042
21.167,56.5501,-0.009668
21.182,56.5501,-0.009668
21.199,56.5501,-0.003625
21.215,56.5501,-0.003625
21.231,56.5501,-0.003625
21.247,56.5501,-0.003625
21.263,56.5501,-0.006042
21.281,56.5501,0.000000
21.295,56.5501,-0.001208
21.310,56.5501,-0.004834
21.329,56.5501,-0.006042
21.343,56.5501,-0.003625
21.358,56.5501,-0.002417
21.374,56.5501,-0.003625
21.392,56.5501,-0.002417
21.407,56.5501,0.000000
21.425,56.5501,0.000000
21.441,56.5501,-0.006042
21.455,56.5501,0.001208
21.472,56.5501,0.000000
21.487,56.5501,-0.006042
21.504,56.5501,-0.006042
21.519,56.5501,-0.009668
21.534,56.5501,-0.003625
21.563,56.5501,-0.002417
21.578,56.5501,0.002417
21.594,56.5501,-0.006042
21.610,56.5501,-0.002417
21.627,56.5501,-0.009668
21.642,56.5501,-0.004834
21.659,56.5501,-0.007251
21.675,56.5501,-0.007251
21.692,56.5501,-0.001208
21.706,56.5501,-0.006042
21.726,56.5501,-0.006042
21.739,56.5501,-0.001208
21.754,56.5501,0.000000
21.771,56.5501,-0.002417
21.786,56.5501,-0.003625
21.804,56.5501,-0.001208
21.818,56.5501,-0.001208
21.834,56.5501,-0.002417
21.851,56.5501,-0.002417
21.867,56.5501,-0.004834
21.883,56.5501,-0.001208
21.899,56.5501,0.000000
21.915,56.5501,-0.003625
21.931,56.5501,-0.003625
21.947,56.5501,-0.008459
21.962,56.5501,-0.008459
21.978,56.5501,-0.008459
21.994,56.5501,0.001208
22.012,56.5501,0.001208
22.026,56.5501,-0.003625
22.042,56.5501,-0.002417
22.059,56.5501,-0.004834
22.074,56.5501,-0.002417
22.098,56.5501,0.000000
22.113,56.5501,0.000000
22.129,56.5501,-0.002417
22.145,56.5501,-0.008459
22.166,56.5501,-0.008459
22.178,56.5501,-0.006042
22.193,56.5501,-0.010876
22.212,56.5501,-0.004834
22.227,56.5501,-0.001208
22.242,56.5501,0.000000
22.258,56.5501,-0.004834
22.273,56.5501,-0.006042
22.291,56.5501,-0.002417
22.305,56.5501,-0.003625
22.324,56.5501,-0.003625
22.337,56.5501,-0.004834
22.353,56.5501,-0.004834
22.370,56.5501,-0.002417
22.386,56.5501,-0.006042
22.401,56.5501,-0.002417
22.417,56.5501,-0.006042
22.433,56.5501,-0.003625
22.449,56.5501,-0.004834
22.472,56.5501,0.000000
22.485,56.5501,-0.001208
22.498,56.5501,-0.008459
22.513,56.5501,-0.007251
22.529,56.5501,0.000000
22.545,56.5501,-0.001208
22.561,56.5501,-0.003625
22.577,56.5501,-0.008459
22.593,56.5501,-0.006042
22.610,56.5501,-0.006042
22.626,56.5501,-0.003625
22.654,56.5501,-0.003625
22.670,56.5501,0.000000
22.686,56.5501,-0.003625
22.702,56.5501,0.004834
22.719,56.5501,-0.001208
22.734,56.5501,-0.003625
22.752,56.5501,-0.001208
22.767,56.5501,-0.001208
22.783,56.5501,0.002417
22.798,56.5501,0.001208
22.814,56.5501,-0.001208
22.830,56.5501,-0.010876
22.846,56.5501,-0.006042
22.862,56.5501,-0.004834
22.878,56.5501,-0.003625
22.895,56.5501,-0.003625
22.910,56.5501,0.000000
22.926,56.5501,0.000000
22.943,56.5501,0.000000
22.958,56.5501,-0.006042
22.974,56.5501,-0.004834
22.990,56.5501,0.002417
23.007,56.5501,0.001208
23.023,56.5501,0.001208
23.042,56.5501,0.000000
23.054,56.5501,-0.004834
23.070,56.5501,-0.003625
23.087,56.5501,-0.003625
23.102,56.5501,-0.003625
23.120,56.5501,-0.008459
23.134,56.5501,-0.003625
23.150,56.5501,-0.003625
23.166,56.5501,-0.004834
23.190,56.5501,0.000000
23.205,56.5501,0.000000
23.221,56.5501,-0.001208
23.237,56.5501,-0.003625
23.253,56.5501,-0.003625
23.269,56.5501,-0.007251
23.284,56.5501,0.001208
23.301,56.5501,-0.003625
23.318,56.5501,0.000000
23.333,56.5501,0.000000
23.349,56.5501,0.002417
23.369,56.5501,0.004834
23.382,56.5501,0.002417
23.397,56.5501,-0.007251
23.413,56.5501,-0.002417
23.429,56.5501,-0.003625
23.445,56.5501,-0.004834
23.461,56.5501,-0.001208
23.478,56.5501,-0.003625
23.493,56.5501,-0.006042
23.509,56.5501,0.000000
23.525,56.5501,-0.003625
23.544,56.5501,0.000000
23.557,56.5501,0.000000
23.573,56.5501,-0.002417
23.588,56.5501,-0.007251
23.604,56.5501,-0.007251
23.620,56.5501,-0.001208
23.637,56.5501,-0.004834
23.653,56.5501,-0.002417
23.669,56.5501,-0.002417
23.684,56.5501,-0.002417
23.701,56.5501,-0.002417
23.716,56.5501,-0.001208
23.733,56.5501,-0.004834
23.749,56.5501,-0.003625
23.764,56.5501,-0.001208
23.780,56.5501,-0.002417
23.796,56.5501,-0.006042
23.813,56.5501,-0.002417
23.829,56.5501,-0.003625
23.845,56.5501,0.000000
23.860,56.5501,-0.004834
23.878,56.5501,-0.001208
23.893,56.5501,-0.001208
23.909,56.5501,-0.003625
23.925,56.5501,-0.003625
23.941,56.5501,-0.008459
23.965,56.5501,-0.008459
23.987,56.5501,-0.004834
24.005,56.5501,-0.009668
24.021,56.5501,-0.001208
24.037,56.5501,-0.006042
24.052,56.5501,-0.003625
24.068,56.5501,-0.003625
24.085,56.5501,-0.003625
24.101,56.5501,0.000000
24.116,56.5501,-0.004834
24.133,56.5501,-0.003625
24.149,56.5501,-0.002417
24.165,56.5501,-0.001208
24.180,56.5501,-0.003625
24.196,56.5501,-0.006042
24.213,56.5501,-0.003625
24.228,56.5501,-0.001208
24.251,56.5501,0.000000
24.267,56.5501,-0.008459
24.283,56.5501,-0.007251
24.299,56.5501,-0.009668
24.319,56.5501,-0.009668
24.331,56.5501,-0.002417
24.347,56.5501,-0.001208
24.363,56.5501,-0.002417
24.380,56.5501,0.000000
24.395,56.5501,-0.003625
24.413,56.5501,-0.001208
24.427,56.5501,-0.002417
24.444,56.5501,-0.006042
24.459,56.5501,-0.001208
24.475,56.5501,-0.002417
24.492,56.5501,-0.001208
24.508,56.5501,-0.006042
24.524,56.5501,-0.006042
24.540,56.5501,0.000000
24.556,56.5501,-0.002417
24.571,56.5501,0.002417
24.587,56.5501,-0.003625
24.603,56.5501,-0.003625
24.621,56.5501,-0.003625
24.636,56.5501,0.000000
24.652,56.5501,-0.006042
24.668,56.5501,-0.006042
24.684,56.5501,-0.001208
24.699,56.5501,-0.004834
24.715,56.5501,-0.006042
24.731,56.4845,0.053172
24.748,56.3771,0.067673
24.763,56.2671,-0.004834
24.787,56.1019,-0.018127
24.803,55.9958,-0.018127
24.819,55.8919,-0.001208
24.835,55.7831,-0.009668
24.851,55.6745,-0.012084
24.867,55.5624,-0.002417
24.883,55.4536,-0.006042
24.899,55.3483,-0.002417
24.916,55.2280,0.000000
24.931,55.1267,-0.003625
24.947,55.0220,-0.007251
24.963,54.9140,-0.003625
24.979,54.8032,-0.001208
24.995,54.6904,-0.002417
25.011,54.5851,-0.002417
25.027,54.4743,0.000000
25.044,54.3642,-0.004834
25.059,54.2589,-0.009668
25.075,54.1522,-0.003625
25.093,54.0319,-0.002417
25.107,53.9327,-0.009668
25.126,53.8063,-0.009668
25.139,53.7173,0.001208
25.155,53.6038,0.001208
25.171,53.4950,0.001208
25.187,53.3856,-0.003625
25.204,53.2728,-0.004834
25.219,53.1743,-0.007251
25.237,53.0458,-0.007251
25.252,52.9473,0.000000
25.268,52.8386,0.002417
25.283,52.7400,-0.001208
25.299,52.6306,-0.004834
25.315,52.5219,-0.008459
25.331,52.4118,-0.006042
25.347,52.3051,-0.003625
25.363,52.1977,0.002417
25.379,52.0849,-0.002417
25.395,51.9769,-0.006042
25.412,51.8606,-0.006042
25.427,51.7594,-0.001208
25.443,51.6452,-0.007251
25.459,51.5440,0.000000
25.476,51.4298,0.001208
25.492,51.3190,0.002417
25.508,51.2089,-0.003625
25.523,51.1091,0.000000
25.540,50.9915,-0.004834
25.555,50.8882,-0.004834
25.573,50.7700,0.002417
25.587,50.6667,-0.006042
25.607,50.5382,-0.006042
25.619,50.5001,-0.062839
25.636,50.5001,-0.058005
25.651,50.5001,0.000000
25.667,50.5001,-0.004834
25.683,50.5001,0.009668
25.699,50.5001,0.002417
25.716,50.5001,-0.004834
25.732,50.5001,-0.002417
25.747,50.5001,-0.007251
25.763,50.5001,-0.003625
25.779,50.5001,-0.002417
25.794,50.5001,0.002417
25.810,50.5001,-0.003625
25.840,50.5001,0.001208
25.855,50.5001,-0.003625
25.872,50.5001,-0.004834
25.887,50.5001,-0.002417
25.904,50.5001,-0.001208
25.920,50.5001,0.000000
25.936,50.5001,-0.004834
25.952,50.5001,-0.004834
25.968,50.5001,-0.004834
25.984,50.5001,-0.004834
25.999,50.5001,-0.004834
26.016,50.5555,-0.097884
26.032,50.6622,-0.009668
26.047,50.7689,-0.009668
26.064,50.8845,-0.013293
26.080,50.9945,-0.007251
26.100,51.1257,-0.006042
26.111,51.2032,-0.002417
26.128,51.3194,-0.003625
26.143,51.4212,-0.010876
26.159,51.5300,-0.002417
26.177,51.6476,-0.006042
26.192,51.7542,-0.003625
26.208,51.8575,-0.007251
26.223,51.9630,0.000000
26.240,52.0812,-0.003625
26.256,52.1845,-0.003625
26.271,52.2911,-0.008459
26.287,52.3999,-0.008459
26.305,52.5195,-0.008459
26.320,52.6173,0.000000
26.335,52.7247,0.000000
26.351,52.8409,-0.003625
26.374,52.9911,0.000000
26.390,53.0978,-0.008459
26.406,53.2085,-0.003625
26.422,53.3153,-0.004834
26.438,53.4247,-0.004834
26.454,53.5348,-0.006042
26.471,53.6462,-0.001208
26.490,53.7753,-0.006042
26.502,53.8597,-0.002417
26.518,53.9677,0.001208
26.534,54.0757,-0.003625
26.550,54.1851,-0.006042
26.566,54.2925,-0.007251
26.582,54.4019,-0.003625
26.600,54.5229,-0.002417
26.615,54.6255,-0.002417
26.631,54.7308,-0.006042
26.647,54.8409,-0.007251
26.663,54.9558,-0.007251
26.679,55.0611,-0.002417
26.694,55.1630,-0.002417
26.710,55.2718,-0.003625
26.727,55.3859,-0.004834
26.742,55.4886,-0.004834
26.762,55.6231,0.001208
26.774,55.7054,-0.006042
26.790,55.8181,-0.001208
26.806,55.9228,0.000000
26.824,56.0438,-0.001208
26.839,56.1511,-0.007251
26.854,56.2503,-0.006042
26.870,56.3591,-0.006042
26.886,56.4679,-0.001208
26.915,56.5001,0.043504
26.930,56.5001,0.003625
26.946,56.5001,0.000000
26.962,56.5001,-0.009668
26.979,56.5001,-0.007251
26.995,56.5001,-0.006042
27.010,56.5001,0.001208
27.026,56.5001,0.001208
27.044,56.5001,0.001208
27.058,56.5001,0.001208
27.076,56.5001,0.001208
27.090,56.5001,-0.002417
27.107,56.5001,-0.001208
27.122,56.5001,0.001208
27.138,56.5001,0.000000
27.155,56.5001,0.004834
27.170,56.5001,-0.004834
27.189,56.5001,-0.007251
27.202,56.5001,-0.007251
27.218,56.5001,0.000000
27.234,56.5001,-0.002417
27.252,56.5001,-0.002417
27.266,56.5001,0.002417
27.283,56.5001,-0.004834
27.298,56.5001,-0.006042
27.315,56.5001,-0.012084
27.330,56.5001,-0.008459
27.346,56.5001,0.000000
27.362,56.5001,0.001208
27.379,56.5001,-0.003625
27.394,56.5001,-0.006042
27.410,56.5001,-0.004834
27.441,56.5001,-0.003625
27.457,56.5001,-0.006042
27.473,56.5001,-0.006042
27.489,56.5001,-0.001208
27.505,56.5001,0.000000
27.522,56.5001,0.000000
27.539,56.5001,-0.008459
27.553,56.5001,-0.007251
27.569,56.5001,-0.004834
27.585,56.5001,-0.004834
27.601,56.5001,0.000000
27.618,56.5001,-0.006042
27.633,56.5001,-0.009668
27.649,56.5001,-0.004834
27.665,56.5001,-0.004834
27.682,56.5001,-0.001208
27.698,56.5001,0.000000
27.713,56.5001,0.000000
27.729,56.5001,-0.004834
27.745,56.5001,-0.009668
27.761,56.5001,-0.004834
27.777,56.5001,-0.003625
27.793,56.5001,-0.004834
27.810,56.5001,-0.001208
27.825,56.5001,-0.003625
27.841,56.5001,-0.007251
27.857,56.5001,0.000000
27.873,56.5001,-0.006042
27.889,56.5001,-0.009668
27.906,56.5001,-0.006042
27.921,56.5001,0.000000
27.937,56.5001,0.001208
27.953,56.5001,0.001208
27.972,56.5001,-0.008459
27.996,56.5001,-0.008459
28.011,56.5001,-0.003625
28.028,56.5001,-0.008459
28.043,56.5001,-0.002417
28.060,56.5001,0.000000
28.076,56.5001,-0.008459
28.095,56.5001,-0.008459
28.107,56.5001,0.002417
28.123,56.5001,0.003625
28.139,56.5001,-0.004834
28.155,56.5001,-0.008459
28.174,56.5001,-0.007251
28.187,56.5001,-0.002417
28.204,56.5001,-0.002417
28.220,56.5001,-0.004834
28.237,56.5001,-0.002417
28.252,56.5001,-0.007251
28.267,56.5001,-0.002417
28.286,56.5001,-0.002417
28.300,56.5001,-0.001208
28.315,56.5001,-0.004834
28.331,56.5001,-0.003625
28.348,56.5001,-0.007251
28.365,56.5001,-0.007251
28.379,56.5001,0.004834
28.395,56.5001,-0.003625
28.411,56.5001,-0.004834
28.428,56.5001,-0.004834
28.443,56.5001,-0.004834
28.460,56.5001,-0.004834
28.476,56.5001,-0.002417
28.492,56.5001,0.000000
28.519,56.5001,-0.001208
28.535,56.5001,-0.008459
28.552,56.5001,-0.001208
28.567,56.5001,-0.003625
28.583,56.5001,-0.003625
28.599,56.5001,0.000000
28.616,56.5001,-0.001208
28.631,56.5001,-0.001208
28.649,56.5001,-0.008459
28.663,56.5001,-0.006042
28.680,56.5001,-0.002417
28.695,56.5001,0.000000
28.711,56.5001,-0.002417
28.727,56.5001,-0.001208
28.743,56.5001,-0.001208
28.761,56.5001,-0.002417
28.777,56.5001,-0.002417
28.792,56.5001,0.000000
28.807,56.5001,-0.003625
28.824,56.5001,-0.001208
28.840,56.5001,0.002417
28.857,56.5001,-0.001208
28.871,56.5001,-0.001208
28.887,56.5001,-0.002417
28.903,56.5001,-0.001208
28.919,56.5001,0.002417
28.936,56.5001,0.000000
28.952,56.5001,0.000000
28.967,56.5001,-0.004834
28.983,56.5001,-0.006042
29.000,56.5001,-0.007251
29.016,56.5001,-0.001208
29.035,56.5001,-0.004834
29.059,56.5001,-0.003625
29.075,56.5001,-0.008459
29.091,56.5001,-0.002417
29.107,56.5001,-0.009668
29.123,56.5001,-0.008459
29.139,56.5001,-0.003625
29.156,56.5001,0.000000
29.172,56.5001,0.000000
29.188,56.5001,-0.006042
29.203,56.5001,-0.006042
29.219,56.5001,-0.001208
29.235,56.5001,-0.007251
29.251,56.5001,-0.007251
29.267,56.5001,-0.012084
29.283,56.5001,-0.004834
29.299,56.5001,-0.006042
29.315,56.5001,-0.003625
29.331,56.5001,-0.007251
29.348,56.5001,-0.004834
29.364,56.5001,0.001208
29.379,56.5001,-0.004834
29.395,56.5001,-0.001208
29.412,56.5001,-0.003625
29.428,56.5001,-0.009668
29.444,56.5001,-0.009668
29.459,56.5001,-0.002417
29.476,56.5001,0.000000
29.492,56.5001,0.001208
29.510,56.5001,-0.006042
29.523,56.5001,-0.009668
29.539,56.5001,-0.004834
29.556,56.5001,0.000000
29.572,56.5001,-0.004834
29.597,56.5001,0.001208
29.613,56.5001,0.000000
29.629,56.5001,-0.007251
29.645,56.5001,-0.007251
29.662,56.5001,-0.008459
29.677,56.5001,-0.004834
29.696,56.5001,-0.004834
29.711,56.5001,-0.003625
29.725,56.5001,-0.004834
29.741,56.5001,-0.002417
29.757,56.5001,-0.008459
29.773,56.5001,-0.004834
29.789,56.5001,-0.008459
29.806,56.5001,0.000000
29.822,56.5001,0.000000
29.837,56.5001,-0.001208
29.856,56.5001,-0.007251
29.870,56.5001,-0.003625
29.885,56.5001,-0.001208
29.901,56.5001,-0.007251
29.917,56.5001,-0.004834
29.933,56.5001,-0.006042
29.949,56.5001,-0.004834
29.966,56.5001,-0.007251
29.981,56.5001,-0.004834
29.998,56.5001,-0.003625
30.013,56.5001,-0.006042
30.029,56.5001,-0.001208
30.045,56.5001,-0.001208
30.061,56.5001,-0.008459
30.080,56.5001,0.000000
30.093,56.5001,-0.007251
30.124,56.5001,-0.001208
30.140,56.5001,-0.008459
30.155,56.5001,-0.001208
30.172,56.5001,-0.001208
30.188,56.5001,-0.007251
30.204,56.5001,-0.004834
30.219,56.5001,-0.007251
30.237,56.5001,-0.008459
30.251,56.5001,-0.006042
30.268,56.5001,0.000000
30.283,56.5001,0.000000
30.300,56.5001,0.001208
30.316,56.5001,-0.003625
30.332,56.5001,-0.007251
30.347,56.5001,-0.004834
30.363,56.5001,-0.004834
30.379,56.5001,-0.006042
30.395,56.5001,0.002417
30.413,56.5001,0.002417
30.428,56.5001,-0.006042
30.445,56.5001,-0.001208
30.459,56.5001,-0.006042
30.476,56.5001,-0.003625
30.492,56.5001,0.001208
30.508,56.5001,-0.009668
30.523,56.5001,-0.010876
30.540,56.5001,-0.008459
30.555,56.5001,-0.006042
30.572,56.5001,-0.006042
30.587,56.5001,0.002417
30.603,56.5001,-0.002417
30.620,56.5001,-0.008459
30.635,56.5001,-0.007251
30.659,56.5001,-0.008459
30.675,56.5001,-0.004834
30.690,56.5001,-0.001208
30.706,56.5001,0.001208
30.723,56.5001,0.001208
30.739,56.5001,-0.002417
30.756,56.5001,-0.002417
30.770,56.5001,-0.004834
30.786,56.5001,0.000000
30.802,56.5001,0.002417
30.818,56.5001,0.001208
30.836,56.5001,-0.002417
30.850,56.5001,-0.001208
30.866,56.5001,-0.003625
30.882,56.5001,-0.007251
30.899,56.5001,-0.001208
30.914,56.5001,-0.006042
30.930,56.5001,-0.002417
30.946,56.5001,-0.007251
30.964,56.5001,-0.007251
30.978,56.5001,-0.004834
30.995,56.5001,-0.002417
31.010,56.5001,0.000000
31.027,56.5001,0.002417
31.042,56.5001,-0.007251
31.058,56.5001,-0.008459
31.075,56.5001,-0.002417
31.090,56.5001,-0.006042
31.106,56.5001,-0.006042
31.122,56.5001,0.003625
31.139,56.5001,-0.002417
31.154,56.5001,0.001208
31.171,56.5001,0.002417
31.195,56.5001,-0.004834
31.211,56.5001,-0.006042
31.227,56.5001,-0.007251
31.243,56.5001,-0.007251
31.260,56.5001,-0.006042
31.277,56.5001,-0.002417
31.296,56.5001,-0.002417
31.307,56.5001,-0.004834
31.324,56.5001,-0.001208
31.339,56.5001,-0.009668
31.356,56.5001,-0.009668
31.371,56.5001,-0.002417
31.387,56.5001,-0.004834
31.403,56.5001,-0.003625
31.419,56.5001,-0.007251
31.435,56.5001,0.001208
31.451,56.5001,0.001208
31.468,56.5001,-0.010876
31.483,56.5001,-0.002417
31.502,56.5001,0.001208
31.515,56.5001,-0.003625
31.531,56.5001,-0.006042
31.547,56.5001,-0.004834
31.564,56.5001,-0.003625
31.579,56.5001,-0.006042
31.595,56.5001,-0.002417
31.611,56.5001,0.002417
31.627,56.5001,0.001208
31.643,56.5001,-0.001208
31.660,56.5001,-0.003625
31.675,56.5001,-0.006042
31.692,56.5001,-0.002417
31.707,56.5001,-0.003625
31.726,56.5001,0.002417
31.750,56.5001,-0.002417
31.766,56.5001,-0.007251
31.782,56.5001,-0.003625
31.798,56.5001,0.000000
31.815,56.5001,0.000000
31.830,56.5001,-0.002417
31.846,56.5001,0.000000
31.862,56.5001,0.001208
31.878,56.5001,-0.008459
31.894,56.5001,-0.008459
31.910,56.5001,0.000000
31.926,56.5001,0.000000
31.942,56.5001,0.000000
31.958,56.5001,-0.007251
31.973,56.5001,-0.007251
31.990,56.5001,-0.001208
32.012,56.5001,0.000000
32.036,56.5001,-0.008459
32.053,56.5001,-0.010876
32.069,56.5001,-0.003625
32.085,56.5001,0.000000
32.101,56.5001,0.000000
32.117,56.5001,-0.004834
32.134,56.5001,0.003625
32.149,56.5001,0.001208
32.166,56.5001,0.003625
32.183,56.5001,-0.003625
32.198,56.5001,-0.007251
32.214,56.5001,-0.006042
32.230,56.5001,-0.006042
32.246,56.5001,0.000000
32.261,56.5001,0.000000
32.280,56.5001,-0.006042
32.303,56.5001,-0.006042
32.320,56.5001,-0.006042
32.335,56.5001,-0.002417
32.351,56.5001,-0.002417
32.367,56.5001,-0.003625
32.383,56.5001,-0.003625
32.400,56.5001,-0.001208
32.417,56.5001,0.000000
32.432,56.5001,-0.002417
32.448,56.5001,-0.003625
32.463,56.5001,-0.003625
32.479,56.5001,0.000000
32.495,56.5001,-0.001208
32.511,56.5001,-0.001208
32.528,56.5001,-0.003625
32.544,56.5001,-0.010876
32.559,56.5001,-0.002417
32.575,56.5001,-0.003625
32.593,56.5001,-0.007251
32.608,56.5001,-0.008459
32.623,56.5001,-0.001208
32.639,56.5001,0.000000
32.658,56.5001,0.000000
32.673,56.5001,-0.002417
32.687,56.5001,-0.003625
32.706,56.5001,-0.004834
32.721,56.5001,-0.004834
32.736,56.5001,-0.006042
32.754,56.5001,-0.006042
32.770,56.5001,-0.003625
32.784,56.5001,-0.004834
32.800,56.5001,-0.004834
32.830,56.5001,0.000000
32.845,56.5001,0.000000
32.861,56.5001,-0.002417
32.877,56.5001,-0.004834
32.894,56.5001,-0.004834
32.909,56.5001,0.000000
32.925,56.5001,-0.008459
32.943,56.5001,-0.003625
32.958,56.5001,0.000000
32.973,56.5001,0.000000
32.989,56.5001,-0.009668
33.005,56.5001,-0.009668
33.022,56.5001,0.003625
33.037,56.5001,0.000000
33.053,56.5001,0.002417
33.069,56.5001,0.001208
33.085,56.5001,-0.006042
33.101,56.5001,-0.004834
33.118,56.5001,-0.003625
33.134,56.5001,-0.001208
33.149,56.5001,0.001208
33.166,56.5001,0.001208
33.181,56.5001,-0.003625
33.197,56.5001,-0.004834
33.213,56.5001,-0.004834
33.229,56.5001,0.000000
33.245,56.5001,0.000000
33.264,56.5001,-0.006042
33.277,56.5001,0.000000
33.293,56.5001,0.000000
33.309,56.5001,0.003625
33.324,56.5001,-0.007251
33.351,56.5001,-0.003625
33.366,56.5001,-0.002417
33.382,56.5001,-0.001208
33.398,56.5001,-0.002417
33.415,56.5001,-0.002417
33.431,56.5001,-0.001208
33.446,56.5001,-0.001208
33.462,56.5001,-0.008459
33.478,56.5001,-0.002417
33.494,56.5001,-0.001208
33.510,56.5001,0.004834
33.526,56.5001,-0.004834
33.542,56.5001,-0.004834
33.558,56.5001,-0.004834
33.574,56.5001,-0.003625
33.591,56.5001,-0.004834
33.614,56.5001,-0.002417
33.637,56.5001,0.001208
33.655,56.5001,-0.003625
33.670,56.5001,-0.007251
33.686,56.5001,-0.007251
33.702,56.5001,-0.007251
33.719,56.5001,0.002417
33.734,56.5001,0.004834
33.750,56.5001,-0.003625
33.766,56.5001,-0.008459
33.783,56.5001,-0.008459
33.798,56.5001,-0.003625
33.814,56.5001,-0.002417
33.830,56.5001,-0.002417
33.846,56.5001,-0.006042
33.862,56.5001,-0.004834
33.878,56.5001,-0.002417
33.901,56.5001,-0.008459
33.917,56.5001,-0.002417
33.933,56.5001,0.001208
33.948,56.5001,0.000000
33.966,56.5001,0.003625
33.981,56.5001,-0.002417
33.997,56.5001,-0.010876
34.012,56.5001,-0.001208
34.029,56.5001,-0.006042
34.044,56.5001,0.000000
34.060,56.5001,0.003625
34.078,56.5001,-0.001208
34.092,56.5001,-0.006042
34.108,56.5001,-0.002417
34.125,56.5001,0.001208
34.142,56.5001,0.001208
34.158,56.5001,0.000000
34.173,56.5001,0.000000
34.189,56.5001,-0.001208
34.205,56.5001,0.000000
34.221,56.5001,0.000000
34.238,56.5001,-0.008459
34.252,56.5001,-0.008459
34.268,56.5001,-0.004834
34.284,56.5001,-0.004834
34.300,56.5001,0.000000
34.324,56.5001,-0.001208
34.348,56.5001,-0.008459
34.365,56.5001,0.000000
34.382,56.5001,0.000000
34.397,56.5001,0.001208
34.412,56.5001,-0.008459
34.428,56.5001,-0.001208
34.444,56.5001,-0.007251
34.461,56.5001,-0.009668
34.476,56.5001,-0.008459
34.492,56.5001,-0.003625
34.509,56.5001,-0.002417
34.525,56.5001,-0.002417
34.540,56.5001,-0.008459
34.556,56.5001,-0.003625
34.574,56.5001,-0.007251
34.589,56.5001,-0.006042
34.607,56.5001,0.000000
34.620,56.5001,-0.001208
34.636,56.5001,-0.004834
34.652,56.5001,-0.010876
34.668,56.5001,-0.006042
34.686,56.5001,-0.004834
34.701,56.5001,-0.004834
34.717,56.5001,-0.002417
34.732,56.5001,-0.002417
34.749,56.5001,0.001208
34.765,56.5001,-0.001208
34.781,56.5001,-0.008459
34.796,56.5001,-0.006042
34.812,56.5001,-0.004834
34.828,56.5001,-0.002417
34.844,56.5001,-0.002417
34.861,56.5001,-0.001208
34.877,56.5001,0.000000
34.893,56.5001,0.000000
34.908,56.5001,-0.003625
34.925,56.5001,-0.003625
34.941,56.5001,-0.003625
34.958,56.5001,0.001208
34.982,56.5001,-0.003625
34.998,56.5001,-0.004834
35.014,56.5001,-0.007251
35.030,56.5001,-0.006042
35.046,56.5001,-0.008459
35.063,56.5001,-0.008459
35.082,56.5001,-0.001208
35.094,56.5001,0.000000
35.110,56.5001,0.001208
35.126,56.5001,0.000000
35.142,56.5001,-0.001208
35.158,56.5001,0.000000
35.174,56.5001,0.000000
35.190,56.5001,-0.003625
35.206,56.5001,-0.001208
35.230,56.5001,0.001208
35.254,56.5001,-0.002417
35.272,56.5001,-0.001208
35.286,56.5001,-0.001208
35.302,56.5001,-0.001208
35.319,56.5001,0.000000
35.334,56.5001,-0.001208
35.350,56.5001,-0.002417
35.366,56.5001,-0.007251
35.382,56.5001,0.001208
35.398,56.5001,-0.002417
35.414,56.5001,-0.002417
35.430,56.5001,-0.002417
35.446,56.5001,-0.006042
35.462,56.5001,-0.007251
35.479,56.5001,-0.003625
35.494,56.5001,0.000000
35.513,56.5001,0.000000
35.538,56.5001,0.000000
35.553,56.5001,-0.004834
35.569,56.5001,0.000000
35.585,56.5001,0.000000
35.602,56.5001,-0.004834
35.617,56.5001,-0.001208
35.634,56.5001,-0.001208
35.649,56.5001,-0.008459
35.667,56.5001,-0.007251
35.681,56.5001,-0.004834
35.697,56.5001,-0.007251
35.714,56.5001,-0.004834
35.729,56.5001,0.001208
35.745,56.5001,0.004834
35.760,56.5001,-0.001208
35.777,56.5001,-0.009668
35.793,56.5001,-0.002417
35.809,56.5001,-0.001208
35.826,56.5001,-0.001208
35.842,56.5001,0.002417
35.857,56.5001,0.001208
35.873,56.5001,0.000000
35.890,56.5001,-0.006042
35.905,56.5001,-0.008459
35.921,56.5001,-0.008459
35.937,56.5001,-0.008459
35.953,56.5001,-0.001208
35.969,56.5001,0.001208
35.985,56.5001,-0.001208
36.002,56.5001,0.000000
36.017,56.5001,-0.006042
36.036,56.5001,-0.003625
36.060,56.5001,-0.006042
36.076,56.5001,0.000000
36.091,56.5001,0.001208
36.107,56.5001,-0.001208
36.125,56.5001,-0.001208
36.140,56.5001,0.001208
36.158,56.5001,0.003625
36.172,56.5001,-0.001208
36.188,56.5001,0.006042
36.204,56.5001,-0.004834
36.219,56.5001,-0.006042
36.237,56.5001,-0.004834
36.252,56.5001,-0.004834
36.268,56.5001,0.000000
36.284,56.5001,-0.002417
36.301,56.5001,0.007251
36.316,56.5001,0.001208
36.331,56.5001,-0.007251
36.348,56.5001,-0.003625
36.363,56.5001,-0.003625
36.379,56.5001,-0.006042
36.396,56.5001,-0.003625
36.411,56.5001,0.006042
36.427,56.5001,-0.003625
36.443,56.5001,-0.003625
36.461,56.5001,-0.002417
36.476,56.5001,-0.001208
36.492,56.5001,0.001208
36.507,56.5001,-0.003625
36.525,56.5001,-0.003625
36.539,56.5001,-0.004834
36.558,56.5001,-0.004834
36.583,56.5001,-0.006042
36.598,56.5001,-0.001208
36.614,56.5001,-0.001208
36.628,56.5001,-0.004834
36.647,56.5001,-0.001208
36.662,56.5001,-0.007251
36.678,56.5001,0.001208
36.693,56.5001,0.003625
36.710,56.5001,-0.002417
36.725,56.5001,-0.004834
36.744,56.5001,-0.004834
36.757,56.5001,-0.003625
36.773,56.5001,-0.009668
36.790,56.5001,-0.004834
36.805,56.5001,-0.002417
36.824,56.5001,-0.003625
36.838,56.5001,0.000000
36.853,56.5001,-0.002417
36.869,56.5001,-0.010876
36.886,56.5001,-0.007251
36.902,56.5001,-0.003625
36.917,56.5001,0.000000
36.935,56.5001,-0.004834
36.950,56.5001,-0.001208
36.966,56.5001,-0.003625
36.981,56.5001,-0.001208
36.999,56.5001,0.003625
37.013,56.5001,0.000000
37.030,56.5001,-0.007251
37.045,56.5001,-0.004834
37.063,56.5001,-0.006042
37.078,56.5001,-0.001208
37.095,56.5001,0.000000
37.120,56.5001,-0.002417
37.137,56.5001,0.001208
37.151,56.5001,0.001208
37.167,56.5001,0.001208
37.183,56.5001,-0.004834
37.199,56.5001,-0.008459
37.215,56.5001,-0.001208
37.232,56.5001,-0.001208
37.249,56.5001,-0.007251
37.263,56.5001,-0.003625
37.282,56.5001,-0.001208
37.295,56.5001,-0.007251
37.311,56.5001,-0.002417
37.327,56.5001,-0.001208
37.343,56.5001,-0.001208
37.359,56.5001,-0.007251
37.375,56.5001,-0.007251
37.391,56.5001,-0.002417
37.407,56.5001,-0.009668
37.423,56.5001,-0.003625
37.439,56.5001,-0.004834
37.455,56.5001,-0.004834
37.471,56.5001,0.001208
37.488,56.5001,-0.002417
37.503,56.5001,-0.002417
37.519,56.5001,-0.006042
37.535,56.5001,-0.006042
37.553,56.5001,0.000000
37.567,56.5001,-0.006042
37.583,56.5001,-0.002417
37.599,56.5001,-0.001208
37.618,56.5001,-0.001208
37.631,56.5001,-0.004834
37.647,56.5001,-0.004834
37.663,56.5001,-0.008459
37.687,56.5001,-0.006042
37.702,56.5001,-0.001208
37.718,56.5001,0.001208
37.734,56.5001,0.001208
37.757,56.5001,0.001208
37.767,56.5001,-0.006042
37.782,56.5001,-0.006042
37.798,56.5001,-0.003625
37.815,56.5001,-0.003625
37.830,56.5001,-0.001208
37.846,56.5001,-0.002417
37.862,56.5001,0.002417
37.878,56.5001,-0.001208
37.894,56.5001,-0.003625
37.910,56.5001,0.001208
37.929,56.5001,0.003625
37.942,56.5001,0.003625
37.958,56.5001,0.001208
37.974,56.5001,0.001208
37.990,56.5001,-0.003625
38.006,56.5001,-0.009668
38.023,56.5001,-0.009668
38.038,56.5001,-0.002417
38.054,56.5001,-0.002417
38.073,56.5001,-0.002417
38.086,56.5001,-0.004834
38.102,56.5001,-0.004834
38.118,56.5001,-0.007251
38.134,56.5001,-0.007251
38.150,56.5001,-0.002417
38.166,56.5001,-0.003625
38.182,56.5001,-0.003625
38.197,56.5001,-0.002417
38.220,56.5001,-0.008459
38.236,56.5001,-0.003625
38.253,56.5001,-0.003625
38.269,56.5001,-0.004834
38.285,56.4706,-0.004834
38.300,56.3665,0.060422
38.319,56.2374,-0.021752
38.333,56.1498,0.004834
38.349,56.0349,-0.009668
38.365,55.9302,-0.009668
38.381,55.8181,-0.013293
38.397,55.7067,-0.006042
38.413,55.6027,-0.006042
38.429,55.4927,-0.003625
38.444,55.3894,-0.003625
38.461,55.2772,-0.004834
38.477,55.1685,0.001208
38.492,55.0611,-0.003625
38.508,54.9537,-0.001208
38.524,54.8402,-0.006042
38.541,54.7275,0.001208
38.556,54.6275,-0.009668
38.572,54.5188,-0.003625
38.589,54.4060,-0.002417
38.604,54.3020,-0.008459
38.621,54.1837,-0.004834
38.636,54.0839,-0.004834
38.654,53.9575,-0.001208
38.670,53.8548,0.001208
38.684,53.7563,-0.003625
38.703,53.6224,-0.003625
38.717,53.5300,-0.006042
38.733,53.4281,0.002417
38.750,53.3099,-0.006042
38.773,53.1528,-0.004834
38.789,53.0441,0.002417
38.805,52.9347,0.000000
38.821,52.8280,-0.007251
38.837,52.7132,0.000000
38.853,52.6105,-0.004834
38.870,52.4956,0.001208
38.885,52.3923,-0.004834
38.902,52.2755,-0.004834
38.918,52.1736,-0.002417
38.934,52.0587,-0.004834
38.949,51.9581,-0.004834
38.965,51.8460,-0.006042
38.983,51.7312,0.000000
38.998,51.6259,-0.001208
39.013,51.5239,-0.004834
39.030,51.3954,-0.007251
39.046,51.2997,-0.003625
39.064,51.1814,-0.003625
39.077,51.0896,-0.001208
39.093,50.9734,-0.004834
39.109,50.8716,-0.006042
39.125,50.7634,-0.002417
39.145,50.6235,-0.002417
39.160,50.5296,-0.003625
39.174,50.4505,-0.002417
39.190,50.4500,-0.041087
39.206,50.4500,0.013293
39.221,50.4500,-0.003625
39.237,50.4500,-0.004834
39.253,50.4500,-0.007251
39.270,50.4500,0.000000
39.287,50.4500,-0.004834
39.302,50.4500,0.001208
39.330,50.4500,-0.002417
39.344,50.4500,-0.009668
39.360,50.4500,-0.010876
39.376,50.4500,-0.004834
39.392,50.4500,-0.004834
39.408,50.4500,0.000000
39.424,50.4500,0.000000
39.441,50.4500,0.000000
39.457,50.4500,-0.001208
39.472,50.4500,0.000000
39.488,50.4500,-0.003625
39.506,50.4500,-0.003625
39.520,50.4500,-0.012084
39.536,50.4500,-0.004834
39.553,50.4599,-0.010876
39.569,50.5611,-0.073715
39.584,50.6672,-0.073715
39.600,50.7725,-0.001208
39.616,50.8894,0.016918
39.632,50.9912,0.016918
39.650,51.1102,-0.001208
39.664,51.2074,-0.003625
39.680,51.3223,0.001208
39.696,51.4269,-0.006042
39.712,51.5377,-0.006042
39.730,51.6580,0.000000
39.744,51.7537,-0.001208
39.760,51.8646,-0.004834
39.776,51.9672,-0.004834
39.800,52.1323,0.000000
39.811,52.2084,-0.002417
39.825,52.3029,-0.002417
39.841,52.4123,0.001208
39.856,52.5156,0.004834
39.879,52.6685,-0.001208
39.895,52.7752,-0.001208
39.911,52.8873,-0.002417
39.927,52.9940,-0.010876
39.943,53.1035,-0.010876
39.959,53.2142,0.001208
39.976,53.3250,0.003625
39.992,53.4412,-0.002417
40.006,53.5369,-0.002417
40.023,53.6444,-0.006042
40.039,53.7537,0.001208
40.058,53.8959,0.003625
40.071,53.9781,0.000000
40.087,54.0799,-0.004834
40.103,54.1887,-0.001208
40.119,54.3022,-0.002417
40.135,54.4068,-0.002417
40.151,54.5156,-0.003625
40.167,54.6311,-0.004834
40.183,54.7365,-0.004834
40.200,54.8513,-0.003625
40.214,54.9498,-0.004834
40.231,55.0640,-0.001208
40.247,55.1741,-0.004834
40.266,55.3019,-0.004834
40.278,55.3842,0.000000
40.295,55.4990,-0.006042
40.311,55.6008,-0.003625
40.328,55.7178,-0.007251
40.343,55.8190,-0.002417
40.358,55.9291,-0.004834
40.375,56.0379,-0.004834
40.390,56.1445,-0.004834
40.412,56.2934,-0.003625
40.427,56.3973,0.002417
40.443,56.4500,0.027794
40.459,56.4500,-0.010876
40.476,56.4500,-0.006042
40.492,56.4500,-0.006042
40.509,56.4500,-0.016918
40.524,56.4500,-0.008459
40.540,56.4500,-0.003625
40.556,56.4500,-0.010876
40.573,56.4500,-0.010876
40.588,56.4500,-0.002417
40.604,56.4500,-0.002417
40.619,56.4500,-0.008459
40.637,56.4500,-0.007251
40.652,56.4500,-0.001208
40.668,56.4500,0.000000
40.685,56.4500,-0.002417
