Elapsed Time (s),Position (mm),Force (N)
-0.018,64.1000,-0.001208
0.000,64.1000,-0.003625
0.015,64.1000,-0.001208
0.032,64.1000,0.001208
0.047,64.1000,0.001208
0.062,64.1000,0.001208
0.083,64.1000,0.001208
0.094,64.1000,-0.002417
0.111,64.1000,-0.003625
0.127,64.1000,-0.006042
0.142,64.1000,0.002417
0.164,64.1000,-0.002417
0.176,64.1000,-0.002417
0.190,64.1000,-0.003625
0.206,64.1000,-0.002417
0.222,64.1000,-0.007251
0.238,64.1000,-0.004834
0.255,64.1000,-0.006042
0.271,64.1000,-0.002417
0.287,64.1000,0.001208
0.303,64.1000,-0.002417
0.325,64.1000,-0.006042
0.335,64.1000,-0.002417
0.350,64.1000,-0.002417
0.366,64.1000,-0.002417
0.382,64.1000,0.001208
0.399,64.1000,0.004834
0.415,64.1000,0.004834
0.432,64.1000,-0.001208
0.457,64.1000,0.000000
0.472,64.1000,-0.002417
0.488,64.1000,-0.003625
0.504,64.1000,-0.008459
0.520,64.1000,-0.008459
0.536,64.1000,0.002417
0.556,64.1000,-0.001208
0.568,64.1000,0.000000
0.593,64.1000,-0.004834
0.606,64.1000,-0.007251
0.622,64.1000,-0.007251
0.633,64.1000,-0.002417
0.648,64.1000,-0.002417
0.664,64.1000,-0.001208
0.680,64.1000,0.002417
0.696,64.1000,0.002417
0.712,64.1000,-0.001208
0.734,64.1000,-0.001208
0.744,64.1000,0.000000
0.760,64.1000,-0.004834
0.776,64.1000,-0.008459
0.792,64.1000,-0.006042
0.810,64.1000,-0.006042
0.825,64.1000,-0.001208
0.841,64.1000,0.000000
0.856,64.1000,0.001208
0.873,64.1000,0.000000
0.888,64.1000,-0.001208
0.904,64.1000,0.001208
0.920,64.1000,-0.002417
0.938,64.1000,-0.003625
0.952,64.1000,0.002417
0.968,64.1000,-0.001208
0.984,64.1000,-0.003625
1.007,64.1000,0.001208
1.023,64.1000,-0.004834
1.038,64.1000,-0.002417
1.057,64.1000,-0.002417
1.070,64.1000,-0.004834
1.087,64.1000,-0.004834
1.102,64.1000,0.004834
1.118,64.1000,-0.001208
1.134,64.1000,0.006042
1.150,64.1000,0.007251
1.167,64.1000,0.007251
1.182,64.1000,-0.002417
1.198,64.1000,-0.002417
1.222,64.1000,0.003625
1.239,64.1000,0.000000
1.255,64.1000,0.002417
1.270,64.1000,-0.006042
1.284,64.1000,-0.007251
1.294,64.1000,0.001208
1.309,64.1000,-0.006042
1.326,64.1000,-0.006042
1.345,64.1000,-0.004834
1.358,64.1000,-0.004834
1.374,64.1000,0.003625
1.390,64.1000,0.000000
1.406,64.1000,-0.004834
1.423,64.1000,-0.008459
1.438,64.1000,-0.004834
1.454,64.1000,0.000000
1.470,64.1000,0.001208
1.487,64.1000,-0.002417
1.510,64.1000,-0.002417
1.532,64.1000,-0.001208
1.550,64.1000,0.000000
1.565,64.1000,0.002417
1.581,64.1000,0.000000
1.598,64.1000,0.000000
1.613,64.1000,0.000000
1.633,64.1000,0.000000
1.646,64.1000,0.000000
1.663,64.1000,-0.004834
1.678,64.1000,-0.006042
1.694,64.1000,0.001208
1.712,64.1000,0.001208
1.726,64.1000,0.001208
1.742,64.1000,0.000000
1.757,64.1000,0.002417
1.775,64.1000,-0.002417
1.790,64.1000,-0.001208
1.809,64.1000,0.000000
1.821,64.1000,-0.003625
1.837,64.1000,-0.006042
1.853,64.1000,-0.003625
1.870,64.1000,-0.004834
1.885,64.1000,0.000000
1.902,64.1000,0.000000
1.918,64.1000,-0.003625
1.933,64.1000,-0.003625
1.950,64.1000,-0.003625
1.966,64.1000,-0.002417
1.984,64.1000,-0.001208
1.999,64.1000,-0.001208
2.013,64.1000,-0.001208
2.030,64.1000,0.001208
2.045,64.1000,-0.001208
2.061,64.1000,-0.001208
2.077,64.1000,-0.001208
2.093,64.1000,-0.002417
2.109,64.1000,-0.002417
2.126,64.1000,0.001208
2.142,64.1000,-0.006042
2.163,64.1000,-0.002417
2.173,64.1000,-0.003625
2.190,64.1000,-0.003625
2.206,64.1000,0.000000
2.221,64.1000,-0.001208
2.239,64.1000,-0.001208
2.254,64.1000,-0.001208
2.272,64.1000,0.000000
2.285,64.1000,0.001208
2.302,64.1000,-0.001208
2.317,64.1000,-0.007251
2.334,64.1000,-0.004834
2.349,64.1000,-0.001208
2.366,64.1000,-0.004834
2.381,64.1000,-0.003625
2.397,64.1000,0.000000
2.417,64.1000,0.000000
2.430,64.1000,0.001208
2.445,64.1000,0.001208
2.461,64.1000,-0.002417
2.478,64.1000,-0.004834
2.494,64.1000,-0.002417
2.517,64.1000,-0.002417
2.536,64.1000,-0.006042
2.552,64.1000,-0.006042
2.567,64.1000,0.007251
2.580,64.1000,0.001208
2.604,64.1000,-0.006042
2.623,64.1000,-0.003625
2.636,64.1000,0.002417
2.651,64.1000,-0.002417
2.667,64.1000,-0.001208
2.683,64.1000,0.002417
2.699,64.1000,0.002417
2.715,64.1000,-0.006042
2.732,64.1000,-0.002417
2.748,64.1000,-0.002417
2.770,64.1000,0.002417
2.783,64.1000,-0.002417
2.796,64.1000,0.000000
2.812,64.1000,0.002417
2.827,64.1000,0.002417
2.843,64.1000,-0.003625
2.859,64.1000,0.001208
2.875,64.1000,-0.006042
2.891,64.1000,-0.006042
2.910,64.1000,-0.003625
2.923,64.1000,0.001208
2.939,64.1000,0.000000
2.955,64.1000,-0.003625
2.972,64.1000,-0.002417
2.987,64.1000,-0.002417
3.011,64.1000,-0.003625
3.030,64.1000,-0.002417
3.044,64.1000,0.004834
3.067,64.1000,-0.008459
3.084,64.1000,-0.002417
3.099,64.1000,0.000000
3.120,64.1000,0.003625
3.144,64.1000,-0.004834
3.160,64.1000,-0.003625
3.176,64.1000,-0.004834
3.192,64.1000,0.001208
3.209,64.1000,0.001208
3.225,64.1000,0.000000
3.243,64.1000,0.001208
3.256,64.1000,0.000000
3.272,64.1000,-0.003625
3.288,64.1000,-0.001208
3.304,64.1000,0.001208
3.320,64.1000,0.000000
3.340,64.1000,0.007251
3.352,64.1000,0.007251
3.368,64.1000,-0.006042
3.384,64.1000,-0.001208
3.400,64.1000,-0.001208
3.416,64.1000,-0.001208
3.432,64.1000,0.000000
3.449,64.1000,-0.006042
3.464,64.1000,-0.006042
3.483,64.1000,-0.002417
3.495,64.1000,-0.002417
3.513,64.1000,-0.006042
3.535,64.1000,-0.006042
3.553,64.1000,0.003625
3.569,64.1000,-0.001208
3.584,64.1000,-0.001208
3.597,64.1000,-0.004834
3.608,64.1000,-0.001208
3.626,64.1000,-0.002417
3.640,64.1000,-0.004834
3.659,64.1000,0.003625
3.683,64.1000,-0.001208
3.700,64.1000,0.000000
3.715,64.1000,-0.003625
3.731,64.1000,-0.007251
3.747,64.1000,-0.006042
3.763,64.1000,-0.006042
3.781,64.1000,-0.006042
3.795,64.1000,-0.001208
3.811,64.1000,-0.001208
3.826,64.1000,-0.001208
3.842,64.1000,-0.004834
3.859,64.1000,-0.003625
3.876,64.1000,-0.007251
3.891,64.1000,-0.002417
3.906,64.1000,0.001208
3.924,64.1000,-0.002417
3.938,64.1000,-0.002417
3.954,64.1000,0.002417
3.970,64.1000,0.001208
3.988,64.1000,-0.001208
4.004,64.1000,-0.003625
4.018,64.1000,0.002417
4.035,64.1000,0.001208
4.051,64.1000,0.001208
4.073,64.1000,-0.006042
4.089,64.1000,-0.002417
4.099,64.1000,-0.006042
4.114,64.1000,-0.001208
4.134,64.1000,-0.002417
4.146,64.1000,0.002417
4.162,64.1000,-0.002417
4.178,64.1000,-0.002417
4.194,64.1000,-0.003625
4.218,64.1000,-0.002417
4.234,64.1000,-0.010876
4.250,64.1000,0.001208
4.266,64.1000,0.003625
4.283,64.1000,-0.004834
4.298,64.1000,-0.006042
4.320,64.1000,0.002417
4.330,64.1000,-0.003625
4.347,64.1000,-0.003625
4.363,64.1000,-0.003625
4.380,64.1000,-0.003625
4.394,64.1000,0.001208
4.411,64.1000,-0.004834
4.427,64.1000,-0.009668
4.442,64.1000,-0.002417
4.461,64.1000,-0.002417
4.475,64.1000,0.002417
4.490,64.1000,0.001208
4.506,64.1000,0.001208
4.530,64.1000,0.001208
4.554,64.1000,0.000000
4.571,64.1000,0.001208
4.587,64.1000,0.002417
4.602,64.1000,-0.001208
4.618,64.1000,-0.002417
4.634,64.1000,-0.003625
4.651,64.1000,-0.001208
4.667,64.1000,-0.002417
4.683,64.1000,-0.003625
4.699,64.1000,0.003625
4.714,64.1000,0.002417
4.735,64.1000,-0.001208
4.759,64.1000,-0.003625
4.776,64.1000,-0.006042
4.791,64.1000,-0.004834
4.807,64.1000,-0.004834
4.824,64.1000,0.001208
4.839,64.1000,-0.003625
4.858,64.1000,-0.007251
4.871,64.1000,0.000000
4.887,64.1000,0.001208
4.903,64.1000,-0.006042
4.919,64.1000,-0.006042
4.935,64.1000,0.000000
4.951,64.1000,-0.002417
4.967,64.1000,-0.002417
4.983,64.1000,-0.003625
4.999,64.1000,-0.003625
5.015,64.1000,0.001208
5.033,64.1000,0.002417
5.047,64.1000,0.002417
5.063,64.1000,0.001208
5.079,64.1000,-0.004834
5.095,64.1000,-0.007251
5.112,64.1000,0.002417
5.128,64.1000,0.000000
5.150,64.1000,0.001208
5.166,64.1000,0.002417
5.182,64.1000,-0.007251
5.197,64.1000,-0.002417
5.210,64.1000,-0.002417
5.222,64.1000,0.001208
5.239,64.1000,0.000000
5.255,64.1000,0.000000
5.271,64.1000,-0.001208
5.294,64.1000,-0.001208
5.309,64.1000,-0.001208
5.326,64.1000,-0.001208
5.341,64.1000,-0.001208
5.357,64.1000,0.000000
5.373,64.1000,0.000000
5.391,64.1000,0.000000
5.407,64.1000,-0.004834
5.422,64.1000,0.000000
5.443,64.1000,0.000000
5.453,64.1000,-0.006042
5.469,64.1000,-0.006042
5.485,64.1000,-0.001208
5.501,64.1000,-0.002417
5.517,64.1000,-0.002417
5.533,64.1000,-0.008459
5.550,64.1000,-0.004834
5.565,64.1000,-0.001208
5.581,64.1000,-0.003625
5.597,64.1000,0.001208
5.613,64.1000,-0.007251
5.629,64.1000,-0.004834
5.645,64.1000,0.000000
5.661,64.1000,0.001208
5.677,64.1000,-0.002417
5.693,64.1000,-0.001208
5.711,64.1000,-0.001208
5.725,64.1000,0.000000
5.741,64.1000,-0.007251
5.757,64.1000,-0.002417
5.773,64.1000,0.002417
5.789,64.1000,0.000000
5.811,64.1000,0.003625
5.835,64.1000,0.003625
5.851,64.1000,-0.007251
5.867,64.1000,-0.007251
5.882,64.1000,0.002417
5.898,64.1000,0.002417
5.915,64.1000,0.004834
5.935,64.1000,0.006042
5.947,64.1000,0.006042
5.963,64.1000,-0.004834
5.979,64.1000,-0.008459
5.995,64.1000,0.000000
6.011,64.1000,-0.003625
6.027,64.1000,0.001208
6.049,64.1000,0.002417
6.061,64.1000,-0.006042
6.075,64.1000,0.000000
6.090,64.1000,-0.006042
6.106,64.1000,-0.006042
6.126,64.1000,-0.003625
6.139,64.1000,0.001208
6.154,64.1000,-0.003625
6.170,64.1000,-0.001208
6.186,64.1000,-0.001208
6.203,64.1000,-0.002417
6.218,64.1000,-0.001208
6.235,64.1000,0.001208
6.250,64.1000,-0.001208
6.266,64.1000,0.001208
6.290,64.1000,0.001208
6.309,64.1000,-0.004834
6.330,64.1000,0.000000
6.350,64.1000,0.000000
6.374,64.1000,0.003625
6.390,64.1000,-0.004834
6.406,64.1000,0.001208
6.422,64.1000,-0.002417
6.438,64.1000,-0.002417
6.454,64.1000,-0.001208
6.470,64.1000,0.000000
6.487,64.1000,0.000000
6.503,64.1000,0.002417
6.521,64.1000,-0.001208
6.534,64.1000,-0.003625
6.550,64.1000,-0.003625
6.567,64.1000,-0.003625
6.583,64.1000,-0.001208
6.600,64.1000,-0.001208
6.615,64.1000,-0.002417
6.634,64.1000,-0.003625
6.647,64.1000,-0.003625
6.662,64.1000,0.000000
6.678,64.1000,0.002417
6.694,64.1000,0.001208
6.711,64.1000,0.000000
6.727,64.1000,0.001208
6.742,64.1000,0.002417
6.758,64.1000,-0.002417
6.774,64.1000,-0.006042
6.790,64.1000,-0.003625
6.806,64.1000,-0.004834
6.822,64.1000,-0.010876
6.839,64.1000,0.000000
6.854,64.1000,-0.001208
6.870,64.1000,0.000000
6.902,64.1000,0.000000
6.917,64.1000,0.001208
6.933,64.1000,0.001208
6.948,64.1000,0.001208
6.965,64.1000,-0.001208
6.980,64.1000,-0.003625
7.001,64.1000,-0.003625
7.012,64.1000,0.001208
7.028,64.1000,0.001208
7.044,64.1000,-0.008459
7.062,64.1000,-0.004834
7.077,64.1000,-0.004834
7.092,64.1000,-0.004834
7.108,64.1000,-0.008459
7.124,64.1000,-0.003625
7.140,64.1000,-0.002417
7.156,64.1000,-0.001208
7.172,64.1000,0.003625
7.190,64.1000,0.000000
7.204,64.1000,-0.002417
7.220,64.1000,0.000000
7.236,64.1000,0.000000
7.252,64.1000,-0.001208
7.268,64.1000,-0.004834
7.284,64.1000,0.001208
7.300,64.1000,0.001208
7.316,64.1000,-0.008459
7.339,64.1000,-0.001208
7.357,64.1000,0.000000
7.372,64.1000,0.000000
7.387,64.1000,0.002417
7.403,64.1000,-0.003625
7.417,64.1000,-0.006042
7.441,64.1000,-0.001208
7.457,64.1000,0.001208
7.473,64.1000,0.002417
7.489,64.1000,0.000000
7.505,64.1000,-0.003625
7.521,64.1000,-0.006042
7.538,64.1000,-0.003625
7.553,64.1000,0.006042
7.570,64.1000,0.001208
7.585,64.1000,0.007251
7.601,64.1000,-0.001208
7.618,64.1000,-0.003625
7.633,64.1000,-0.003625
7.650,64.1000,-0.002417
7.669,64.1000,-0.002417
7.681,64.1000,0.006042
7.697,64.1000,0.003625
7.713,64.1000,0.001208
7.732,64.1000,0.000000
7.747,64.1000,0.003625
7.761,64.1000,0.000000
7.781,64.1000,-0.007251
7.793,64.1000,0.000000
7.809,64.1000,0.001208
7.828,64.1000,-0.001208
7.841,64.1000,0.004834
7.858,64.1000,0.000000
7.873,64.1000,0.001208
7.892,64.1000,0.001208
7.905,64.1000,-0.008459
7.921,64.1000,0.001208
7.937,64.1000,-0.003625
7.953,64.1000,-0.007251
7.976,64.1000,-0.004834
7.992,64.1000,-0.007251
8.008,64.1000,-0.001208
8.024,64.1000,-0.004834
8.040,64.1000,-0.002417
8.056,64.1000,-0.002417
8.077,64.1000,-0.001208
8.088,64.1000,-0.004834
8.104,64.1000,-0.001208
8.120,64.1000,0.002417
8.139,64.1000,0.002417
8.152,64.1000,-0.003625
8.168,64.1000,-0.002417
8.184,64.1000,-0.004834
8.200,64.1000,-0.010876
8.215,64.1000,-0.001208
8.232,64.1000,-0.001208
8.248,64.1000,0.000000
8.263,64.1000,-0.003625
8.280,64.1000,-0.004834
8.296,64.1000,-0.008459
8.312,64.1000,-0.006042
8.328,64.1000,-0.001208
8.344,64.1000,-0.001208
8.360,64.1000,-0.001208
8.384,64.1000,0.001208
8.404,64.1000,-0.004834
8.424,64.1000,-0.001208
8.446,64.1000,-0.002417
8.456,64.1000,-0.004834
8.472,64.1000,0.007251
8.487,64.1000,0.007251
8.507,64.1000,-0.003625
8.530,64.1000,-0.002417
8.547,64.1000,-0.002417
8.563,64.1000,-0.007251
8.578,64.1000,-0.003625
8.594,64.1000,0.001208
8.610,64.1000,-0.003625
8.626,64.1000,-0.004834
8.646,64.1000,-0.003625
8.659,64.1000,-0.003625
8.675,64.1000,0.001208
8.691,64.1000,0.000000
8.707,64.1000,0.000000
8.722,64.1000,-0.007251
8.738,64.1000,-0.004834
8.754,64.1000,-0.004834
8.771,64.1000,0.003625
8.786,64.1000,0.000000
8.803,64.1000,0.003625
8.819,64.1000,0.001208
8.834,64.1000,-0.004834
8.850,64.1000,-0.012084
8.867,64.1000,-0.008459
8.883,64.1000,-0.008459
8.900,64.1000,0.002417
8.915,64.1000,-0.002417
8.931,64.1000,-0.002417
8.954,64.1000,-0.002417
8.974,64.1000,0.003625
8.994,64.1000,0.002417
9.011,64.1000,-0.007251
9.027,64.1000,-0.006042
9.043,64.1000,-0.002417
9.058,64.1000,-0.006042
9.074,64.1000,-0.003625
9.096,64.1000,0.000000
9.112,64.1000,-0.006042
9.127,64.1000,-0.004834
9.143,64.1000,0.001208
9.160,64.1000,0.001208
9.175,64.1000,-0.002417
9.191,64.1000,-0.007251
9.207,64.1000,-0.007251
9.225,64.1000,-0.003625
9.239,64.1000,-0.003625
9.262,64.1000,-0.006042
9.279,64.1000,-0.002417
9.294,64.1000,-0.002417
9.310,64.1000,-0.002417
9.323,64.1000,0.000000
9.335,64.1000,-0.001208
9.352,64.1000,-0.001208
9.367,64.1000,-0.001208
9.383,64.1000,-0.007251
9.399,64.1000,-0.006042
9.415,64.1000,-0.002417
9.431,64.1000,-0.001208
9.447,64.1000,-0.001208
9.463,64.1000,0.002417
9.480,64.1000,0.000000
9.496,64.1000,0.000000
9.511,64.1000,-0.004834
9.529,64.1000,-0.008459
9.543,64.1000,-0.001208
9.559,64.1000,-0.002417
9.575,64.1000,-0.001208
9.591,64.1000,0.000000
9.607,64.1000,0.000000
9.630,64.1000,-0.004834
9.654,64.1000,-0.003625
9.670,64.1000,-0.003625
9.686,64.1000,0.000000
9.702,64.1000,0.002417
9.718,64.1000,0.002417
9.734,64.1000,0.002417
9.750,64.1000,-0.002417
9.767,64.1000,-0.002417
9.782,64.1000,0.004834
9.803,64.1000,0.002417
9.814,64.1000,-0.001208
9.830,64.1000,-0.002417
9.846,64.1000,-0.003625
9.866,64.1000,-0.002417
9.878,64.1000,-0.002417
9.894,64.1000,0.002417
9.917,64.1000,-0.001208
9.930,64.1000,0.000000
9.942,64.1000,-0.003625
9.958,64.1000,0.000000
9.974,64.1000,0.000000
9.990,64.1000,-0.004834
10.007,64.1000,-0.001208
10.022,64.1000,0.000000
10.038,64.1000,-0.003625
10.054,64.1000,-0.001208
10.070,64.1000,-0.001208
10.086,64.1000,-0.004834
10.102,64.1000,-0.004834
10.118,64.1000,-0.002417
10.134,64.1000,0.000000
10.150,64.1000,0.001208
10.166,64.1000,0.000000
10.182,64.1000,0.000000
10.198,64.1000,-0.002417
10.215,64.1000,-0.002417
10.230,64.1000,-0.004834
10.246,64.1000,-0.006042
10.262,64.1000,-0.003625
10.278,64.1000,-0.003625
10.294,64.1000,-0.001208
10.310,64.1000,-0.001208
10.327,64.1000,-0.002417
10.342,64.1000,-0.003625
10.358,64.1000,-0.001208
10.374,64.1000,-0.001208
10.390,64.1000,-0.006042
10.406,64.1000,0.001208
10.422,64.1000,-0.003625
10.438,64.1000,-0.006042
10.455,64.1000,-0.004834
10.470,64.1000,-0.001208
10.487,64.1000,-0.001208
10.502,64.1000,-0.004834
10.525,64.1000,0.000000
10.537,64.1000,0.000000
10.551,64.1000,0.001208
10.565,64.1000,-0.001208
10.582,64.1000,-0.004834
10.598,64.1000,-0.004834
10.613,64.1000,-0.002417
10.630,64.1000,-0.001208
10.646,64.1000,-0.001208
10.662,64.1000,0.002417
10.683,64.1000,-0.006042
10.708,64.1000,-0.001208
10.724,64.1000,-0.004834
10.739,64.1000,-0.001208
10.755,64.1000,0.002417
10.771,64.1000,0.000000
10.787,64.1000,0.000000
10.807,64.1000,0.002417
10.819,64.1000,0.002417
10.835,64.1000,-0.001208
10.852,64.1000,-0.002417
10.867,64.1000,-0.002417
10.884,64.1000,-0.001208
10.900,64.1000,-0.003625
10.916,64.1000,0.003625
10.932,64.1000,0.003625
10.947,64.1000,0.001208
10.964,64.1000,0.001208
10.980,64.1000,0.004834
10.995,64.1000,-0.002417
11.012,64.1000,-0.001208
11.028,64.1000,0.000000
11.050,64.1000,0.000000
11.075,64.1000,-0.010876
11.092,64.1000,0.002417
11.106,64.1000,0.002417
11.124,64.0863,-0.001208
11.139,64.0620,0.021752
11.156,64.0364,-0.002417
11.172,64.0110,0.004834
11.188,63.9864,0.003625
11.211,63.9488,0.003625
11.229,63.9213,-0.003625
11.245,63.8964,-0.002417
11.261,63.8713,0.000000
11.281,63.8392,-0.003625
11.303,63.8055,-0.003625
11.315,63.7860,-0.003625
11.331,63.7611,-0.001208
11.347,63.7364,-0.001208
11.364,63.7105,-0.001208
11.380,63.6857,0.001208
11.395,63.6612,-0.007251
11.411,63.6357,-0.007251
11.427,63.6112,-0.002417
11.443,63.5857,0.002417
11.459,63.5594,-0.004834
11.480,63.5272,-0.002417
11.492,63.5087,-0.002417
11.508,63.4850,-0.007251
11.523,63.4606,-0.004834
11.539,63.4355,-0.007251
11.555,63.4098,-0.002417
11.571,63.3852,0.004834
11.588,63.3594,0.006042
11.603,63.3342,0.004834
11.620,63.3079,-0.002417
11.635,63.2849,0.004834
11.652,63.2588,0.004834
11.668,63.2338,0.004834
11.684,63.2080,0.002417
11.700,63.1829,-0.002417
11.716,63.1584,0.003625
11.735,63.1274,-0.001208
11.759,63.0906,0.002417
11.775,63.0641,0.003625
11.791,63.0401,-0.001208
11.807,63.0154,0.007251
11.825,62.9862,0.002417
11.839,62.9642,-0.001208
11.855,62.9382,0.000000
11.876,62.9061,-0.008459
11.888,62.8878,-0.002417
11.903,62.8650,0.001208
11.921,62.8350,0.002417
11.935,62.8135,0.007251
11.955,62.7826,0.003625
11.967,62.7642,0.003625
11.983,62.7397,0.001208
11.999,62.7147,0.000000
12.015,62.6894,-0.003625
12.031,62.6645,0.001208
12.047,62.6395,0.000000
12.065,62.6117,-0.001208
12.079,62.5878,0.003625
12.099,62.5569,0.000000
12.113,62.5348,0.000000
12.127,62.5136,0.000000
12.143,62.4888,0.003625
12.159,62.4639,0.000000
12.177,62.4355,-0.004834
12.191,62.4138,0.000000
12.207,62.3887,-0.001208
12.223,62.3636,0.004834
12.239,62.3365,0.004834
12.255,62.3137,0.008459
12.276,62.2805,-0.002417
12.299,62.2434,0.001208
12.315,62.2175,0.001208
12.331,62.1938,-0.003625
12.347,62.1692,0.006042
12.364,62.1416,0.004834
12.379,62.1192,0.004834
12.398,62.0885,-0.006042
12.411,62.0677,-0.007251
12.427,62.0428,0.001208
12.443,62.0185,0.001208
12.459,61.9919,0.002417
12.483,61.9558,0.001208
12.494,61.9392,-0.003625
12.507,61.9176,-0.001208
12.525,61.8896,-0.006042
12.539,61.8674,0.002417
12.556,61.8408,0.001208
12.579,61.8048,0.002417
12.600,61.7717,0.003625
12.619,61.7420,0.009668
12.635,61.7180,0.001208
12.651,61.6912,-0.001208
12.668,61.6663,0.003625
12.690,61.6290,0.003625
12.708,61.6031,-0.006042
12.722,61.5805,-0.006042
12.737,61.5567,-0.003625
12.750,61.5351,-0.003625
12.762,61.5175,0.004834
12.779,61.4913,0.001208
12.795,61.4665,0.000000
12.810,61.4421,-0.003625
12.834,61.4060,-0.004834
12.849,61.3809,-0.003625
12.866,61.3554,-0.004834
12.882,61.3307,-0.001208
12.898,61.3048,-0.001208
12.914,61.2792,0.006042
12.936,61.2451,0.003625
12.957,61.2105,0.002417
12.977,61.1801,0.002417
13.002,61.1419,0.006042
13.015,61.1200,0.000000
13.026,61.1034,-0.001208
13.042,61.0796,-0.001208
13.058,61.0528,-0.001208
13.074,61.0282,0.002417
13.090,61.0045,0.001208
13.106,60.9787,-0.001208
13.121,60.9548,0.004834
13.140,60.9232,0.004834
13.153,60.9044,-0.001208
13.170,60.8788,-0.001208
13.185,60.8545,0.002417
13.202,60.8279,0.001208
13.218,60.8032,0.000000
13.239,60.7700,0.000000
13.249,60.7540,0.006042
13.266,60.7276,0.008459
13.281,60.7036,0.008459
13.298,60.6767,-0.002417
13.313,60.6533,0.000000
13.329,60.6284,0.002417
13.350,60.5939,0.000000
13.374,60.5593,0.003625
13.390,60.5342,0.000000
13.405,60.5094,0.000000
13.421,60.4845,0.000000
13.438,60.4578,0.000000
13.453,60.4340,0.000000
13.475,60.4002,0.006042
13.485,60.3837,0.001208
13.502,60.3574,-0.004834
13.517,60.3338,0.000000
13.535,60.3049,-0.004834
13.549,60.2839,-0.001208
13.565,60.2578,-0.001208
13.581,60.2337,-0.002417
13.597,60.2088,-0.002417
13.614,60.1830,0.001208
13.630,60.1577,-0.003625
13.651,60.1248,-0.001208
13.663,60.1060,0.008459
13.678,60.0829,0.009668
13.695,60.0552,0.000000
13.709,60.0333,-0.002417
13.731,59.9977,-0.001208
13.745,59.9760,0.002417
13.757,59.9574,0.003625
13.774,59.9318,-0.004834
13.791,59.9046,-0.002417
13.806,59.8807,0.006042
13.830,59.8428,0.006042
13.847,59.8164,0.003625
13.869,59.7819,-0.002417
13.885,59.7575,0.000000
13.909,59.7193,-0.002417
13.924,59.6958,0.001208
13.940,59.6709,0.007251
13.959,59.6394,0.000000
13.973,59.6196,0.002417
13.988,59.5954,0.001208
14.004,59.5709,0.000000
14.020,59.5459,0.004834
14.037,59.5188,0.007251
14.052,59.4955,0.002417
14.077,59.4571,0.002417
14.095,59.4287,-0.002417
14.111,59.4030,-0.003625
14.138,59.3607,-0.003625
14.148,59.3453,-0.001208
14.166,59.3169,-0.002417
14.180,59.2954,-0.002417
14.199,59.2642,-0.007251
14.211,59.2438,-0.001208
14.229,59.2183,-0.002417
14.244,59.1940,0.000000
14.262,59.1660,-0.002417
14.276,59.1432,-0.001208
14.292,59.1189,0.001208
14.316,59.0812,0.008459
14.343,59.0397,0.000000
14.356,59.0178,-0.002417
14.372,58.9945,0.002417
14.388,58.9678,0.002417
14.404,58.9428,-0.006042
14.420,58.9181,-0.002417
14.436,58.8919,-0.003625
14.459,58.8577,0.000000
14.475,58.8318,0.006042
14.492,58.8058,0.002417
14.507,58.7828,-0.004834
14.524,58.7565,-0.004834
14.539,58.7327,-0.003625
14.557,58.7038,-0.002417
14.571,58.6826,-0.001208
14.587,58.6566,0.003625
14.603,58.6318,-0.003625
14.620,58.6053,-0.003625
14.634,58.5822,-0.007251
14.651,58.5565,-0.002417
14.667,58.5315,0.003625
14.683,58.5071,-0.001208
14.700,58.4804,-0.003625
14.715,58.4566,-0.003625
14.740,58.4178,-0.001208
14.761,58.3839,-0.004834
14.779,58.3565,0.001208
14.795,58.3305,0.003625
14.811,58.3065,0.000000
14.828,58.2795,0.000000
14.843,58.2547,-0.004834
14.865,58.2177,-0.002417
14.876,58.2043,0.002417
14.891,58.1805,0.004834
14.907,58.1558,0.003625
14.923,58.1310,-0.001208
14.939,58.1052,-0.001208
14.955,58.0808,0.002417
14.973,58.0520,-0.008459
14.997,58.0500,-0.003625
15.013,58.0500,0.003625
15.029,58.0500,-0.001208
15.044,58.0500,-0.003625
15.061,58.0500,-0.003625
15.077,58.0500,0.002417
15.093,58.0500,-0.002417
15.109,58.0500,0.000000
15.126,58.0500,0.004834
15.141,58.0500,0.000000
15.157,58.0500,0.002417
15.173,58.0500,0.003625
15.189,58.0500,0.003625
15.205,58.0500,0.002417
15.220,58.0500,-0.003625
15.238,58.0500,-0.003625
15.253,58.0500,-0.002417
15.268,58.0500,-0.002417
15.286,58.0500,0.003625
15.301,58.0500,0.000000
15.317,58.0500,-0.003625
15.332,58.0500,-0.003625
15.349,58.0500,-0.001208
15.367,58.0500,0.004834
15.381,58.0500,-0.002417
15.396,58.0500,-0.004834
15.413,58.0509,-0.003625
15.429,58.0760,-0.003625
15.452,58.1114,-0.010876
15.470,58.1385,-0.001208
15.485,58.1623,0.003625
15.501,58.1876,0.003625
15.512,58.2062,-0.002417
15.536,58.2433,-0.002417
15.553,58.2697,0.003625
15.568,58.2932,0.002417
15.584,58.3182,-0.002417
15.601,58.3451,-0.006042
15.616,58.3689,-0.006042
15.633,58.3949,-0.003625
15.648,58.4185,-0.003625
15.665,58.4451,0.002417
15.680,58.4689,0.002417
15.698,58.4976,0.002417
15.713,58.5198,-0.001208
15.729,58.5445,0.000000
15.749,58.5778,0.000000
15.760,58.5945,-0.003625
15.777,58.6214,0.007251
15.792,58.6449,0.007251
15.808,58.6694,-0.004834
15.825,58.6961,-0.006042
15.841,58.7203,0.002417
15.858,58.7485,0.001208
15.880,58.7830,0.001208
15.902,58.8165,-0.004834
15.927,58.8557,0.001208
15.938,58.8724,0.003625
15.953,58.8966,0.000000
15.975,58.9302,0.000000
15.994,58.9605,-0.003625
16.009,58.9848,0.003625
16.025,59.0095,0.010876
16.048,59.0466,-0.006042
16.073,59.0849,-0.004834
16.089,59.1093,0.001208
16.104,59.1340,0.002417
16.120,59.1593,0.004834
16.136,59.1834,0.000000
16.152,59.2094,-0.006042
16.168,59.2341,-0.004834
16.184,59.2584,-0.003625
16.200,59.2844,-0.002417
16.216,59.3095,0.000000
16.239,59.3468,0.000000
16.260,59.3786,0.000000
16.280,59.4090,0.001208
16.296,59.4344,0.001208
16.312,59.4593,-0.006042
16.328,59.4842,0.000000
16.344,59.5104,-0.003625
16.362,59.5392,0.000000
16.377,59.5610,0.000000
16.392,59.5854,0.000000
16.408,59.6101,0.000000
16.424,59.6346,-0.004834
16.441,59.6610,-0.004834
16.456,59.6858,-0.001208
16.479,59.7219,-0.003625
16.504,59.7611,-0.002417
16.520,59.7855,-0.003625
16.536,59.8103,-0.001208
16.552,59.8360,-0.002417
16.568,59.8608,0.000000
16.584,59.8857,0.004834
16.606,59.9198,0.004834
16.622,59.9450,-0.002417
16.638,59.9707,-0.003625
16.653,59.9950,0.001208
16.670,60.0205,-0.003625
16.686,60.0459,-0.002417
16.703,60.0726,0.002417
16.718,60.0972,0.000000
16.734,60.1215,-0.001208
16.750,60.1462,0.000000
16.766,60.1706,0.001208
16.782,60.1973,0.001208
16.798,60.2209,-0.001208
16.819,60.2548,-0.001208
16.830,60.2727,-0.002417
16.846,60.2959,0.001208
16.870,60.3355,-0.003625
16.888,60.3628,0.002417
16.910,60.3964,0.000000
16.930,60.4288,0.000000
16.942,60.4462,-0.001208
16.958,60.4715,-0.001208
16.974,60.4964,-0.001208
16.989,60.5217,0.003625
17.006,60.5479,0.002417
17.022,60.5735,-0.002417
17.037,60.5967,-0.002417
17.054,60.6218,-0.006042
17.071,60.6491,-0.004834
17.086,60.6730,-0.004834
17.110,60.7103,-0.004834
17.131,60.7435,-0.003625
17.149,60.7725,-0.002417
17.165,60.7977,-0.004834
17.182,60.8225,-0.007251
17.197,60.8475,-0.001208
17.213,60.8726,0.001208
17.233,60.9056,0.000000
17.245,60.9227,0.002417
17.263,60.9506,-0.004834
17.277,60.9729,-0.001208
17.302,61.0125,0.001208
17.317,61.0352,-0.006042
17.333,61.0618,-0.006042
17.348,61.0838,0.000000
17.361,61.1062,-0.001208
17.374,61.1251,0.002417
17.389,61.1483,-0.007251
17.407,61.1757,-0.007251
17.421,61.1989,0.000000
17.437,61.2249,-0.002417
17.453,61.2486,-0.002417
17.469,61.2737,-0.002417
17.485,61.2988,-0.002417
17.501,61.3251,-0.004834
17.517,61.3492,-0.002417
17.533,61.3740,0.000000
17.552,61.4054,-0.001208
17.566,61.4258,-0.004834
17.583,61.4522,-0.001208
17.597,61.4744,-0.004834
17.619,61.5092,-0.001208
17.630,61.5254,-0.009668
17.646,61.5504,-0.002417
17.664,61.5786,-0.007251
17.687,61.6167,-0.008459
17.704,61.6427,-0.004834
17.720,61.6659,0.000000
17.735,61.6906,0.007251
17.752,61.7185,0.001208
17.768,61.7413,0.000000
17.783,61.7659,0.000000
17.799,61.7908,-0.001208
17.815,61.8159,-0.001208
17.831,61.8411,-0.002417
17.850,61.8707,-0.002417
17.865,61.8935,-0.004834
17.880,61.9185,0.000000
17.902,61.9528,0.000000
17.920,61.9796,0.003625
17.935,62.0039,-0.006042
17.951,62.0287,-0.006042
17.963,62.0503,0.000000
17.976,62.0693,0.000000
17.991,62.0917,0.001208
18.016,62.1310,-0.001208
18.028,62.1512,0.000000
18.040,62.1676,0.000000
18.055,62.1920,0.000000
18.072,62.2177,-0.002417
18.087,62.2423,-0.002417
18.104,62.2692,-0.006042
18.119,62.2928,0.001208
18.135,62.3173,0.002417
18.151,62.3426,0.000000
18.167,62.3685,-0.001208
18.183,62.3931,0.002417
18.199,62.4201,-0.001208
18.223,62.4561,0.000000
18.239,62.4809,0.000000
18.254,62.5048,0.002417
18.270,62.5288,-0.004834
18.286,62.5558,-0.004834
18.302,62.5799,-0.004834
18.318,62.6058,-0.004834
18.335,62.6307,-0.001208
18.350,62.6556,0.000000
18.366,62.6809,0.000000
18.382,62.7045,-0.004834
18.398,62.7306,0.000000
18.415,62.7565,-0.004834
18.433,62.7867,0.002417
18.447,62.8070,0.002417
18.462,62.8306,-0.002417
18.479,62.8573,-0.001208
18.494,62.8800,-0.001208
18.514,62.9114,-0.001208
18.526,62.9306,-0.004834
18.542,62.9553,-0.009668
18.558,62.9800,-0.006042
18.574,63.0066,-0.001208
18.590,63.0314,-0.002417
18.612,63.0665,-0.008459
18.632,63.0957,-0.010876
18.645,63.1185,-0.006042
18.660,63.1408,0.004834
18.676,63.1660,0.003625
18.687,63.1832,0.000000
18.702,63.2061,0.000000
18.726,63.2444,0.000000
18.752,63.2853,0.003625
18.766,63.3062,0.003625
18.782,63.3318,-0.006042
18.797,63.3563,-0.009668
18.815,63.3837,0.003625
18.830,63.4065,-0.001208
18.849,63.4381,-0.001208
18.862,63.4572,-0.009668
18.878,63.4820,-0.009668
18.894,63.5077,-0.003625
18.910,63.5320,-0.003625
18.930,63.5633,-0.006042
18.942,63.5825,0.000000
18.958,63.6077,-0.002417
18.974,63.6321,0.000000
18.991,63.6585,-0.007251
19.006,63.6841,-0.001208
19.026,63.7158,-0.003625
19.037,63.7324,-0.001208
19.054,63.7586,0.000000
19.070,63.7834,0.000000
19.086,63.8077,-0.004834
19.103,63.8352,-0.008459
19.118,63.8583,-0.002417
19.135,63.8857,-0.001208
19.150,63.9080,0.000000
19.165,63.9331,-0.002417
19.181,63.9581,-0.004834
19.197,63.9831,-0.004834
19.214,64.0097,-0.007251
19.230,64.0347,0.002417
19.246,64.0500,0.004834
19.261,64.0500,-0.002417
19.284,64.0500,-0.004834
19.300,64.0500,0.004834
19.315,64.0500,0.002417
19.331,64.0500,0.002417
19.348,64.0500,0.002417
19.363,64.0500,0.001208
19.380,64.0500,0.001208
19.396,64.0500,-0.001208
19.412,64.0500,-0.004834
19.427,64.0500,-0.007251
19.444,64.0500,-0.002417
19.460,64.0500,-0.002417
19.475,64.0500,0.001208
19.499,64.0500,0.001208
19.523,64.0500,0.002417
19.540,64.0500,-0.004834
19.555,64.0500,-0.002417
19.573,64.0500,-0.002417
19.588,64.0500,0.003625
19.611,64.0500,0.002417
19.630,64.0500,-0.007251
19.651,64.0500,-0.006042
19.667,64.0500,-0.006042
19.684,64.0500,0.001208
19.700,64.0500,-0.003625
19.720,64.0500,-0.003625
19.732,64.0500,-0.004834
19.748,64.0500,-0.008459
19.763,64.0500,-0.003625
19.781,64.0500,-0.001208
19.805,64.0500,0.001208
19.821,64.0500,0.000000
19.837,64.0500,-0.003625
19.853,64.0500,-0.004834
19.870,64.0500,-0.001208
19.885,64.0500,-0.006042
19.905,64.0500,0.001208
19.917,64.0500,0.001208
19.934,64.0500,-0.007251
19.950,64.0500,-0.003625
19.967,64.0500,-0.004834
19.982,64.0500,-0.004834
19.998,64.0500,-0.004834
20.020,64.0500,-0.002417
20.032,64.0500,-0.008459
20.046,64.0500,-0.008459
20.062,64.0500,0.001208
20.077,64.0500,-0.002417
20.094,64.0500,0.003625
20.110,64.0500,0.001208
20.133,64.0500,0.001208
20.155,64.0500,0.000000
20.173,64.0500,0.001208
20.189,64.0500,0.003625
20.205,64.0500,-0.003625
20.221,64.0500,-0.004834
20.237,64.0500,-0.002417
20.253,64.0500,-0.001208
20.270,64.0500,0.000000
20.285,64.0500,-0.001208
20.306,64.0500,0.001208
20.330,64.0500,0.001208
20.346,64.0500,0.002417
20.362,64.0500,0.000000
20.378,64.0500,-0.002417
20.395,64.0500,-0.004834
20.410,64.0500,-0.003625
20.429,64.0500,-0.003625
20.443,64.0500,-0.002417
20.458,64.0500,0.002417
20.474,64.0500,-0.002417
20.490,64.0500,-0.008459
20.506,64.0500,-0.003625
20.522,64.0500,0.002417
20.538,64.0500,0.002417
20.554,64.0500,-0.001208
20.571,64.0500,-0.001208
20.587,64.0500,-0.001208
20.602,64.0500,-0.001208
20.620,64.0500,-0.002417
20.635,64.0500,-0.002417
20.650,64.0500,-0.002417
20.666,64.0500,-0.001208
20.682,64.0500,-0.007251
20.698,64.0500,-0.007251
20.714,64.0500,0.002417
20.730,64.0500,-0.001208
20.746,64.0500,-0.002417
20.762,64.0500,0.001208
20.777,64.0500,0.000000
20.794,64.0500,-0.003625
20.811,64.0500,0.001208
20.826,64.0500,-0.002417
20.847,64.0500,0.000000
20.872,64.0500,-0.001208
20.887,64.0500,0.000000
20.903,64.0500,0.001208
20.919,64.0500,-0.003625
20.935,64.0500,-0.003625
20.951,64.0500,-0.002417
20.967,64.0500,-0.003625
20.983,64.0500,-0.002417
20.999,64.0500,-0.004834
21.016,64.0500,-0.004834
21.030,64.0500,-0.004834
21.054,64.0500,-0.004834
21.065,64.0500,-0.007251
21.079,64.0500,-0.003625
21.094,64.0500,0.000000
21.111,64.0500,0.000000
21.127,64.0500,0.000000
21.150,64.0500,-0.002417
21.173,64.0500,-0.002417
21.191,64.0500,-0.001208
21.206,64.0500,-0.003625
21.223,64.0500,-0.001208
21.238,64.0500,-0.003625
21.260,64.0500,-0.003625
21.270,64.0500,-0.003625
21.287,64.0500,-0.003625
21.303,64.0500,-0.006042
21.319,64.0500,-0.006042
21.336,64.0500,0.000000
21.351,64.0500,0.001208
21.372,64.0500,-0.006042
21.396,64.0500,-0.006042
21.412,64.0500,-0.002417
21.428,64.0500,0.000000
21.443,64.0500,-0.003625
21.460,64.0500,-0.002417
21.475,64.0500,-0.001208
21.495,64.0500,0.000000
21.507,64.0500,-0.007251
21.524,64.0500,-0.004834
21.539,64.0500,-0.004834
21.556,64.0500,-0.001208
21.572,64.0500,0.002417
21.588,64.0500,-0.003625
21.603,64.0500,0.002417
21.620,64.0500,0.001208
21.635,64.0500,-0.001208
21.651,64.0500,-0.003625
21.667,64.0500,-0.002417
21.683,64.0500,-0.002417
21.699,64.0500,0.002417
21.715,64.0500,0.000000
21.739,64.0500,-0.008459
21.761,64.0500,-0.003625
21.780,64.0500,0.001208
21.800,64.0500,0.001208
21.811,64.0500,0.000000
21.828,64.0500,0.000000
21.844,64.0500,-0.002417
21.866,64.0500,-0.002417
21.877,64.0500,-0.001208
21.891,64.0500,0.000000
21.908,64.0500,-0.001208
21.923,64.0500,-0.001208
21.939,64.0500,0.001208
21.956,64.0500,-0.002417
21.971,64.0500,-0.002417
21.987,64.0500,-0.002417
22.004,64.0500,0.004834
22.020,64.0500,0.004834
22.036,64.0500,0.001208
22.052,64.0500,-0.004834
22.068,64.0500,-0.004834
22.084,64.0500,-0.001208
22.099,64.0500,-0.001208
22.124,64.0500,0.002417
22.147,64.0500,0.000000
22.170,64.0500,0.000000
22.180,64.0500,-0.007251
22.195,64.0500,0.006042
22.219,64.0500,0.006042
22.239,64.0500,-0.006042
22.259,64.0500,0.000000
22.283,64.0500,0.000000
22.300,64.0500,-0.003625
22.316,64.0500,-0.001208
22.331,64.0500,0.000000
22.344,64.0500,-0.001208
22.355,64.0500,0.003625
22.372,64.0500,-0.003625
22.387,64.0500,-0.003625
22.406,64.0500,-0.002417
22.419,64.0500,0.000000
22.435,64.0500,0.001208
22.451,64.0500,-0.003625
22.467,64.0500,-0.003625
22.490,64.0500,0.001208
22.506,64.0500,-0.001208
22.522,64.0500,-0.009668
22.538,64.0500,-0.003625
22.555,64.0500,-0.004834
22.571,64.0500,-0.004834
22.591,64.0500,0.001208
22.602,64.0500,-0.004834
22.619,64.0500,-0.004834
22.634,64.0500,-0.002417
22.651,64.0500,-0.001208
22.666,64.0500,-0.002417
22.682,64.0500,0.002417
22.699,64.0500,-0.003625
22.714,64.0500,-0.004834
22.730,64.0500,-0.003625
22.745,64.0500,-0.002417
22.768,64.0500,0.000000
22.780,64.0500,0.004834
22.794,64.0500,-0.003625
22.810,64.0500,-0.004834
22.826,64.0500,-0.002417
22.842,64.0500,-0.001208
22.858,64.0500,-0.002417
22.874,64.0500,-0.003625
22.890,64.0500,0.003625
22.907,64.0500,0.003625
22.922,64.0500,0.002417
22.938,64.0500,-0.002417
22.954,64.0500,-0.001208
22.970,64.0500,-0.002417
22.987,64.0500,0.003625
23.002,64.0500,0.002417
23.025,64.0500,0.001208
23.041,64.0500,-0.012084
23.057,64.0500,-0.012084
23.073,64.0500,-0.003625
23.092,64.0500,0.000000
23.105,64.0500,0.007251
23.121,64.0500,0.002417
23.137,64.0500,-0.006042
23.155,64.0500,0.002417
23.169,64.0500,0.002417
23.184,64.0500,-0.001208
23.201,64.0500,-0.003625
23.218,64.0500,-0.001208
23.232,64.0500,-0.001208
23.252,64.0500,0.000000
23.265,64.0500,0.001208
23.281,64.0500,0.000000
23.301,64.0500,0.000000
23.313,64.0500,0.000000
23.329,64.0500,-0.001208
23.344,64.0500,-0.001208
23.362,64.0500,0.000000
23.377,64.0500,0.000000
23.392,64.0500,-0.003625
23.417,64.0500,0.000000
23.442,64.0500,-0.001208
23.457,64.0500,0.001208
23.472,64.0500,-0.002417
23.489,64.0500,-0.004834
23.504,64.0500,-0.012084
23.521,64.0500,-0.009668
23.537,64.0500,0.000000
23.559,64.0500,0.001208
23.576,64.0500,-0.004834
23.591,64.0500,-0.003625
23.606,64.0500,-0.007251
23.623,64.0500,0.000000
23.638,64.0500,-0.004834
23.656,64.0500,-0.004834
23.670,64.0500,-0.001208
23.687,64.0500,-0.001208
23.702,64.0500,-0.004834
23.720,64.0500,-0.004834
23.734,64.0500,-0.003625
23.750,64.0500,0.003625
23.766,64.0500,0.001208
23.782,64.0500,0.001208
23.798,64.0500,0.001208
23.814,64.0500,0.002417
23.830,64.0500,-0.001208
23.846,64.0500,-0.003625
23.862,64.0500,-0.008459
23.879,64.0500,-0.001208
23.901,64.0500,-0.001208
23.922,64.0500,-0.002417
23.942,64.0500,-0.001208
23.965,64.0500,-0.001208
23.984,64.0500,-0.004834
24.000,64.0500,0.000000
24.015,64.0500,0.000000
24.028,64.0500,0.001208
24.047,64.0500,0.006042
24.061,64.0500,0.001208
24.077,64.0500,-0.010876
24.091,64.0500,-0.006042
24.117,64.0500,-0.006042
24.131,64.0500,-0.001208
24.147,64.0500,-0.001208
24.163,64.0500,-0.004834
24.179,64.0500,0.001208
24.196,64.0500,0.001208
24.213,64.0500,-0.003625
24.227,64.0500,-0.003625
24.243,64.0500,0.004834
24.259,64.0500,-0.002417
24.275,64.0500,0.000000
24.292,64.0500,0.000000
24.307,64.0500,-0.002417
24.330,64.0500,-0.002417
24.353,64.0500,0.000000
24.372,64.0500,-0.003625
24.387,64.0500,-0.008459
24.403,64.0500,-0.010876
24.419,64.0500,0.001208
24.435,64.0500,-0.003625
24.453,64.0500,0.002417
24.467,64.0500,0.002417
24.483,64.0500,-0.001208
24.501,64.0500,-0.001208
24.515,64.0500,-0.004834
24.531,64.0500,-0.001208
24.548,64.0500,-0.006042
24.564,64.0500,0.000000
24.579,64.0500,-0.002417
24.601,64.0500,-0.002417
24.613,64.0500,-0.002417
24.628,64.0500,-0.003625
24.643,64.0500,0.001208
24.659,64.0500,0.004834
24.682,64.0500,-0.001208
24.698,64.0500,0.004834
24.714,64.0500,0.004834
24.730,64.0500,-0.006042
24.746,64.0500,-0.006042
24.762,64.0500,0.006042
24.779,64.0500,0.006042
24.794,64.0500,-0.003625
24.810,64.0500,-0.003625
24.826,64.0500,0.000000
24.842,64.0500,-0.009668
24.859,64.0500,-0.006042
24.874,64.0500,0.003625
24.890,64.0500,0.006042
24.906,64.0500,0.000000
24.923,64.0500,0.000000
24.938,64.0500,-0.004834
24.954,64.0500,-0.006042
24.970,64.0500,-0.002417
24.986,64.0500,-0.003625
25.002,64.0500,-0.002417
25.018,64.0500,-0.002417
25.036,64.0500,0.002417
25.050,64.0500,-0.004834
25.071,64.0500,-0.002417
25.081,64.0500,-0.002417
25.098,64.0500,-0.002417
25.114,64.0500,0.001208
25.130,64.0500,0.000000
25.148,64.0500,-0.003625
25.162,64.0500,0.000000
25.178,64.0500,0.003625
25.194,64.0500,-0.002417
25.218,64.0500,-0.002417
25.233,64.0500,0.003625
25.249,64.0500,-0.003625
25.264,64.0500,-0.007251
25.281,64.0500,0.001208
25.297,64.0500,0.001208
25.318,64.0500,-0.008459
25.328,64.0500,-0.009668
25.345,64.0500,0.002417
25.361,64.0500,0.001208
25.379,64.0500,0.001208
25.393,64.0500,-0.001208
25.408,64.0500,-0.003625
25.433,64.0500,-0.003625
25.460,64.0500,0.002417
25.473,64.0500,-0.004834
25.488,64.0500,-0.002417
25.513,64.0500,-0.006042
25.523,64.0500,-0.001208
25.537,64.0500,-0.001208
25.554,64.0500,-0.002417
25.569,64.0500,-0.001208
25.585,64.0500,-0.002417
25.600,64.0500,-0.004834
25.616,64.0500,-0.003625
25.634,64.0500,-0.001208
25.649,64.0500,-0.003625
25.672,64.0500,0.000000
25.690,64.0500,0.000000
25.705,64.0500,0.000000
25.720,64.0500,-0.001208
25.742,64.0500,-0.003625
25.765,64.0500,0.001208
25.782,64.0500,-0.001208
25.797,64.0500,-0.001208
25.813,64.0500,0.000000
25.833,64.0500,-0.001208
25.846,64.0500,-0.004834
25.861,64.0500,-0.007251
25.880,64.0500,-0.007251
25.894,64.0500,0.000000
25.910,64.0500,0.000000
25.927,64.0500,0.000000
25.943,64.0500,-0.001208
25.958,64.0500,-0.002417
25.980,64.0500,-0.001208
26.001,64.0500,-0.001208
26.021,64.0500,0.006042
26.038,64.0500,0.006042
26.053,64.0500,-0.003625
26.070,64.0500,-0.003625
26.085,64.0500,-0.010876
26.101,64.0500,0.000000
26.117,64.0500,0.000000
26.133,64.0500,-0.003625
26.149,64.0500,-0.003625
26.166,64.0500,-0.004834
26.181,64.0500,-0.003625
26.197,64.0500,0.000000
26.214,64.0500,0.001208
26.229,64.0500,0.001208
26.247,64.0500,0.001208
26.262,64.0500,0.000000
26.284,64.0500,-0.001208
26.307,64.0500,0.001208
26.324,64.0500,0.002417
26.339,64.0500,0.002417
26.355,64.0500,0.000000
26.372,64.0500,-0.006042
26.388,64.0500,-0.006042
26.403,64.0500,-0.006042
26.419,64.0500,-0.001208
26.435,64.0500,0.002417
26.451,64.0500,-0.001208
26.467,64.0500,-0.001208
26.486,64.0500,0.002417
26.499,64.0500,-0.007251
26.516,64.0500,0.001208
26.531,64.0500,-0.006042
26.547,64.0500,-0.006042
26.563,64.0500,0.000000
26.583,64.0500,0.001208
26.595,64.0500,-0.001208
26.612,64.0500,-0.008459
26.627,64.0500,-0.007251
26.643,64.0500,-0.004834
26.660,64.0500,-0.006042
26.675,64.0500,-0.006042
26.692,64.0500,-0.003625
26.707,64.0500,-0.003625
26.724,64.0500,-0.007251
26.740,64.0500,-0.007251
26.756,64.0500,-0.006042
26.779,64.0500,-0.006042
26.804,64.0500,-0.004834
26.826,64.0500,-0.001208
26.850,64.0500,-0.003625
26.866,64.0500,-0.003625
26.882,64.0500,0.003625
26.898,64.0500,-0.001208
26.914,64.0500,-0.004834
26.930,64.0500,-0.007251
26.946,64.0500,-0.001208
26.962,64.0500,-0.002417
26.978,64.0500,-0.002417
26.995,64.0500,0.000000
27.016,64.0500,-0.001208
27.035,64.0500,0.001208
27.048,64.0500,0.003625
27.064,64.0500,0.003625
27.079,64.0500,-0.004834
27.091,64.0500,-0.002417
27.106,64.0500,-0.002417
27.122,64.0500,-0.002417
27.138,64.0500,-0.004834
27.154,64.0500,0.002417
27.170,64.0500,0.001208
27.186,64.0500,-0.003625
27.202,64.0500,0.000000
27.218,64.0500,0.003625
27.234,64.0500,0.002417
27.250,64.0500,0.001208
27.266,64.0500,0.001208
27.282,64.0500,0.003625
27.302,64.0500,0.003625
27.315,64.0500,-0.002417
27.330,64.0500,-0.001208
27.355,64.0500,-0.001208
27.372,64.0500,0.001208
27.387,64.0500,0.000000
27.403,64.0500,-0.003625
27.423,64.0500,-0.002417
27.443,64.0500,-0.002417
27.458,64.0500,-0.002417
27.478,64.0500,0.001208
27.491,64.0500,-0.003625
27.506,64.0500,-0.003625
27.522,64.0500,-0.003625
27.538,64.0500,0.002417
27.555,64.0500,-0.004834
27.570,64.0500,-0.004834
27.586,64.0500,-0.006042
27.601,64.0500,-0.001208
27.618,64.0500,0.000000
27.634,64.0500,0.000000
27.650,64.0500,0.000000
27.667,64.0500,0.002417
27.682,64.0500,-0.007251
27.697,64.0500,0.001208
27.714,64.0500,-0.003625
27.732,64.0500,-0.003625
27.746,64.0500,-0.002417
27.762,64.0500,-0.001208
27.777,64.0500,-0.001208
27.794,64.0500,0.002417
27.809,64.0500,-0.001208
27.827,64.0500,0.000000
27.841,64.0500,-0.001208
27.858,64.0500,0.001208
27.879,64.0500,0.000000
27.904,64.0500,-0.003625
27.920,64.0500,-0.003625
27.935,64.0500,-0.003625
27.951,64.0500,-0.004834
27.968,64.0500,-0.004834
27.983,64.0500,0.003625
28.000,64.0500,-0.002417
28.015,64.0500,0.001208
28.031,64.0500,-0.002417
28.048,64.0500,-0.007251
28.063,64.0500,-0.002417
28.087,64.0500,-0.001208
28.100,64.0500,-0.001208
28.112,64.0500,-0.001208
28.128,64.0500,0.001208
28.143,64.0500,-0.006042
28.159,64.0500,0.000000
28.175,64.0500,0.001208
28.191,64.0500,-0.002417
28.210,64.0500,0.000000
28.223,64.0500,-0.004834
28.239,64.0500,-0.004834
28.255,64.0500,-0.007251
28.273,64.0500,-0.008459
28.288,64.0500,-0.008459
28.308,64.0500,-0.008459
28.319,64.0500,0.000000
28.335,64.0500,0.004834
28.351,64.0500,-0.004834
28.367,64.0500,-0.004834
28.383,64.0500,-0.001208
28.399,64.0500,-0.001208
28.415,64.0500,0.001208
28.431,64.0500,0.002417
28.455,64.0500,-0.002417
28.471,64.0500,-0.006042
28.487,64.0500,-0.006042
28.502,64.0500,0.003625
28.519,64.0500,0.003625
28.535,64.0500,-0.006042
28.554,64.0500,-0.002417
28.567,64.0500,-0.002417
28.583,64.0500,-0.006042
28.598,64.0500,-0.006042
28.615,64.0500,-0.003625
28.632,64.0500,-0.003625
28.646,64.0500,-0.003625
28.667,64.0500,0.000000
28.678,64.0500,-0.004834
28.694,64.0500,-0.001208
28.711,64.0500,0.000000
28.726,64.0500,0.000000
28.745,64.0500,-0.007251
28.758,64.0500,-0.003625
28.775,64.0500,0.006042
28.790,64.0500,0.000000
28.809,64.0500,-0.003625
28.822,64.0500,-0.006042
28.838,64.0500,-0.006042
28.854,64.0500,-0.003625
28.872,64.0500,-0.003625
28.886,64.0500,0.000000
28.901,64.0500,0.002417
28.918,64.0500,0.001208
28.934,64.0500,0.002417
28.950,64.0500,0.001208
28.967,64.0500,0.000000
28.992,64.0500,0.002417
29.011,64.0500,-0.001208
29.023,64.0500,0.001208
29.040,64.0500,-0.001208
29.057,64.0500,-0.003625
29.071,64.0500,-0.009668
29.088,64.0500,0.000000
29.103,64.0500,-0.006042
29.120,64.0500,-0.006042
29.135,64.0500,0.002417
29.151,64.0500,0.000000
29.167,64.0500,-0.001208
29.184,64.0500,-0.002417
29.199,64.0500,-0.002417
29.217,64.0500,0.000000
29.231,64.0500,0.004834
29.247,64.0500,0.004834
29.263,64.0500,-0.002417
29.279,64.0500,-0.001208
29.296,64.0500,-0.001208
29.311,64.0500,0.002417
29.334,64.0500,0.001208
29.357,64.0500,0.000000
29.376,64.0500,0.000000
29.391,64.0500,0.002417
29.407,64.0500,0.002417
29.423,64.0500,-0.003625
29.439,64.0500,0.007251
29.455,64.0500,0.003625
29.472,64.0500,0.003625
29.488,64.0500,0.003625
29.509,64.0500,-0.002417
29.533,64.0500,-0.004834
29.549,64.0500,0.002417
29.565,64.0500,0.003625
29.581,64.0500,0.003625
29.597,64.0500,0.000000
29.613,64.0500,-0.013293
29.629,64.0500,-0.007251
29.645,64.0500,0.002417
29.662,64.0500,-0.004834
29.678,64.0500,-0.004834
29.693,64.0500,-0.007251
29.709,64.0500,-0.007251
29.725,64.0500,0.000000
29.741,64.0500,-0.003625
29.757,64.0500,-0.001208
29.772,64.0500,0.001208
29.789,64.0500,0.002417
29.805,64.0500,0.003625
29.821,64.0500,-0.003625
29.840,64.0500,0.000000
29.854,64.0500,-0.001208
29.868,64.0500,-0.001208
29.885,64.0500,-0.001208
29.901,64.0500,-0.001208
29.917,64.0500,-0.001208
29.934,64.0500,0.000000
29.952,64.0500,0.001208
29.965,64.0500,0.000000
29.980,64.0500,-0.003625
30.000,64.0500,-0.001208
30.015,64.0500,0.001208
30.029,64.0500,-0.003625
30.051,64.0500,0.003625
30.067,64.0500,-0.003625
30.084,64.0500,-0.002417
30.100,64.0500,-0.001208
30.122,64.0500,0.001208
30.141,64.0500,-0.003625
30.156,64.0500,-0.007251
30.174,64.0500,0.001208
30.188,64.0500,0.001208
30.204,64.0500,0.001208
30.220,64.0500,0.003625
30.236,64.0500,0.003625
30.252,64.0500,-0.002417
30.268,64.0500,-0.002417
30.285,64.0500,0.003625
30.300,64.0500,-0.004834
30.317,64.0500,-0.001208
30.332,64.0500,-0.001208
30.351,64.0500,-0.002417
30.366,64.0500,-0.002417
30.380,64.0500,-0.001208
30.397,64.0500,-0.001208
30.413,64.0500,-0.001208
30.429,64.0500,-0.002417
30.444,64.0500,-0.006042
30.469,64.0500,-0.001208
30.487,64.0500,-0.003625
30.508,64.0500,-0.002417
30.530,64.0500,0.001208
30.540,64.0500,0.001208
30.557,64.0500,0.001208
30.573,64.0500,-0.004834
30.591,64.0500,-0.006042
30.615,64.0500,-0.006042
30.631,64.0500,0.000000
30.647,64.0500,-0.002417
30.662,64.0500,-0.001208
30.678,64.0500,-0.001208
30.695,64.0500,-0.001208
30.717,64.0500,-0.007251
30.735,64.0500,-0.001208
30.752,64.0500,0.000000
30.766,64.0500,-0.004834
30.781,64.0500,0.000000
30.791,64.0500,0.003625
30.807,64.0500,-0.002417
30.823,64.0500,-0.004834
30.838,64.0500,-0.002417
30.854,64.0500,0.003625
30.870,64.0500,0.002417
30.886,64.0500,0.002417
30.902,64.0500,-0.001208
30.918,64.0500,-0.001208
30.934,64.0500,-0.004834
30.951,64.0500,-0.004834
30.966,64.0500,0.001208
30.982,64.0500,-0.002417
31.002,64.0500,-0.006042
31.015,64.0500,0.004834
31.030,64.0500,0.000000
31.047,64.0500,-0.006042
31.062,64.0500,-0.004834
31.078,64.0364,-0.004834
31.094,64.0097,0.006042
31.111,63.9806,0.004834
31.135,63.9385,-0.002417
31.152,63.9093,-0.001208
31.167,63.8829,-0.002417
31.183,63.8552,0.000000
31.200,63.8251,0.000000
31.216,63.7986,-0.004834
31.232,63.7709,0.001208
31.247,63.7441,0.000000
31.263,63.7157,-0.002417
31.279,63.6885,0.004834
31.302,63.6460,0.002417
31.320,63.6176,-0.004834
31.335,63.5912,-0.004834
31.351,63.5640,0.004834
31.365,63.5380,0.004834
31.375,63.5221,0.002417
31.392,63.4918,0.000000
31.407,63.4663,0.000000
31.427,63.4314,0.004834
31.439,63.4111,0.003625
31.455,63.3829,0.002417
31.471,63.3554,0.002417
31.487,63.3277,0.002417
31.503,63.2987,-0.003625
31.519,63.2719,0.002417
31.535,63.2444,0.001208
31.551,63.2167,-0.001208
31.567,63.1885,-0.001208
31.583,63.1612,-0.001208
31.600,63.1307,-0.002417
31.615,63.1042,-0.001208
31.631,63.0772,0.001208
31.655,63.0332,0.000000
31.678,62.9961,0.003625
31.694,62.9683,0.002417
31.710,62.9407,0.000000
31.726,62.9127,-0.003625
31.742,62.8832,0.003625
31.757,62.8574,0.003625
31.779,62.8204,0.003625
31.790,62.8014,-0.001208
31.806,62.7730,0.003625
31.822,62.7458,-0.007251
31.839,62.7149,-0.007251
31.854,62.6906,0.000000
31.871,62.6602,0.000000
31.886,62.6341,-0.002417
31.902,62.6074,-0.001208
31.918,62.5770,-0.001208
31.934,62.5508,0.000000
31.950,62.5226,-0.006042
31.966,62.4967,0.000000
31.982,62.4679,0.002417
31.998,62.4403,0.006042
32.017,62.4074,0.003625
32.030,62.3852,0.002417
32.046,62.3574,-0.003625
32.070,62.3145,-0.003625
32.090,62.2805,0.004834
32.110,62.2449,0.006042
32.131,62.2077,0.002417
32.143,62.1883,-0.001208
32.157,62.1625,0.000000
32.174,62.1341,0.002417
32.190,62.1076,0.006042
32.206,62.0777,0.006042
32.223,62.0490,0.003625
32.238,62.0236,0.002417
32.256,61.9922,0.002417
32.270,61.9674,0.002417
32.288,61.9356,0.002417
32.302,61.9125,-0.007251
32.319,61.8830,-0.002417
32.334,61.8559,0.002417
32.351,61.8277,0.002417
32.365,61.8017,0.006042
32.381,61.7741,-0.001208
32.398,61.7449,-0.004834
32.414,61.7175,-0.002417
32.429,61.6906,-0.001208
32.445,61.6632,-0.004834
32.462,61.6343,-0.004834
32.478,61.6062,-0.004834
32.499,61.5687,-0.002417
32.520,61.5340,-0.002417
32.535,61.5069,-0.001208
32.550,61.4811,0.000000
32.564,61.4575,-0.001208
32.576,61.4366,0.009668
32.590,61.4119,-0.002417
32.606,61.3845,0.000000
32.621,61.3577,-0.001208
32.638,61.3283,-0.006042
32.654,61.3013,-0.006042
32.670,61.2723,-0.001208
32.685,61.2466,0.002417
32.702,61.2176,-0.002417
32.717,61.1907,-0.004834
32.733,61.1633,0.001208
32.756,61.1221,0.002417
32.772,61.0956,-0.006042
32.788,61.0679,-0.006042
32.804,61.0401,0.008459
32.821,61.0108,0.000000
32.836,60.9842,0.001208
32.854,60.9537,-0.002417
32.869,60.9285,-0.002417
32.884,60.9012,-0.008459
32.900,60.8731,0.001208
32.916,60.8458,0.003625
32.934,60.8149,0.003625
32.948,60.7902,0.002417
32.968,60.7566,0.002417
32.981,60.7319,0.001208
32.996,60.7064,0.004834
33.013,60.6780,0.006042
33.028,60.6513,-0.006042
33.045,60.6218,-0.003625
33.061,60.5949,-0.003625
33.083,60.5548,-0.003625
33.101,60.5244,0.000000
33.117,60.4966,-0.001208
33.132,60.4702,0.000000
33.145,60.4478,0.004834
33.156,60.4289,0.004834
33.174,60.3978,-0.001208
33.188,60.3723,-0.001208
33.208,60.3393,-0.001208
33.220,60.3182,0.004834
33.236,60.2900,0.004834
33.252,60.2624,0.004834
33.268,60.2350,0.000000
33.291,60.1949,-0.003625
33.307,60.1671,0.002417
33.323,60.1390,0.004834
33.339,60.1117,0.001208
33.355,60.0834,0.004834
33.372,60.0544,-0.003625
33.393,60.0183,-0.003625
33.403,60.0007,-0.003625
33.420,59.9712,0.000000
33.435,59.9441,0.004834
33.451,59.9172,0.002417
33.467,59.8889,0.002417
33.483,59.8605,0.002417
33.501,59.8304,0.002417
33.515,59.8058,-0.006042
33.531,59.7767,0.001208
33.547,59.7509,0.006042
33.563,59.7215,0.004834
33.579,59.6933,0.004834
33.595,59.6672,-0.008459
33.616,59.6300,-0.008459
33.628,59.6091,-0.001208
33.644,59.5821,0.009668
33.659,59.5558,0.002417
33.675,59.5283,0.004834
33.695,59.4929,-0.003625
33.708,59.4701,-0.003625
33.723,59.4447,-0.001208
33.744,59.4081,0.000000
33.756,59.3879,0.003625
33.771,59.3610,0.001208
33.790,59.3286,0.001208
33.815,59.2846,0.000000
33.830,59.2594,-0.003625
33.847,59.2293,0.004834
33.862,59.2041,-0.001208
33.879,59.1734,-0.001208
33.895,59.1470,0.002417
33.915,59.1122,0.000000
33.927,59.0905,0.000000
33.942,59.0639,0.001208
33.966,59.0214,0.004834
33.979,58.9997,-0.001208
33.990,58.9811,-0.001208
34.006,58.9528,-0.001208
34.022,58.9243,0.003625
34.038,58.8986,0.009668
34.054,58.8692,0.000000
34.070,58.8427,-0.001208
34.086,58.8153,0.001208
34.102,58.7875,-0.001208
34.118,58.7580,0.001208
34.134,58.7320,-0.003625
34.150,58.7041,-0.004834
34.165,58.6752,-0.004834
34.181,58.6482,-0.006042
34.197,58.6204,0.001208
34.213,58.5931,0.008459
34.232,58.5580,0.000000
34.246,58.5366,0.001208
34.262,58.5079,0.002417
34.281,58.4763,0.002417
34.293,58.4530,-0.003625
34.310,58.4252,0.001208
34.327,58.3956,0.002417
34.350,58.3554,-0.002417
34.366,58.3265,-0.001208
34.383,58.2993,0.002417
34.398,58.2719,0.006042
34.417,58.2398,0.003625
34.430,58.2162,0.003625
34.449,58.1839,0.001208
34.463,58.1587,0.000000
34.479,58.1320,-0.004834
34.494,58.1049,-0.008459
34.510,58.0776,0.001208
34.530,58.0432,0.004834
34.543,58.0206,0.007251
34.559,58.0001,-0.001208
34.574,58.0001,-0.018127
34.592,58.0001,0.004834
34.606,58.0001,-0.006042
34.623,58.0001,-0.001208
34.638,58.0001,-0.006042
34.657,58.0001,-0.006042
34.671,58.0001,-0.001208
34.690,58.0001,-0.001208
34.702,58.0001,-0.007251
34.718,58.0001,-0.003625
34.734,58.0001,0.001208
34.750,58.0001,0.000000
34.766,58.0001,-0.001208
34.788,58.0001,-0.001208
34.798,58.0001,-0.002417
34.815,58.0001,-0.001208
34.831,58.0001,-0.004834
34.847,58.0001,-0.001208
34.862,58.0001,0.001208
34.878,58.0001,-0.001208
34.901,58.0001,0.002417
34.917,58.0001,-0.002417
34.933,58.0001,0.001208
34.948,58.0001,0.001208
34.965,58.0001,-0.006042
34.980,58.0001,-0.001208
35.000,58.0001,-0.001208
35.012,58.0001,-0.006042
35.029,58.0206,-0.021752
35.044,58.0469,0.001208
35.060,58.0742,-0.002417
35.077,58.1044,-0.002417
35.093,58.1304,0.001208
35.116,58.1720,0.003625
35.136,58.2064,-0.004834
35.156,58.2410,0.001208
35.179,58.2835,-0.004834
35.198,58.3131,-0.004834
35.214,58.3412,0.001208
35.234,58.3770,0.002417
35.253,58.4102,0.002417
35.269,58.4360,0.003625
35.288,58.4711,-0.003625
35.300,58.4906,-0.002417
35.317,58.5197,0.000000
35.333,58.5477,0.001208
35.351,58.5796,0.001208
35.364,58.6018,-0.001208
35.380,58.6298,-0.004834
35.396,58.6574,-0.002417
35.412,58.6852,0.003625
35.435,58.7263,0.001208
35.451,58.7533,-0.003625
35.466,58.7805,-0.003625
35.483,58.8083,-0.006042
35.499,58.8372,0.000000
35.516,58.8659,0.000000
35.534,58.8967,0.007251
35.547,58.9193,0.007251
35.563,58.9481,-0.001208
35.579,58.9754,-0.001208
35.595,59.0044,-0.003625
35.611,59.0309,-0.001208
35.628,59.0610,-0.007251
35.650,59.0987,-0.007251
35.661,59.1174,0.000000
35.676,59.1443,-0.003625
35.691,59.1703,-0.003625
35.707,59.1984,-0.007251
35.731,59.2404,-0.007251
35.742,59.2572,0.002417
35.756,59.2821,-0.001208
35.772,59.3099,0.001208
35.787,59.3364,-0.003625
35.803,59.3648,-0.004834
35.828,59.4076,-0.003625
35.846,59.4385,-0.001208
35.868,59.4767,0.000000
35.889,59.5141,0.000000
35.906,59.5432,-0.001208
35.922,59.5718,0.000000
35.937,59.5967,-0.002417
35.950,59.6196,0.001208
35.974,59.6610,0.001208
35.990,59.6889,-0.003625
36.006,59.7162,0.000000
36.022,59.7441,0.004834
36.039,59.7745,0.004834
36.054,59.8005,-0.003625
36.070,59.8274,0.000000
36.090,59.8629,0.000000
36.102,59.8829,0.001208
36.118,59.9108,-0.003625
36.137,59.9436,0.000000
36.150,59.9667,0.000000
36.166,59.9947,0.001208
36.182,60.0226,0.001208
36.198,60.0499,0.002417
36.214,60.0789,0.004834
36.230,60.1063,0.006042
36.247,60.1355,0.001208
36.262,60.1605,-0.002417
36.278,60.1901,0.002417
36.294,60.2175,0.000000
36.310,60.2444,0.000000
36.326,60.2717,0.007251
36.342,60.3006,0.012084
36.358,60.3272,0.003625
36.379,60.3638,0.003625
36.390,60.3849,0.000000
36.408,60.4142,-0.003625
36.429,60.4518,-0.001208
36.448,60.4839,0.002417
36.462,60.5093,0.002417
36.485,60.5481,-0.006042
36.510,60.5915,-0.007251
36.525,60.6184,0.006042
36.542,60.6463,0.000000
36.556,60.6724,-0.002417
36.573,60.7020,-0.002417
36.589,60.7296,-0.003625
36.611,60.7670,-0.002417
36.629,60.7978,-0.002417
36.644,60.8242,0.004834
36.666,60.8638,0.002417
36.686,60.8972,-0.001208
36.700,60.9224,0.000000
36.718,60.9537,-0.001208
36.732,60.9780,0.001208
36.748,61.0066,0.001208
36.766,61.0358,0.000000
36.780,61.0613,0.002417
36.799,61.0943,0.002417
36.814,61.1194,0.000000
36.828,61.1447,-0.001208
36.844,61.1725,0.000000
36.866,61.2104,0.000000
36.877,61.2295,0.000000
36.893,61.2564,0.002417
36.916,61.2972,-0.004834
36.937,61.3342,-0.002417
36.962,61.3771,0.003625
36.986,61.4180,0.004834
37.005,61.4519,0.004834
37.026,61.4871,-0.002417
37.050,61.5305,-0.003625
37.070,61.5665,-0.010876
37.081,61.5837,0.004834
37.097,61.6129,0.008459
37.113,61.6393,-0.002417
37.130,61.6680,-0.006042
37.145,61.6952,-0.003625
37.161,61.7224,0.000000
37.177,61.7508,-0.001208
37.193,61.7779,0.002417
37.214,61.8134,0.002417
37.226,61.8351,-0.002417
37.241,61.8615,0.000000
37.257,61.8898,0.000000
37.273,61.9168,-0.001208
37.289,61.9454,0.004834
37.305,61.9723,0.004834
37.321,62.0008,0.000000
37.337,62.0278,0.002417
37.355,62.0585,-0.002417
37.370,62.0851,-0.001208
37.385,62.1112,-0.002417
37.409,62.1537,-0.003625
37.421,62.1728,-0.008459
37.434,62.1966,-0.001208
37.450,62.2249,-0.004834
37.465,62.2508,-0.003625
37.482,62.2799,-0.001208
37.499,62.3088,-0.001208
37.513,62.3334,0.000000
37.530,62.3630,0.000000
37.545,62.3897,-0.002417
37.567,62.4271,0.001208
37.591,62.4695,0.000000
37.607,62.4975,-0.002417
37.622,62.5234,-0.010876
37.638,62.5504,0.004834
37.656,62.5826,0.004834
37.671,62.6075,-0.003625
37.691,62.6424,-0.003625
37.702,62.6618,0.000000
37.727,62.7059,-0.007251
37.739,62.7266,-0.002417
37.750,62.7453,0.008459
37.772,62.7838,0.008459
37.782,62.8011,0.001208
37.798,62.8282,-0.001208
37.818,62.8636,-0.002417
37.830,62.8837,0.002417
37.847,62.9132,0.002417
37.862,62.9393,-0.003625
37.878,62.9678,-0.001208
37.896,62.9980,-0.004834
37.910,63.0226,-0.009668
37.927,63.0530,-0.004834
37.942,63.0781,-0.003625
37.963,63.1149,-0.003625
37.974,63.1336,0.000000
37.990,63.1619,-0.002417
38.006,63.1893,-0.002417
38.023,63.2191,-0.002417
38.038,63.2455,-0.004834
38.061,63.2857,-0.006042
38.080,63.3176,-0.002417
38.094,63.3434,0.002417
38.109,63.3693,0.003625
38.122,63.3911,0.000000
38.146,63.4322,-0.002417
38.163,63.4614,0.000000
38.178,63.4882,0.000000
38.194,63.5155,0.001208
38.210,63.5442,0.002417
38.226,63.5712,-0.003625
38.245,63.6042,-0.003625
38.258,63.6266,-0.003625
38.274,63.6549,-0.001208
38.299,63.6976,-0.004834
38.309,63.7149,0.000000
38.322,63.7379,0.000000
38.338,63.7657,0.001208
38.354,63.7933,-0.006042
38.370,63.8215,0.001208
38.386,63.8486,-0.002417
38.402,63.8772,0.000000
38.418,63.9054,-0.002417
38.434,63.9337,-0.001208
38.450,63.9596,-0.002417
38.466,63.9884,-0.002417
38.482,64.0001,0.000000
38.499,64.0001,0.006042
38.514,64.0001,-0.009668
38.534,64.0001,0.002417
38.550,64.0001,0.001208
38.564,64.0001,-0.002417
38.578,64.0001,-0.002417
38.594,64.0001,-0.004834
38.610,64.0001,0.002417
38.626,64.0001,0.007251
38.651,64.0001,0.007251
38.665,64.0001,0.013293
38.680,64.0001,-0.002417
38.691,64.0001,-0.001208
38.706,64.0001,-0.002417
38.721,64.0001,-0.003625
38.738,64.0001,-0.003625
38.754,64.0001,-0.002417
38.769,64.0001,-0.006042
38.785,64.0001,-0.004834
38.802,64.0001,-0.003625
38.818,64.0001,0.000000
38.833,64.0001,-0.001208
38.851,64.0001,-0.001208
38.866,64.0001,0.000000
38.889,64.0001,0.000000
38.911,64.0001,0.004834
38.930,64.0001,-0.004834
38.949,64.0001,-0.004834
38.961,64.0001,-0.002417
38.977,64.0001,-0.006042
38.993,64.0001,-0.001208
39.009,64.0001,-0.002417
39.026,64.0001,0.001208
39.041,64.0001,-0.006042
39.062,64.0001,-0.006042
39.077,64.0001,-0.001208
39.090,64.0001,-0.003625
39.106,64.0001,0.004834
39.121,64.0001,-0.002417
39.137,64.0001,-0.001208
39.154,64.0001,-0.006042
39.169,64.0001,-0.001208
39.186,64.0001,-0.002417
39.210,64.0001,-0.002417
39.225,64.0001,0.001208
39.242,64.0001,-0.003625
39.257,64.0001,-0.002417
39.274,64.0001,-0.003625
39.290,64.0001,-0.003625
39.307,64.0001,-0.001208
39.321,64.0001,0.001208
39.337,64.0001,0.002417
39.354,64.0001,-0.004834
39.369,64.0001,-0.004834
39.385,64.0001,-0.002417
39.401,64.0001,-0.003625
39.417,64.0001,-0.003625
39.433,64.0001,0.000000
39.450,64.0001,0.000000
39.465,64.0001,0.001208
39.483,64.0001,-0.002417
39.499,64.0001,0.000000
39.514,64.0001,0.001208
39.530,64.0001,0.002417
39.546,64.0001,0.000000
39.562,64.0001,0.000000
39.578,64.0001,-0.002417
39.599,64.0001,-0.002417
39.616,64.0001,-0.002417
39.632,64.0001,-0.001208
39.647,64.0001,0.003625
39.660,64.0001,0.003625
39.674,64.0001,-0.006042
39.690,64.0001,-0.002417
39.705,64.0001,-0.003625
39.722,64.0001,0.000000
39.743,64.0001,0.004834
39.758,64.0001,0.002417
39.774,64.0001,-0.001208
39.790,64.0001,-0.006042
39.807,64.0001,-0.002417
39.822,64.0001,0.000000
39.846,64.0001,-0.012084
39.864,64.0001,-0.008459
39.880,64.0001,0.003625
39.901,64.0001,0.001208
39.918,64.0001,0.000000
39.934,64.0001,-0.003625
39.954,64.0001,0.000000
39.966,64.0001,0.000000
39.982,64.0001,-0.007251
39.998,64.0001,-0.001208
40.014,64.0001,0.000000
40.031,64.0001,-0.003625
40.046,64.0001,-0.003625
40.067,64.0001,-0.006042
40.078,64.0001,0.001208
40.094,64.0001,0.002417
40.110,64.0001,0.001208
40.126,64.0001,0.000000
40.143,64.0001,-0.006042
40.158,64.0001,-0.003625
40.174,64.0001,0.000000
40.190,64.0001,-0.007251
40.206,64.0001,-0.007251
40.222,64.0001,-0.001208
40.246,64.0001,-0.002417
40.264,64.0001,0.002417
40.280,64.0001,0.000000
40.295,64.0001,0.000000
40.314,64.0001,0.000000
40.334,64.0001,-0.002417
40.350,64.0001,-0.003625
40.367,64.0001,-0.003625
40.382,64.0001,-0.001208
40.401,64.0001,-0.001208
40.414,64.0001,-0.002417
40.430,64.0001,0.001208
40.446,64.0001,-0.003625
40.462,64.0001,0.001208
40.478,64.0001,-0.001208
40.494,64.0001,0.000000
40.513,64.0001,-0.001208
40.526,64.0001,0.000000
40.542,64.0001,-0.004834
40.558,64.0001,-0.003625
40.577,64.0001,-0.003625
40.590,64.0001,-0.002417
40.614,64.0001,-0.003625
40.630,64.0001,0.002417
40.646,64.0001,-0.001208
40.662,64.0001,-0.002417
40.675,64.0001,0.001208
40.686,64.0001,0.003625
40.702,64.0001,0.000000
40.718,64.0001,-0.007251
40.734,64.0001,-0.003625
40.750,64.0001,0.000000
40.766,64.0001,0.000000
40.783,64.0001,-0.003625
40.797,64.0001,-0.004834
40.822,64.0001,-0.012084
40.837,64.0001,-0.004834
40.853,64.0001,-0.001208
40.869,64.0001,0.000000
40.886,64.0001,0.001208
40.901,64.0001,0.000000
40.922,64.0001,-0.002417
40.933,64.0001,-0.003625
40.950,64.0001,-0.003625
40.965,64.0001,-0.001208
40.983,64.0001,-0.002417
40.997,64.0001,-0.002417
41.014,64.0001,-0.004834
41.029,64.0001,-0.007251
41.050,64.0001,-0.006042
41.060,64.0001,0.000000
41.077,64.0001,0.000000
41.093,64.0001,0.002417
41.108,64.0001,0.001208
41.133,64.0001,0.001208
41.155,64.0001,-0.003625
41.182,64.0001,0.001208
41.202,64.0001,0.000000
41.228,64.0001,-0.003625
41.248,64.0001,-0.007251
41.268,64.0001,-0.001208
41.289,64.0001,-0.003625
41.300,64.0001,-0.006042
41.317,64.0001,-0.006042
41.332,64.0001,0.000000
41.349,64.0001,0.001208
41.374,64.0001,-0.002417
41.389,64.0001,-0.001208
41.407,64.0001,-0.004834
41.421,64.0001,-0.002417
41.437,64.0001,-0.002417
41.454,64.0001,0.000000
41.475,64.0001,0.000000
41.485,64.0001,-0.004834
41.502,64.0001,-0.004834
41.517,64.0001,-0.002417
41.537,64.0001,-0.002417
41.549,64.0001,0.000000
41.566,64.0001,-0.002417
41.581,64.0001,-0.004834
41.599,64.0001,-0.004834
41.613,64.0001,-0.006042
41.630,64.0001,0.002417
41.645,64.0001,-0.002417
41.661,64.0001,0.000000
41.677,64.0001,0.000000
41.694,64.0001,-0.003625
41.709,64.0001,-0.003625
41.725,64.0001,-0.008459
41.741,64.0001,-0.003625
41.758,64.0001,0.000000
41.774,64.0001,0.003625
41.789,64.0001,0.000000
41.809,64.0001,-0.003625
41.821,64.0001,-0.001208
41.837,64.0001,-0.001208
41.853,64.0001,0.000000
41.870,64.0001,0.001208
41.886,64.0001,0.006042
41.901,64.0001,0.000000
41.918,64.0001,-0.002417
41.942,64.0001,-0.003625
41.957,64.0001,-0.003625
41.973,64.0001,0.003625
41.989,64.0001,0.001208
42.009,64.0001,0.001208
42.021,64.0001,-0.003625
42.037,64.0001,-0.010876
42.052,64.0001,0.001208
42.069,64.0001,0.000000
42.085,64.0001,-0.002417
42.109,64.0001,0.000000
42.125,64.0001,-0.001208
42.141,64.0001,-0.003625
42.155,64.0001,-0.003625
42.178,64.0001,0.001208
42.197,64.0001,0.002417
42.213,64.0001,-0.001208
42.229,64.0001,-0.001208
42.245,64.0001,-0.004834
42.261,64.0001,-0.002417
42.277,64.0001,-0.003625
42.293,64.0001,0.000000
42.309,64.0001,-0.001208
42.325,64.0001,0.001208
42.341,64.0001,0.000000
42.357,64.0001,-0.002417
42.374,64.0001,-0.006042
42.390,64.0001,-0.006042
42.405,64.0001,-0.006042
42.421,64.0001,0.002417
42.437,64.0001,0.002417
42.453,64.0001,0.000000
42.469,64.0001,0.001208
42.493,64.0001,0.001208
42.513,64.0001,0.002417
42.527,64.0001,0.002417
42.540,64.0001,0.002417
42.556,64.0001,0.000000
42.572,64.0001,-0.003625
42.588,64.0001,-0.001208
42.604,64.0001,0.002417
42.623,64.0001,-0.001208
42.636,64.0001,0.000000
42.652,64.0001,-0.001208
42.668,64.0001,0.003625
42.684,64.0001,-0.002417
42.700,64.0001,-0.006042
42.719,64.0001,-0.003625
42.732,64.0001,-0.001208
42.748,64.0001,0.001208
42.763,64.0001,0.001208
42.780,64.0001,0.001208
42.796,64.0001,-0.004834
42.812,64.0001,0.002417
42.832,64.0001,0.001208
42.843,64.0001,0.001208
42.860,64.0001,0.001208
42.876,64.0001,0.001208
42.893,64.0001,0.001208
42.908,64.0001,0.001208
42.924,64.0001,-0.001208
42.941,64.0001,-0.001208
42.956,64.0001,-0.001208
42.973,64.0001,-0.008459
42.988,64.0001,-0.006042
43.004,64.0001,0.000000
43.027,64.0001,-0.004834
43.044,64.0001,-0.004834
43.059,64.0001,-0.001208
43.075,64.0001,0.002417
43.091,64.0001,0.001208
43.107,64.0001,0.001208
43.126,64.0001,0.002417
43.139,64.0001,-0.007251
43.155,64.0001,-0.002417
43.171,64.0001,-0.002417
43.186,64.0001,-0.004834
43.203,64.0001,-0.003625
43.219,64.0001,-0.003625
43.235,64.0001,0.003625
43.250,64.0001,0.001208
43.274,64.0001,-0.001208
43.284,64.0001,0.001208
43.299,64.0001,0.001208
43.314,64.0001,0.003625
43.331,64.0001,0.001208
43.346,64.0001,0.001208
43.370,64.0001,-0.003625
43.390,64.0001,-0.002417
43.412,64.0001,-0.006042
43.429,64.0001,-0.006042
43.443,64.0001,0.001208
43.459,64.0001,-0.002417
43.475,64.0001,-0.001208
43.490,64.0001,-0.004834
43.509,64.0001,-0.001208
43.523,64.0001,-0.006042
43.539,64.0001,-0.006042
43.554,64.0001,-0.001208
43.576,64.0001,-0.003625
43.592,64.0001,-0.002417
43.608,64.0001,-0.004834
43.628,64.0001,-0.004834
43.640,64.0001,0.001208
43.656,64.0001,0.002417
43.677,64.0001,-0.003625
43.687,64.0001,-0.006042
43.703,64.0001,0.000000
43.719,64.0001,-0.001208
43.735,64.0001,0.000000
43.752,64.0001,-0.001208
43.767,64.0001,0.000000
43.783,64.0001,0.000000
43.801,64.0001,-0.003625
43.816,64.0001,-0.003625
43.831,64.0001,0.000000
43.848,64.0001,0.000000
43.863,64.0001,-0.001208
43.879,64.0001,-0.001208
43.895,64.0001,0.006042
43.911,64.0001,-0.001208
43.927,64.0001,-0.004834
43.944,64.0001,-0.006042
43.959,64.0001,-0.001208
43.977,64.0001,-0.003625
43.992,64.0001,0.000000
44.007,64.0001,-0.002417
44.024,64.0001,0.000000
44.039,64.0001,0.000000
44.055,64.0001,-0.001208
44.071,64.0001,0.004834
44.087,64.0001,-0.002417
44.103,64.0001,-0.001208
44.119,64.0001,0.000000
44.135,64.0001,-0.006042
44.151,64.0001,-0.002417
44.168,64.0001,-0.001208
44.184,64.0001,-0.002417
44.199,64.0001,0.002417
44.215,64.0001,0.003625
44.231,64.0001,0.003625
44.249,64.0001,-0.003625
44.264,64.0001,-0.003625
44.280,64.0001,-0.003625
44.295,64.0001,0.007251
44.311,64.0001,0.000000
44.327,64.0001,0.002417
44.343,64.0001,0.001208
44.359,64.0001,0.001208
44.375,64.0001,-0.004834
44.391,64.0001,0.000000
44.407,64.0001,0.001208
44.423,64.0001,0.001208
44.439,64.0001,-0.002417
44.455,64.0001,-0.006042
44.471,64.0001,0.000000
44.487,64.0001,0.000000
44.503,64.0001,-0.004834
44.519,64.0001,0.000000
44.536,64.0001,0.000000
44.552,64.0001,-0.004834
44.568,64.0001,-0.003625
44.583,64.0001,-0.001208
44.600,64.0001,-0.001208
44.615,64.0001,-0.003625
44.633,64.0001,-0.002417
44.657,64.0001,0.000000
44.673,64.0001,-0.002417
44.689,64.0001,-0.004834
44.705,64.0001,-0.003625
44.722,64.0001,-0.003625
44.737,64.0001,-0.003625
44.758,64.0001,0.002417
44.769,64.0001,0.006042
44.785,64.0001,0.003625
44.801,64.0001,-0.006042
44.817,64.0001,-0.006042
44.833,64.0001,-0.004834
44.853,64.0001,-0.003625
44.865,64.0001,-0.001208
44.881,64.0001,-0.001208
44.897,64.0001,-0.003625
44.913,64.0001,-0.001208
44.929,64.0001,-0.002417
44.945,64.0001,-0.001208
44.961,64.0001,0.001208
44.978,64.0001,0.002417
45.000,64.0001,0.002417
45.010,64.0001,0.002417
45.025,64.0001,0.001208
45.042,64.0001,-0.001208
45.057,64.0001,-0.004834
45.076,64.0001,0.000000
45.090,64.0001,0.000000
45.105,64.0001,0.000000
45.121,64.0001,-0.001208
45.137,64.0001,-0.002417
45.153,64.0001,0.000000
45.174,64.0001,0.001208
45.198,64.0001,-0.001208
45.214,64.0001,0.000000
45.230,64.0001,-0.002417
45.245,64.0001,-0.007251
45.262,64.0001,-0.002417
45.277,64.0001,-0.004834
45.296,64.0001,-0.007251
45.310,64.0001,0.002417
45.325,64.0001,-0.002417
45.342,64.0001,-0.002417
45.358,64.0001,-0.003625
45.374,64.0001,0.000000
45.390,64.0001,-0.002417
45.406,64.0001,-0.006042
45.421,64.0001,0.002417
45.441,64.0001,0.002417
45.455,64.0001,-0.002417
45.470,64.0001,-0.004834
45.485,64.0001,0.001208
45.502,64.0001,0.000000
45.517,64.0001,0.001208
45.541,64.0001,0.001208
45.560,64.0001,0.002417
45.582,64.0001,0.000000
45.597,64.0001,0.000000
45.616,64.0001,0.000000
45.630,64.0001,0.000000
45.646,64.0001,-0.002417
45.663,64.0001,-0.001208
45.677,64.0001,-0.001208
45.695,64.0001,-0.001208
45.718,64.0001,-0.003625
45.729,64.0001,-0.001208
45.741,64.0001,-0.001208
45.757,64.0001,-0.002417
45.774,64.0001,0.003625
45.789,64.0001,-0.006042
45.806,64.0001,-0.001208
45.822,64.0001,-0.004834
45.838,64.0001,-0.004834
45.853,64.0001,-0.002417
45.871,64.0001,0.003625
45.886,64.0001,0.001208
45.902,64.0001,-0.003625
45.917,64.0001,0.001208
45.934,64.0001,-0.006042
45.950,64.0001,-0.008459
45.966,64.0001,-0.007251
45.981,64.0001,-0.004834
45.997,64.0001,0.003625
46.014,64.0001,0.002417
46.036,64.0001,0.003625
46.056,64.0001,0.001208
46.078,64.0001,-0.003625
46.099,64.0001,0.002417
46.109,64.0001,0.004834
46.126,64.0001,-0.004834
46.141,64.0001,-0.002417
46.160,64.0001,-0.002417
46.175,64.0001,-0.007251
46.189,64.0001,-0.001208
46.205,64.0001,-0.003625
46.221,64.0001,0.001208
46.238,64.0001,-0.003625
46.263,64.0001,0.000000
46.280,64.0001,-0.001208
46.295,64.0001,-0.001208
46.312,64.0001,0.002417
46.327,64.0001,-0.002417
46.343,64.0001,0.000000
46.359,64.0001,-0.002417
46.377,64.0001,-0.004834
46.392,64.0001,0.000000
46.407,64.0001,0.000000
46.428,64.0001,-0.001208
46.440,64.0001,-0.004834
46.455,64.0001,-0.003625
46.472,64.0001,-0.012084
46.488,64.0001,-0.012084
46.504,64.0001,-0.008459
46.527,64.0001,-0.008459
46.548,64.0001,0.004834
46.568,64.0001,0.004834
46.583,64.0001,0.002417
46.603,64.0001,-0.001208
46.617,64.0001,-0.003625
46.631,64.0001,-0.001208
46.650,64.0001,-0.001208
46.663,64.0001,0.002417
46.679,64.0001,0.002417
46.695,64.0001,0.000000
46.712,64.0001,-0.001208
46.727,64.0001,-0.001208
46.743,64.0001,-0.001208
46.767,64.0001,-0.007251
46.792,64.0001,0.000000
46.807,64.0001,0.000000
46.823,64.0001,-0.003625
46.839,64.0001,-0.002417
46.856,64.0001,-0.001208
46.871,64.0001,-0.003625
46.890,64.0001,-0.003625
46.903,64.0001,-0.003625
46.919,64.0001,-0.001208
46.943,64.0001,-0.002417
46.960,64.0001,0.001208
46.976,64.0001,-0.004834
46.991,64.0001,-0.006042
47.004,64.0001,-0.006042
47.014,64.0001,-0.002417
47.032,64.0001,0.003625
47.047,64.0001,0.002417
47.065,64.0001,0.002417
47.079,64.0001,0.006042
47.095,64.0001,0.002417
47.111,64.0001,0.001208
47.128,64.0001,0.001208
47.144,64.0001,0.006042
47.159,64.0001,0.006042
47.184,64.0001,-0.007251
47.207,64.0001,0.003625
47.223,64.0001,-0.004834
47.239,64.0001,-0.002417
47.261,64.0001,-0.002417
47.273,64.0001,-0.003625
47.286,64.0001,0.000000
47.303,64.0001,-0.001208
47.319,64.0001,0.000000
47.336,64.0001,-0.004834
47.351,64.0001,-0.001208
47.367,64.0001,-0.001208
47.383,64.0001,0.002417
47.399,64.0001,0.002417
47.415,64.0001,0.000000
47.433,64.0001,-0.003625
47.446,64.0001,-0.006042
47.463,64.0001,-0.010876
47.479,64.0001,-0.006042
47.495,64.0001,-0.002417
47.512,64.0001,0.006042
47.527,64.0001,0.006042
47.550,64.0001,0.006042
47.574,64.0001,0.001208
47.591,64.0001,-0.004834
47.606,64.0001,-0.008459
47.624,64.0001,-0.007251
47.638,64.0001,-0.002417
47.659,64.0001,-0.002417
47.670,64.0001,-0.002417
47.687,64.0001,-0.004834
47.703,64.0001,-0.002417
47.718,64.0001,-0.002417
47.736,64.0001,-0.004834
47.750,64.0001,0.004834
47.771,64.0001,0.000000
47.783,64.0001,0.003625
47.799,64.0001,0.003625
47.815,64.0001,-0.001208
47.832,64.0001,-0.001208
47.856,64.0001,-0.002417
47.872,64.0001,0.000000
47.888,64.0001,0.000000
47.904,64.0001,0.000000
47.924,64.0001,-0.004834
47.937,64.0001,0.001208
47.952,64.0001,0.002417
47.968,64.0001,0.002417
47.985,64.0001,0.004834
48.001,64.0001,0.001208
48.019,64.0001,0.001208
48.032,64.0001,0.000000
48.048,64.0001,-0.004834
48.066,64.0001,-0.003625
48.080,64.0001,-0.002417
48.099,64.0001,-0.004834
48.113,64.0001,0.003625
48.129,64.0001,0.003625
48.144,64.0001,-0.001208
48.164,64.0001,-0.002417
48.177,64.0001,0.000000
48.192,64.0001,0.001208
48.208,64.0001,0.001208
48.225,64.0001,-0.001208
48.242,64.0001,-0.001208
48.263,64.0001,-0.006042
48.282,64.0001,-0.004834
48.297,64.0001,-0.001208
48.316,64.0001,-0.002417
48.337,64.0001,-0.002417
48.353,64.0001,-0.002417
48.373,64.0001,-0.006042
48.396,64.0001,0.000000
48.413,64.0001,0.000000
48.428,64.0001,0.006042
48.444,64.0001,0.006042
48.461,64.0001,0.006042
48.476,64.0001,-0.006042
48.497,64.0001,-0.001208
48.512,64.0001,-0.001208
48.525,64.0001,-0.001208
48.540,64.0001,-0.002417
48.560,64.0001,0.000000
48.573,64.0001,-0.006042
48.588,64.0001,-0.006042
48.607,64.0001,-0.001208
48.621,64.0001,-0.001208
48.636,64.0001,0.001208
48.653,64.0001,0.004834
48.668,64.0001,0.004834
48.684,64.0001,-0.002417
48.700,64.0001,-0.001208
48.716,64.0001,0.000000
48.732,64.0001,-0.006042
48.751,64.0001,-0.002417
48.764,64.0001,0.000000
48.780,64.0001,0.000000
48.799,64.0001,-0.002417
48.813,64.0001,-0.001208
48.828,64.0001,-0.006042
48.847,64.0001,-0.002417
48.863,64.0001,0.001208
48.876,64.0001,-0.003625
48.900,64.0001,-0.001208
48.923,64.0001,-0.001208
48.939,64.0001,-0.003625
48.955,64.0001,0.000000
48.971,64.0001,0.002417
48.987,64.0001,0.002417
49.003,64.0001,0.000000
49.022,64.0001,0.004834
49.035,64.0001,-0.001208
49.051,64.0001,-0.003625
49.067,64.0001,0.000000
49.085,64.0001,0.002417
49.100,64.0001,0.002417
49.115,64.0001,0.001208
49.134,64.0001,0.001208
49.147,64.0001,0.000000
49.163,64.0001,-0.003625
49.179,64.0001,0.002417
49.195,64.0001,-0.004834
49.211,64.0001,-0.006042
49.227,64.0001,-0.002417
49.243,64.0001,-0.001208
49.259,64.0001,0.003625
49.275,64.0001,-0.003625
49.290,64.0001,0.002417
49.314,64.0001,0.003625
49.334,64.0001,-0.003625
49.355,64.0001,0.002417
49.377,64.0001,-0.008459
49.395,64.0001,-0.004834
49.409,64.0001,-0.003625
49.426,64.0001,-0.002417
49.440,64.0001,-0.003625
49.463,64.0001,-0.004834
49.478,64.0001,-0.002417
49.494,64.0001,-0.006042
49.510,64.0001,-0.001208
49.527,64.0001,-0.001208
49.542,64.0001,-0.001208
49.560,64.0001,-0.001208
49.574,64.0001,-0.002417
49.590,64.0001,-0.002417
49.606,64.0001,-0.001208
49.622,64.0001,-0.006042
49.640,64.0001,-0.006042
49.654,64.0001,0.002417
49.670,64.0001,0.000000
49.685,64.0001,0.001208
49.702,64.0001,-0.001208
49.718,64.0001,0.000000
49.740,64.0001,0.000000
49.752,64.0001,0.001208
49.765,64.0001,0.002417
49.782,64.0001,0.003625
49.797,64.0001,0.001208
49.814,64.0001,0.000000
49.830,64.0001,-0.001208
49.845,64.0001,-0.002417
49.861,64.0001,0.003625
49.878,64.0001,0.003625
49.893,64.0001,0.001208
49.917,64.0001,-0.002417
49.936,64.0001,0.001208
49.958,64.0001,-0.003625
49.981,64.0001,0.000000
50.004,64.0001,0.000000
50.020,64.0001,-0.003625
50.036,64.0001,-0.003625
50.052,64.0001,0.006042
50.069,64.0001,0.002417
50.085,64.0001,0.000000
50.106,64.0001,-0.002417
50.118,63.9939,-0.002417
50.133,63.9676,0.008459
50.157,63.9258,-0.004834
50.182,63.8825,-0.002417
50.196,63.8572,-0.002417
50.212,63.8299,-0.004834
50.238,63.7856,-0.001208
50.266,63.7332,0.002417
50.277,63.7165,-0.002417
50.293,63.6896,-0.001208
50.310,63.6606,0.012084
50.324,63.6356,0.002417
50.342,63.6046,-0.001208
50.357,63.5790,0.006042
50.381,63.5372,-0.002417
50.399,63.5047,-0.001208
50.421,63.4679,-0.001208
50.436,63.4413,0.004834
50.453,63.4111,0.000000
50.469,63.3845,0.002417
50.490,63.3472,0.002417
50.500,63.3286,-0.001208
50.517,63.2982,0.000000
50.540,63.2608,0.002417
50.557,63.2319,0.007251
50.572,63.2045,-0.003625
50.590,63.1741,-0.004834
50.604,63.1493,-0.003625
50.620,63.1211,-0.001208
50.636,63.0941,0.001208
50.652,63.0657,0.002417
50.668,63.0386,0.003625
50.685,63.0100,-0.003625
50.701,62.9806,-0.003625
50.717,62.9534,0.000000
50.736,62.9201,0.000000
50.748,62.8996,0.000000
50.764,62.8703,-0.003625
50.780,62.8430,0.003625
50.797,62.8138,0.003625
50.812,62.7886,-0.003625
50.828,62.7591,0.000000
50.844,62.7330,0.004834
50.860,62.7050,0.004834
50.878,62.6744,0.006042
50.893,62.6483,0.002417
50.909,62.6188,-0.002417
50.924,62.5943,0.000000
50.941,62.5637,0.000000
50.956,62.5389,0.006042
50.972,62.5105,0.001208
50.988,62.4830,0.004834
51.005,62.4532,0.003625
51.020,62.4266,0.003625
51.036,62.3997,0.002417
51.066,62.3477,0.004834
51.083,62.3177,0.003625
51.099,62.2899,0.002417
51.114,62.2644,0.001208
51.131,62.2340,0.002417
51.147,62.2078,0.002417
51.168,62.1698,-0.004834
51.188,62.1357,0.002417
51.202,62.1116,0.001208
51.218,62.0825,0.003625
51.230,62.0617,0.003625
51.243,62.0395,-0.002417
51.257,62.0131,-0.001208
51.275,61.9823,0.006042
51.290,61.9589,0.004834
51.306,61.9301,0.000000
51.322,61.9023,0.000000
51.338,61.8752,0.003625
51.354,61.8460,0.001208
51.371,61.8172,0.000000
51.385,61.7926,0.000000
51.402,61.7644,0.003625
51.423,61.7265,0.003625
51.434,61.7082,0.002417
51.450,61.6809,0.001208
51.466,61.6523,0.001208
51.483,61.6234,0.001208
51.498,61.5969,0.002417
51.514,61.5698,0.003625
51.530,61.5413,0.001208
51.551,61.5043,0.001208
51.565,61.4814,0.002417
51.578,61.4572,0.003625
51.595,61.4289,0.006042
51.610,61.4036,0.001208
51.626,61.3746,0.001208
51.642,61.3476,-0.003625
51.658,61.3203,-0.003625
51.674,61.2923,-0.004834
51.690,61.2627,-0.004834
51.706,61.2362,-0.001208
51.723,61.2048,0.004834
51.738,61.1814,0.004834
51.754,61.1519,0.004834
51.770,61.1251,-0.007251
51.786,61.0982,-0.003625
51.802,61.0686,0.000000
51.818,61.0414,0.000000
51.834,61.0135,0.003625
51.849,60.9870,0.002417
51.866,60.9579,0.002417
51.882,60.9306,-0.003625
51.898,60.9023,0.000000
51.914,60.8758,-0.003625
51.930,60.8460,-0.003625
51.946,60.8182,-0.001208
51.968,60.7804,0.000000
51.989,60.7437,0.009668
52.010,60.7080,0.002417
52.033,60.6684,0.002417
52.051,60.6369,-0.001208
52.066,60.6112,-0.001208
52.089,60.5717,0.000000
52.105,60.5423,0.006042
52.122,60.5140,-0.002417
52.140,60.4813,-0.007251
52.165,60.4372,-0.003625
52.181,60.4112,0.000000
52.196,60.3845,0.001208
52.212,60.3569,0.000000
52.228,60.3287,0.001208
52.244,60.3013,0.002417
52.266,60.2639,0.000000
52.277,60.2448,0.000000
52.293,60.2167,0.000000
52.308,60.1903,0.006042
52.324,60.1623,-0.001208
52.341,60.1338,-0.003625
52.357,60.1065,-0.002417
52.372,60.0792,-0.004834
52.389,60.0503,-0.002417
52.404,60.0236,0.000000
52.421,59.9953,-0.003625
52.436,59.9668,-0.002417
52.461,59.9234,0.003625
52.483,59.8860,-0.001208
52.508,59.8401,0.004834
52.532,59.8017,0.008459
52.555,59.7619,0.008459
52.577,59.7222,0.002417
52.596,59.6905,0.004834
52.615,59.6568,0.002417
52.628,59.6349,0.002417
52.647,59.6003,0.001208
52.660,59.5791,0.001208
52.677,59.5505,-0.003625
52.698,59.5135,0.000000
52.723,59.4705,-0.001208
52.738,59.4447,-0.001208
52.753,59.4180,0.000000
52.769,59.3900,0.000000
52.785,59.3622,-0.003625
52.802,59.3333,-0.004834
52.820,59.3022,0.000000
52.833,59.2789,0.000000
52.849,59.2497,-0.006042
52.865,59.2233,-0.001208
52.882,59.1949,0.000000
52.899,59.1624,-0.001208
52.913,59.1400,-0.001208
52.933,59.1052,0.000000
52.947,59.0822,-0.006042
52.961,59.0566,-0.006042
52.986,59.0136,0.004834
53.005,58.9802,-0.004834
53.025,58.9445,0.000000
53.048,58.9051,-0.002417
53.058,58.8878,-0.003625
53.074,58.8608,0.000000
53.090,58.8330,0.004834
53.105,58.8066,0.000000
53.122,58.7774,-0.002417
53.137,58.7503,-0.003625
53.155,58.7196,0.006042
53.169,58.6958,0.009668
53.185,58.6669,0.004834
53.202,58.6382,0.002417
53.217,58.6125,-0.001208
53.233,58.5830,0.001208
53.257,58.5425,0.002417
53.273,58.5148,0.000000
53.289,58.4867,0.003625
53.305,58.4597,0.003625
53.321,58.4307,0.001208
53.337,58.4041,0.001208
53.356,58.3700,0.000000
53.369,58.3486,0.002417
53.385,58.3195,0.001208
53.401,58.2919,0.001208
53.417,58.2648,0.000000
53.433,58.2374,0.001208
53.449,58.2077,0.001208
53.465,58.1813,0.000000
53.481,58.1542,0.006042
53.501,58.1181,0.000000
53.513,58.0985,0.001208
53.529,58.0695,0.002417
53.545,58.0432,-0.003625
53.561,58.0146,-0.001208
53.577,57.9874,0.001208
53.598,57.9501,0.001208
53.609,57.9501,-0.009668
53.626,57.9501,-0.018127
53.641,57.9501,0.002417
53.657,57.9501,-0.006042
53.673,57.9501,-0.001208
53.689,57.9501,-0.003625
53.709,57.9501,0.002417
53.721,57.9501,0.004834
53.737,57.9501,0.004834
53.753,57.9501,0.003625
53.769,57.9501,-0.001208
53.793,57.9501,-0.006042
53.809,57.9501,-0.006042
53.824,57.9501,-0.002417
53.841,57.9501,-0.002417
53.858,57.9501,0.002417
53.872,57.9501,0.004834
53.889,57.9501,0.000000
53.905,57.9501,-0.003625
53.920,57.9501,0.003625
53.936,57.9501,-0.001208
53.952,57.9501,-0.001208
53.969,57.9501,0.004834
53.985,57.9501,0.001208
54.005,57.9501,0.001208
54.017,57.9501,0.001208
54.033,57.9501,-0.001208
54.049,57.9501,-0.001208
54.066,57.9501,0.000000
54.081,57.9661,-0.024169
54.097,57.9932,-0.024169
54.112,58.0197,0.000000
54.128,58.0478,-0.004834
54.150,58.0853,-0.001208
54.163,58.1072,0.001208
54.176,58.1304,0.006042
54.201,58.1733,-0.002417
54.223,58.2124,-0.003625
54.246,58.2528,-0.003625
54.257,58.2706,0.002417
54.273,58.2992,0.000000
54.290,58.3274,0.002417
54.304,58.3529,0.002417
54.326,58.3912,0.007251
54.342,58.4189,-0.003625
54.359,58.4485,-0.004834
54.374,58.4743,0.000000
54.391,58.5035,0.001208
54.406,58.5299,0.001208
54.423,58.5594,-0.001208
54.438,58.5854,-0.001208
54.456,58.6167,-0.002417
54.471,58.6421,0.002417
54.487,58.6694,-0.001208
54.502,58.6963,0.006042
54.518,58.7245,0.002417
54.535,58.7547,0.000000
54.550,58.7799,-0.001208
54.567,58.8096,-0.001208
54.582,58.8351,-0.006042
54.603,58.8721,0.001208
54.615,58.8923,0.000000
54.633,58.9261,-0.004834
54.649,58.9511,-0.001208
54.663,58.9761,-0.006042
54.686,59.0161,-0.002417
54.698,59.0374,-0.002417
54.711,59.0592,-0.002417
54.733,59.0982,-0.002417
54.744,59.1160,0.000000
54.759,59.1421,-0.001208
54.783,59.1846,0.003625
54.806,59.2239,-0.004834
54.823,59.2532,0.002417
54.839,59.2808,0.001208
54.854,59.3074,-0.001208
54.876,59.3463,-0.001208
54.893,59.3742,-0.001208
54.908,59.4023,-0.001208
54.924,59.4292,-0.001208
54.940,59.4580,0.001208
54.956,59.4849,-0.001208
54.974,59.5177,-0.010876
54.989,59.5417,-0.010876
55.005,59.5696,-0.008459
55.020,59.5959,-0.003625
55.036,59.6233,-0.003625
55.052,59.6527,-0.003625
55.069,59.6818,0.000000
55.084,59.7076,-0.004834
55.099,59.7348,-0.004834
55.116,59.7634,-0.006042
55.133,59.7918,0.002417
55.148,59.8185,-0.002417
55.164,59.8455,0.001208
55.180,59.8752,-0.002417
55.196,59.9020,0.000000
55.216,59.9367,-0.001208
55.229,59.9586,-0.001208
55.245,59.9860,-0.004834
55.269,60.0277,-0.006042
55.289,60.0638,0.007251
55.308,60.0961,-0.002417
55.324,60.1242,0.002417
55.350,60.1701,-0.003625
55.372,60.2084,0.000000
55.388,60.2343,0.002417
55.404,60.2622,0.001208
55.429,60.3073,-0.002417
55.445,60.3332,0.000000
55.461,60.3610,-0.001208
55.477,60.3897,-0.001208
55.493,60.4176,0.002417
55.509,60.4444,0.001208
55.527,60.4767,0.000000
55.542,60.5012,0.002417
55.557,60.5283,-0.001208
55.578,60.5659,-0.001208
55.595,60.5956,0.004834
55.611,60.6220,0.000000
55.633,60.6605,-0.001208
55.654,60.6969,-0.004834
55.669,60.7226,-0.007251
55.689,60.7572,-0.009668
55.700,60.7774,0.001208
55.718,60.8081,-0.001208
55.734,60.8356,-0.004834
55.749,60.8608,0.003625
55.765,60.8898,-0.001208
55.781,60.9163,-0.001208
55.799,60.9476,0.000000
55.813,60.9728,0.001208
55.829,61.0003,0.004834
55.850,61.0374,0.001208
55.861,61.0552,0.003625
55.878,61.0854,0.003625
55.893,61.1112,0.000000
55.914,61.1483,-0.003625
55.925,61.1661,-0.001208
55.955,61.2201,-0.001208
55.972,61.2491,-0.001208
55.988,61.2768,0.004834
56.003,61.3033,-0.006042
56.021,61.3329,-0.007251
56.036,61.3610,-0.004834
56.052,61.3868,-0.007251
56.068,61.4153,-0.007251
56.083,61.4420,-0.001208
56.100,61.4709,-0.002417
56.115,61.4975,-0.002417
56.132,61.5282,-0.002417
56.148,61.5542,-0.001208
56.163,61.5820,0.001208
56.180,61.6114,0.001208
56.196,61.6380,-0.003625
56.212,61.6658,-0.004834
56.227,61.6922,0.002417
56.249,61.7313,-0.002417
56.261,61.7514,-0.006042
56.276,61.7766,0.001208
56.292,61.8037,0.001208
56.309,61.8342,0.001208
56.324,61.8605,0.003625
56.340,61.8874,-0.001208
56.357,61.9171,-0.002417
56.372,61.9435,0.000000
56.387,61.9697,-0.001208
56.403,61.9973,0.007251
56.420,62.0267,0.000000
56.435,62.0533,-0.006042
56.451,62.0808,-0.007251
56.479,62.1288,-0.002417
56.494,62.1546,-0.001208
56.509,62.1821,0.002417
56.525,62.2093,-0.003625
56.542,62.2397,-0.006042
56.557,62.2647,-0.001208
56.577,62.2991,-0.001208
56.590,62.3219,-0.003625
56.606,62.3494,0.001208
56.622,62.3770,0.002417
56.641,62.4113,0.001208
56.653,62.4317,0.004834
56.669,62.4608,-0.003625
56.685,62.4873,0.000000
56.701,62.5148,0.001208
56.718,62.5434,0.001208
56.733,62.5708,0.001208
56.750,62.6001,0.002417
56.767,62.6289,0.002417
56.781,62.6549,0.004834
56.797,62.6813,-0.001208
56.813,62.7092,0.002417
56.831,62.7431,-0.001208
56.846,62.7663,-0.006042
56.861,62.7934,-0.001208
56.877,62.8202,0.002417
56.894,62.8494,-0.002417
56.910,62.8768,-0.002417
56.931,62.9139,0.002417
56.949,62.9462,0.000000
56.964,62.9730,0.000000
56.980,62.9992,0.000000
56.996,63.0273,-0.004834
57.020,63.0699,-0.001208
57.037,63.0984,-0.004834
57.053,63.1250,0.003625
57.068,63.1515,0.003625
57.084,63.1809,0.000000
57.100,63.2079,0.000000
57.116,63.2366,0.000000
57.133,63.2644,-0.009668
57.148,63.2915,-0.009668
57.164,63.3193,0.000000
57.180,63.3462,-0.002417
57.199,63.3787,-0.001208
57.212,63.4018,0.002417
57.228,63.4296,-0.003625
57.244,63.4573,-0.001208
57.265,63.4934,-0.002417
57.277,63.5148,-0.001208
57.292,63.5404,0.001208
57.311,63.5749,-0.001208
57.326,63.5997,-0.003625
57.340,63.6250,-0.007251
57.360,63.6586,-0.007251
57.372,63.6796,-0.002417
57.388,63.7090,-0.001208
57.404,63.7351,0.000000
57.425,63.7721,-0.003625
57.436,63.7907,-0.003625
57.452,63.8207,-0.004834
57.468,63.8473,-0.004834
57.485,63.8775,-0.004834
57.500,63.9017,0.003625
57.516,63.9306,0.003625
57.532,63.9501,0.012084
57.548,63.9501,-0.002417
57.571,63.9501,-0.001208
57.587,63.9501,0.002417
57.602,63.9501,-0.004834
57.619,63.9501,0.001208
57.636,63.9501,0.000000
57.651,63.9501,-0.001208
57.669,63.9501,-0.001208
57.683,63.9501,-0.003625
57.699,63.9501,0.002417
57.716,63.9501,0.006042
57.731,63.9501,-0.004834
57.750,63.9501,-0.004834
57.764,63.9501,-0.001208
57.779,63.9501,-0.002417
57.795,63.9501,-0.006042
57.812,63.9501,0.000000
57.827,63.9501,0.000000
57.849,63.9501,0.000000
57.870,63.9501,0.001208
57.891,63.9501,0.000000
57.909,63.9501,0.000000
57.923,63.9501,-0.002417
57.940,63.9501,0.000000
57.955,63.9501,0.001208
57.971,63.9501,-0.003625
57.987,63.9501,-0.003625
58.003,63.9501,0.002417
58.021,63.9501,0.001208
58.035,63.9501,-0.001208
58.051,63.9501,0.002417
58.068,63.9501,0.000000
58.083,63.9501,-0.009668
58.106,63.9501,0.000000
58.123,63.9501,0.000000
