Elapsed Time (s),Position (mm),Force (N)
-0.016,64.9501,-0.001045
0.000,64.9501,-0.001045
0.016,64.9501,-0.001045
0.031,64.9501,-0.001045
0.048,64.9501,-0.001045
0.075,64.9501,-0.001045
0.090,64.9501,-0.001045
0.105,64.9501,-0.001045
0.121,64.9501,-0.001045
0.138,64.9501,-0.001045
0.153,64.9501,-0.001045
0.169,64.9501,-0.001045
0.185,64.9501,-0.001045
0.202,64.9501,-0.001045
0.218,64.9501,-0.001045
0.234,64.9501,-0.001045
0.249,64.9501,-0.001045
0.269,64.9501,-0.001045
0.293,64.9501,-0.001045
0.313,64.9501,-0.001017
0.330,64.9501,-0.001017
0.346,64.9501,-0.001017
0.368,64.9501,-0.001017
0.386,64.9501,-0.001017
0.401,64.9501,-0.001017
0.417,64.9501,-0.001017
0.433,64.9501,-0.001017
0.464,64.9501,-0.001017
0.479,64.9501,-0.001017
0.510,64.9501,-0.001017
0.526,64.9501,-0.001017
0.541,64.9501,-0.001017
0.556,64.9501,-0.001017
0.588,64.9501,-0.001017
0.619,64.9501,-0.001035
0.634,64.9501,-0.001035
0.665,64.9501,-0.001035
0.683,64.9501,-0.001035
0.698,64.9501,-0.001035
0.727,64.9501,-0.001035
0.746,64.9501,-0.001035
0.762,64.9501,-0.001035
0.778,64.9501,-0.001035
0.793,64.9501,-0.001035
0.810,64.9501,-0.001035
0.826,64.9501,-0.001035
0.841,64.9501,-0.001054
0.858,64.9501,-0.001054
0.874,64.9501,-0.001054
0.890,64.9501,-0.001054
0.906,64.9501,-0.001054
0.922,64.9501,-0.001054
0.938,64.9501,-0.001054
0.953,64.9501,-0.001054
0.969,64.9501,-0.001054
0.985,64.9501,-0.001054
1.002,64.9501,-0.001054
1.017,64.9501,-0.001054
1.033,64.9501,-0.001054
1.049,64.9501,-0.001054
1.066,64.9501,-0.001054
1.081,64.9501,-0.001035
1.098,64.9501,-0.001035
1.130,64.9501,-0.001035
1.146,64.9501,-0.001035
1.173,64.9501,-0.001035
1.191,64.9501,-0.001035
1.206,64.9501,-0.001035
1.222,64.9501,-0.001035
1.253,64.9501,-0.001035
1.283,64.9501,-0.001035
1.307,64.9501,-0.001035
1.330,64.9501,-0.000998
1.348,64.9501,-0.000998
1.364,64.9501,-0.000998
1.384,64.9501,-0.000998
1.406,64.9501,-0.000998
1.428,64.9501,-0.000998
1.444,64.9501,-0.000998
1.459,64.9501,-0.000998
1.475,64.9501,-0.000998
1.492,64.9501,-0.000998
1.508,64.9501,-0.000998
1.523,64.9501,-0.000998
1.540,64.9501,-0.000998
1.556,64.9501,-0.000998
1.571,64.9501,-0.000988
1.587,64.9501,-0.000988
1.603,64.9501,-0.000988
1.619,64.9501,-0.000988
1.635,64.9501,-0.000988
1.651,64.9501,-0.000988
1.668,64.9501,-0.000988
1.696,64.9501,-0.000988
1.712,64.9501,-0.000988
1.728,64.9501,-0.000988
1.744,64.9501,-0.000988
1.760,64.9501,-0.000988
1.776,64.9501,-0.000988
1.792,64.9501,-0.000988
1.808,64.9501,-0.000988
1.824,64.9501,-0.001035
1.840,64.9501,-0.001035
1.856,64.9501,-0.001035
1.872,64.9501,-0.001035
1.888,64.9501,-0.001035
1.904,64.9501,-0.001035
1.920,64.9501,-0.001035
1.936,64.9501,-0.001035
1.953,64.9501,-0.001035
1.968,64.9501,-0.001035
1.984,64.9501,-0.001035
2.000,64.9501,-0.001035
2.016,64.9501,-0.001035
2.033,64.9501,-0.001035
2.048,64.9501,-0.001035
2.064,64.9501,-0.001054
2.080,64.9501,-0.001054
2.096,64.9501,-0.001054
2.112,64.9501,-0.001054
2.128,64.9501,-0.001054
2.144,64.9501,-0.001054
2.160,64.9501,-0.001054
2.176,64.9501,-0.001054
2.192,64.9501,-0.001054
2.224,64.9501,-0.001054
2.239,64.9501,-0.001054
2.255,64.9501,-0.001054
2.272,64.9501,-0.001054
2.303,64.9501,-0.001054
2.319,64.9501,-0.001073
2.335,64.9501,-0.001073
2.351,64.9501,-0.001073
2.367,64.9501,-0.001073
2.383,64.9501,-0.001073
2.399,64.9501,-0.001073
2.415,64.9501,-0.001073
2.431,64.9501,-0.001073
2.447,64.9501,-0.001073
2.463,64.9501,-0.001073
2.479,64.9501,-0.001073
2.495,64.9501,-0.001073
2.511,64.9501,-0.001073
2.527,64.9501,-0.001073
2.543,64.9501,-0.001073
2.559,64.9501,-0.001064
2.575,64.9501,-0.001064
2.592,64.9501,-0.001064
2.607,64.9501,-0.001064
2.623,64.9501,-0.001064
2.639,64.9501,-0.001064
2.655,64.9501,-0.001064
2.671,64.9501,-0.001064
2.687,64.9501,-0.001064
2.703,64.9501,-0.001064
2.719,64.9501,-0.001064
2.746,64.9501,-0.001064
2.761,64.9501,-0.001064
2.777,64.9501,-0.001064
2.793,64.9501,-0.001064
2.809,64.9501,-0.001083
2.825,64.9501,-0.001083
2.841,64.9501,-0.001083
2.857,64.9501,-0.001083
2.873,64.9501,-0.001083
2.889,64.9501,-0.001083
2.905,64.9501,-0.001083
2.921,64.9501,-0.001083
2.937,64.9501,-0.001083
2.953,64.9501,-0.001083
2.969,64.9501,-0.001083
2.985,64.9501,-0.001083
3.001,64.9501,-0.001083
3.017,64.9501,-0.001083
3.035,64.9501,-0.001083
3.065,64.9501,-0.001073
3.080,64.9501,-0.001073
3.097,64.9501,-0.001073
3.113,64.9501,-0.001073
3.129,64.9501,-0.001073
3.144,64.9501,-0.001073
3.161,64.9501,-0.001073
3.188,64.9501,-0.001073
3.209,64.9501,-0.001073
3.224,64.9501,-0.001073
3.241,64.9501,-0.001073
3.257,64.9501,-0.001073
3.273,64.9501,-0.001073
3.289,64.9501,-0.001073
3.305,64.9501,-0.001073
3.320,64.9501,-0.001073
3.336,64.9501,-0.001064
3.353,64.9501,-0.001064
3.368,64.9501,-0.001064
3.385,64.9501,-0.001064
3.400,64.9501,-0.001064
3.417,64.9501,-0.001064
3.433,64.9501,-0.001064
3.449,64.9501,-0.001064
3.465,64.9501,-0.001064
3.481,64.9501,-0.001064
3.498,64.9501,-0.001064
3.527,64.9501,-0.001064
3.545,64.9501,-0.001064
3.560,64.9501,-0.001064
3.576,64.9501,-0.001064
3.593,64.9501,-0.001120
3.610,64.9501,-0.001120
3.629,64.9501,-0.001120
3.656,64.9501,-0.001120
3.673,64.9501,-0.001120
3.702,64.9501,-0.001120
3.720,64.9501,-0.001120
3.736,64.9501,-0.001120
3.753,64.9501,-0.001120
3.768,64.9501,-0.001120
3.784,64.9501,-0.001120
3.807,64.9501,-0.001120
3.823,64.9501,-0.001120
3.839,64.9501,-0.001177
3.855,64.9501,-0.001177
3.874,64.9501,-0.001177
3.900,64.9501,-0.001177
3.920,64.9501,-0.001177
3.936,64.9501,-0.001177
3.952,64.9501,-0.001177
3.968,64.9501,-0.001177
3.984,64.9501,-0.001177
4.000,64.9501,-0.001177
4.016,64.9501,-0.001177
4.031,64.9501,-0.001177
4.047,64.9501,-0.001177
4.073,64.9496,-0.001177
4.100,64.9485,-0.001205
4.117,64.9476,-0.001205
4.133,64.9466,-0.001205
4.163,64.9440,-0.001205
4.179,64.9423,-0.001205
4.210,64.9388,-0.001205
4.241,64.9343,-0.001205
4.271,64.9294,-0.001205
4.287,64.9263,-0.001205
4.303,64.9233,-0.001205
4.319,64.9198,-0.001205
4.336,64.9163,-0.001205
4.359,64.9106,-0.000866
4.375,64.9069,-0.000866
4.390,64.9028,-0.000866
4.407,64.8981,-0.000866
4.423,64.8937,-0.000866
4.439,64.8889,-0.000866
4.454,64.8841,-0.000866
4.470,64.8789,-0.000866
4.487,64.8731,-0.000866
4.517,64.8626,-0.000866
4.534,64.8566,-0.000866
4.552,64.8493,-0.000866
4.579,64.8387,0.000565
4.598,64.8309,0.000565
4.614,64.8238,0.000565
4.630,64.8169,0.000565
4.646,64.8097,0.000565
4.662,64.8021,0.000565
4.678,64.7944,0.000565
4.694,64.7862,0.000565
4.710,64.7784,0.000565
4.726,64.7704,0.000565
4.742,64.7616,0.000565
4.758,64.7530,0.000565
4.774,64.7442,0.000565
4.791,64.7347,0.000565
4.806,64.7257,0.000565
4.822,64.7165,0.000461
4.838,64.7069,0.000461
4.854,64.6971,0.000461
4.870,64.6870,0.000461
4.886,64.6770,0.000461
4.916,64.6573,0.000461
4.931,64.6470,0.000461
4.947,64.6362,0.000461
4.963,64.6253,0.000461
4.979,64.6134,0.000461
4.995,64.6022,0.000461
5.011,64.5908,0.000461
5.028,64.5784,0.000461
5.045,64.5656,0.000461
5.072,64.5438,-0.000772
5.091,64.5296,-0.000772
5.107,64.5162,-0.000772
5.123,64.5033,-0.000772
5.139,64.4902,-0.000772
5.155,64.4767,-0.000772
5.171,64.4634,-0.000772
5.187,64.4495,-0.000772
5.203,64.4356,-0.000772
5.219,64.4214,-0.000772
5.235,64.4064,-0.000772
5.251,64.3923,-0.000772
5.267,64.3775,-0.000772
5.283,64.3626,-0.000772
5.299,64.3467,-0.000772
5.315,64.3322,-0.000762
5.331,64.3160,-0.000762
5.347,64.3004,-0.000762
5.363,64.2846,-0.000762
5.379,64.2681,-0.000762
5.395,64.2522,-0.000762
5.411,64.2357,-0.000762
5.427,64.2183,-0.000762
5.443,64.2015,-0.000762
5.469,64.1741,-0.000762
5.486,64.1560,-0.000762
5.501,64.1383,-0.000762
5.517,64.1211,-0.000762
5.533,64.1030,-0.000762
5.549,64.0846,-0.000706
5.565,64.0665,-0.000706
5.582,64.0461,-0.000706
5.612,64.0109,-0.000706
5.629,63.9906,-0.000706
5.645,63.9708,-0.000706
5.661,63.9521,-0.000706
5.677,63.9317,-0.000706
5.693,63.9125,-0.000706
5.710,63.8909,-0.000706
5.725,63.8710,-0.000706
5.741,63.8516,-0.000706
5.757,63.8306,-0.000706
5.774,63.8076,-0.000706
5.798,63.7757,-0.000706
5.829,63.7339,-0.000631
5.859,63.6920,-0.000631
5.891,63.6486,-0.000631
5.921,63.6057,-0.000631
5.952,63.5620,-0.000631
5.983,63.5154,-0.000631
6.007,63.4799,-0.000631
6.024,63.4557,-0.000631
6.039,63.4319,-0.000631
6.055,63.4079,-0.000631
6.071,63.3829,-0.000631
6.087,63.3585,-0.000555
6.103,63.3337,-0.000555
6.121,63.3059,-0.000555
6.138,63.2787,-0.000555
6.168,63.2315,-0.000555
6.185,63.2037,-0.000555
6.214,63.1553,-0.000555
6.232,63.1261,-0.000555
6.250,63.0947,-0.000555
6.266,63.0686,-0.000555
6.291,63.0261,-0.000555
6.312,62.9914,-0.000555
6.328,62.9629,-0.000555
6.343,62.9367,-0.000489
6.359,62.9087,-0.000489
6.376,62.8790,-0.000489
6.391,62.8517,-0.000489
6.407,62.8232,-0.000489
6.424,62.7937,-0.000489
6.440,62.7643,-0.000489
6.456,62.7360,-0.000489
6.471,62.7066,-0.000489
6.488,62.6766,-0.000489
6.504,62.6468,-0.000489
6.520,62.6163,-0.000489
6.550,62.5599,-0.000489
6.566,62.5290,-0.000489
6.582,62.4985,-0.000377
6.597,62.4690,-0.000377
6.614,62.4366,-0.000377
6.630,62.4046,-0.000377
6.646,62.3742,-0.000377
6.661,62.3424,-0.000377
6.678,62.3106,-0.000377
6.694,62.2780,-0.000377
6.710,62.2462,-0.000377
6.725,62.2146,-0.000377
6.742,62.1789,-0.000377
6.757,62.1491,-0.000377
6.774,62.1143,-0.000377
6.789,62.0829,-0.000377
6.806,62.0476,-0.000377
6.821,62.0158,-0.000377
6.840,61.9771,-0.000226
6.864,61.9253,-0.000226
6.894,61.8604,-0.000226
6.925,61.7949,-0.000226
6.957,61.7283,-0.000226
6.987,61.6674,-0.000226
7.017,61.6052,-0.000226
7.048,61.5425,-0.000226
7.076,61.4869,-0.000226
7.092,61.4571,-0.000226
7.108,61.4255,-0.000339
7.124,61.3941,-0.000339
7.140,61.3630,-0.000339
7.155,61.3338,-0.000339
7.172,61.3003,-0.000339
7.188,61.2717,-0.000339
7.204,61.2422,-0.000339
7.219,61.2125,-0.000339
7.236,61.1821,-0.000339
7.252,61.1527,-0.000339
7.267,61.1235,-0.000339
7.283,61.0947,-0.000339
7.300,61.0649,-0.000339
7.316,61.0340,-0.000339
7.331,61.0081,-0.000612
7.347,60.9798,-0.000612
7.364,60.9492,-0.000612
7.379,60.9213,-0.000612
7.395,60.8953,-0.000612
7.411,60.8677,-0.000612
7.428,60.8386,-0.000612
7.443,60.8120,-0.000612
7.459,60.7857,-0.000612
7.475,60.7588,-0.000612
7.491,60.7318,-0.000612
7.507,60.7053,-0.000612
7.523,60.6786,-0.000612
7.539,60.6527,-0.000612
7.555,60.6267,-0.000612
7.572,60.5996,-0.000612
7.601,60.5532,-0.000697
7.617,60.5270,-0.000697
7.633,60.5032,-0.000697
7.649,60.4777,-0.000697
7.665,60.4530,-0.000697
7.681,60.4291,-0.000697
7.697,60.4040,-0.000697
7.713,60.3809,-0.000697
7.729,60.3569,-0.000697
7.745,60.3322,-0.000697
7.761,60.3102,-0.000697
7.777,60.2868,-0.000697
7.795,60.2608,-0.000697
7.823,60.2203,-0.000631
7.841,60.1956,-0.000631
7.857,60.1722,-0.000631
7.873,60.1511,-0.000631
7.889,60.1285,-0.000631
7.905,60.1071,-0.000631
7.921,60.0849,-0.000631
7.937,60.0641,-0.000631
7.953,60.0437,-0.000631
7.969,60.0221,-0.000631
7.985,60.0012,-0.000631
8.001,59.9813,-0.000631
8.017,59.9610,-0.000631
8.033,59.9403,-0.000631
8.050,59.9192,-0.000631
8.071,59.8930,-0.000527
8.102,59.8557,-0.000527
8.126,59.8268,-0.000527
8.142,59.8078,-0.000527
8.158,59.7901,-0.000527
8.174,59.7707,-0.000527
8.190,59.7529,-0.000527
8.206,59.7350,-0.000527
8.222,59.7172,-0.000527
8.238,59.6995,-0.000527
8.254,59.6813,-0.000527
8.270,59.6647,-0.000527
8.286,59.6462,-0.000527
8.308,59.6224,-0.000527
8.333,59.5982,-0.000471
8.350,59.5810,-0.000471
8.366,59.5651,-0.000471
8.382,59.5482,-0.000471
8.398,59.5331,-0.000471
8.414,59.5176,-0.000471
8.429,59.5025,-0.000471
8.446,59.4867,-0.000471
8.462,59.4720,-0.000471
8.477,59.4573,-0.000471
8.494,59.4421,-0.000471
8.509,59.4286,-0.000471
8.526,59.4136,-0.000471
8.547,59.3954,-0.000471
8.565,59.3801,-0.000471
8.580,59.3664,-0.000452
8.611,59.3414,-0.000452
8.641,59.3168,-0.000452
8.657,59.3048,-0.000452
8.688,59.2802,-0.000452
8.703,59.2693,-0.000452
8.734,59.2465,-0.000452
8.750,59.2348,-0.000452
8.766,59.2244,-0.000452
8.784,59.2115,-0.000452
8.812,59.1928,-0.000386
8.830,59.1810,-0.000386
8.851,59.1661,-0.000386
8.873,59.1531,-0.000386
8.894,59.1408,-0.000386
8.910,59.1305,-0.000386
8.926,59.1216,-0.000386
8.941,59.1128,-0.000386
8.958,59.1036,-0.000386
8.973,59.0949,-0.000386
8.990,59.0860,-0.000386
9.005,59.0781,-0.000386
9.021,59.0699,-0.000386
9.037,59.0617,-0.000386
9.053,59.0540,-0.000348
9.069,59.0463,-0.000348
9.085,59.0389,-0.000348
9.102,59.0316,-0.000348
9.117,59.0246,-0.000348
9.133,59.0178,-0.000348
9.150,59.0106,-0.000348
9.174,59.0009,-0.000348
9.190,58.9950,-0.000348
9.207,58.9889,-0.000348
9.222,58.9833,-0.000348
9.238,58.9776,-0.000348
9.254,58.9723,-0.000348
9.270,58.9671,-0.000348
9.287,58.9620,-0.000348
9.302,58.9573,-0.000348
9.319,58.9526,-0.000311
9.334,58.9483,-0.000311
9.350,58.9441,-0.000311
9.366,58.9400,-0.000311
9.382,58.9362,-0.000311
9.398,58.9326,-0.000311
9.415,58.9287,-0.000311
9.431,58.9256,-0.000311
9.446,58.9227,-0.000311
9.462,58.9199,-0.000311
9.480,58.9170,-0.000311
9.504,58.9132,-0.000311
9.535,58.9093,-0.000311
9.566,58.9060,-0.000292
9.597,58.9034,-0.000292
9.627,58.9016,-0.000292
9.643,58.9010,-0.000292
9.658,58.9005,-0.000292
9.674,58.9002,-0.000292
9.705,58.9001,-0.000292
9.724,58.9001,-0.000292
9.741,58.9001,-0.000292
9.756,58.9001,-0.000292
9.772,58.9001,-0.000292
9.789,58.9001,-0.000292
9.804,58.9001,-0.000292
9.820,58.9001,-0.000245
9.836,58.9002,-0.000245
9.853,58.9005,-0.000245
9.869,58.9008,-0.000245
9.884,58.9015,-0.000245
9.900,58.9023,-0.000245
9.916,58.9033,-0.000245
9.932,58.9046,-0.000245
9.948,58.9059,-0.000245
9.964,58.9075,-0.000245
9.980,58.9094,-0.000245
9.996,58.9114,-0.000245
10.012,58.9136,-0.000245
10.028,58.9160,-0.000245
10.044,58.9186,-0.000245
10.060,58.9213,-0.000254
10.077,58.9244,-0.000254
10.093,58.9276,-0.000254
10.108,58.9309,-0.000254
10.124,58.9344,-0.000254
10.140,58.9380,-0.000254
10.156,58.9421,-0.000254
10.172,58.9461,-0.000254
10.188,58.9506,-0.000254
10.204,58.9549,-0.000254
10.221,58.9599,-0.000254
10.236,58.9647,-0.000254
10.252,58.9695,-0.000254
10.276,58.9777,-0.000254
10.292,58.9834,-0.000254
10.323,58.9946,-0.000301
10.346,59.0040,-0.000301
10.370,59.0133,-0.000301
10.387,59.0203,-0.000301
10.404,59.0276,-0.000301
10.432,59.0401,-0.000301
10.451,59.0493,-0.000301
10.468,59.0572,-0.000301
10.483,59.0649,-0.000301
10.499,59.0726,-0.000301
10.516,59.0818,-0.000301
10.533,59.0906,-0.000301
10.554,59.1026,-0.000301
10.585,59.1194,-0.000311
10.616,59.1385,-0.000311
10.633,59.1479,-0.000311
10.663,59.1669,-0.000311
10.694,59.1871,-0.000311
10.709,59.1971,-0.000311
10.725,59.2082,-0.000311
10.756,59.2300,-0.000311
10.774,59.2417,-0.000311
10.803,59.2630,-0.000311
10.831,59.2849,-0.000395
10.847,59.2967,-0.000395
10.863,59.3089,-0.000395
10.879,59.3215,-0.000395
10.896,59.3354,-0.000395
10.917,59.3527,-0.000395
10.942,59.3735,-0.000395
10.959,59.3887,-0.000395
10.975,59.4024,-0.000395
10.991,59.4162,-0.000395
11.007,59.4303,-0.000395
11.023,59.4448,-0.000395
11.039,59.4594,-0.000395
11.055,59.4737,-0.000405
11.071,59.4888,-0.000405
11.087,59.5047,-0.000405
11.103,59.5197,-0.000405
11.119,59.5348,-0.000405
11.135,59.5512,-0.000405
11.150,59.5672,-0.000405
11.167,59.5838,-0.000405
11.182,59.5992,-0.000405
11.199,59.6162,-0.000405
11.215,59.6334,-0.000405
11.230,59.6493,-0.000405
11.247,59.6671,-0.000405
11.262,59.6839,-0.000405
11.279,59.7020,-0.000405
11.294,59.7193,-0.000405
11.311,59.7381,-0.000414
11.327,59.7552,-0.000414
11.342,59.7736,-0.000414
11.359,59.7923,-0.000414
11.388,59.8269,-0.000414
11.403,59.8452,-0.000414
11.419,59.8643,-0.000414
11.436,59.8850,-0.000414
11.452,59.9042,-0.000414
11.468,59.9247,-0.000414
11.483,59.9430,-0.000414
11.499,59.9631,-0.000414
11.517,59.9858,-0.000414
11.532,60.0054,-0.000414
11.561,60.0433,-0.000546
11.580,60.0683,-0.000546
11.596,60.0892,-0.000546
11.612,60.1104,-0.000546
11.627,60.1318,-0.000546
11.643,60.1538,-0.000546
11.660,60.1765,-0.000546
11.675,60.1981,-0.000546
11.691,60.2207,-0.000546
11.709,60.2455,-0.000546
11.732,60.2792,-0.000546
11.763,60.3251,-0.000546
11.793,60.3683,-0.000546
11.809,60.3920,-0.000621
11.826,60.4175,-0.000621
11.855,60.4629,-0.000621
11.872,60.4878,-0.000621
11.901,60.5353,-0.000621
11.932,60.5825,-0.000621
11.953,60.6188,-0.000621
11.979,60.6590,-0.000621
11.996,60.6863,-0.000621
12.014,60.7174,-0.000621
12.042,60.7635,-0.000621
12.059,60.7923,-0.000668
12.076,60.8203,-0.000668
12.091,60.8468,-0.000668
12.108,60.8760,-0.000668
12.124,60.9051,-0.000668
12.141,60.9338,-0.000668
12.164,60.9755,-0.000668
12.180,61.0032,-0.000668
12.211,61.0580,-0.000668
12.227,61.0877,-0.000668
12.243,61.1168,-0.000668
12.273,61.1721,-0.000668
12.304,61.2290,-0.000668
12.320,61.2595,-0.000715
12.352,61.3208,-0.000715
12.367,61.3492,-0.000715
12.383,61.3801,-0.000715
12.414,61.4413,-0.000715
12.430,61.4723,-0.000715
12.460,61.5321,-0.000715
12.482,61.5757,-0.000715
12.507,61.6255,-0.000715
12.523,61.6591,-0.000715
12.540,61.6922,-0.000715
12.555,61.7244,-0.000715
12.572,61.7586,-0.000715
12.587,61.7907,-0.000715
12.605,61.8295,-0.000715
12.631,61.8841,-0.000715
12.651,61.9260,-0.000715
12.667,61.9605,-0.000715
12.683,61.9937,-0.000715
12.699,62.0268,-0.000715
12.715,62.0628,-0.000715
12.733,62.0973,-0.000715
12.756,62.1441,-0.000715
12.786,62.2068,-0.000715
12.802,62.2372,-0.000715
12.818,62.2698,-0.000715
12.848,62.3291,-0.000480
12.863,62.3599,-0.000480
12.880,62.3923,-0.000480
12.895,62.4219,-0.000480
12.926,62.4815,-0.000480
12.942,62.5122,-0.000480
12.972,62.5695,-0.000480
12.988,62.5996,-0.000480
13.019,62.6560,-0.000480
13.036,62.6878,-0.000480
13.065,62.7400,-0.000254
13.083,62.7717,-0.000254
13.100,62.8031,-0.000254
13.115,62.8293,-0.000254
13.131,62.8573,-0.000254
13.147,62.8853,-0.000254
13.163,62.9142,-0.000254
13.180,62.9419,-0.000254
13.204,62.9842,-0.000254
13.235,63.0371,-0.000254
13.265,63.0860,-0.000254
13.296,63.1379,-0.000254
13.327,63.1880,-0.000386
13.343,63.2135,-0.000386
13.374,63.2627,-0.000386
13.390,63.2873,-0.000386
13.421,63.3370,-0.000386
13.436,63.3590,-0.000386
13.464,63.4005,-0.000386
13.481,63.4270,-0.000386
13.497,63.4508,-0.000386
13.512,63.4741,-0.000386
13.529,63.4969,-0.000386
13.559,63.5406,-0.000489
13.576,63.5646,-0.000489
13.592,63.5882,-0.000489
13.608,63.6098,-0.000489
13.624,63.6328,-0.000489
13.641,63.6570,-0.000489
13.656,63.6764,-0.000489
13.672,63.6981,-0.000489
13.688,63.7193,-0.000489
13.704,63.7406,-0.000489
13.720,63.7622,-0.000489
13.736,63.7824,-0.000489
13.752,63.8029,-0.000489
13.768,63.8236,-0.000489
13.784,63.8447,-0.000489
13.799,63.8639,-0.000546
13.815,63.8837,-0.000546
13.832,63.9039,-0.000546
13.849,63.9244,-0.000546
13.864,63.9424,-0.000546
13.880,63.9617,-0.000546
13.897,63.9821,-0.000546
13.912,64.0001,-0.000546
13.928,64.0183,-0.000546
13.943,64.0362,-0.000546
13.960,64.0560,-0.000546
13.976,64.0726,-0.000546
13.992,64.0907,-0.000546
14.021,64.1226,-0.000546
14.037,64.1401,-0.000546
14.052,64.1563,-0.000640
14.070,64.1752,-0.000640
14.100,64.2061,-0.000640
14.116,64.2232,-0.000640
14.133,64.2392,-0.000640
14.149,64.2557,-0.000640
14.165,64.2709,-0.000640
14.181,64.2863,-0.000640
14.197,64.3021,-0.000640
14.214,64.3183,-0.000640
14.241,64.3430,-0.000640
14.260,64.3608,-0.000640
14.276,64.3754,-0.000640
14.292,64.3891,-0.000640
14.308,64.4035,-0.000753
14.325,64.4173,-0.000753
14.341,64.4310,-0.000753
14.357,64.4444,-0.000753
14.372,64.4571,-0.000753
14.388,64.4701,-0.000753
14.405,64.4836,-0.000753
14.420,64.4955,-0.000753
14.436,64.5081,-0.000753
14.453,64.5202,-0.000753
14.468,64.5322,-0.000753
14.484,64.5442,-0.000753
14.501,64.5561,-0.000753
14.517,64.5675,-0.000753
14.542,64.5851,-0.000753
14.557,64.5959,-0.000753
14.573,64.6064,-0.000847
14.590,64.6175,-0.000847
14.605,64.6275,-0.000847
14.622,64.6378,-0.000847
14.637,64.6475,-0.000847
14.654,64.6583,-0.000847
14.675,64.6704,-0.000847
14.691,64.6798,-0.000847
14.721,64.6972,-0.000847
14.753,64.7139,-0.000847
14.768,64.7220,-0.000847
14.784,64.7304,-0.000847
14.800,64.7381,-0.000847
14.831,64.7529,-0.000875
14.846,64.7601,-0.000875
14.861,64.7670,-0.000875
14.877,64.7742,-0.000875
14.893,64.7810,-0.000875
14.910,64.7877,-0.000875
14.925,64.7942,-0.000875
14.941,64.8005,-0.000875
14.957,64.8068,-0.000875
14.973,64.8125,-0.000875
14.990,64.8185,-0.000875
15.005,64.8238,-0.000875
15.022,64.8294,-0.000875
15.038,64.8344,-0.000875
15.053,64.8392,-0.000875
15.078,64.8465,-0.000951
15.094,64.8511,-0.000951
15.113,64.8559,-0.000951
15.140,64.8626,-0.000951
15.156,64.8665,-0.000951
15.172,64.8700,-0.000951
15.188,64.8733,-0.000951
15.205,64.8765,-0.000951
15.221,64.8794,-0.000951
15.236,64.8821,-0.000951
15.252,64.8846,-0.000951
15.270,64.8873,-0.000951
15.296,64.8907,-0.001035
15.316,64.8929,-0.001035
15.333,64.8945,-0.001035
15.348,64.8959,-0.001035
15.364,64.8970,-0.001035
15.381,64.8980,-0.001035
15.396,64.8989,-0.001035
15.412,64.8995,-0.001035
15.428,64.8999,-0.001035
15.444,64.9001,-0.001035
15.460,64.9001,-0.001035
15.476,64.9001,-0.001035
15.492,64.9001,-0.001035
15.508,64.9001,-0.001035
15.524,64.9001,-0.001035
15.540,64.9001,-0.001035
15.556,64.9001,-0.001045
15.572,64.9001,-0.001045
15.588,64.9001,-0.001045
15.604,64.9001,-0.001045
15.632,64.9001,-0.001045
15.648,64.9001,-0.001045
15.664,64.9001,-0.001045
15.681,64.9001,-0.001045
15.704,64.9001,-0.001045
15.730,64.9001,-0.001045
15.746,64.9001,-0.001045
15.762,64.9001,-0.001045
15.777,64.9001,-0.001045
15.808,64.9001,-0.001045
15.824,64.9001,-0.001045
15.840,64.9001,-0.001017
15.857,64.9001,-0.001017
15.873,64.9001,-0.001017
15.892,64.9001,-0.001017
15.916,64.9001,-0.001017
15.936,64.9001,-0.001017
15.952,64.9001,-0.001017
15.968,64.9001,-0.001017
15.984,64.9001,-0.001017
16.000,64.9001,-0.001017
16.016,64.9001,-0.001017
16.032,64.9001,-0.001017
16.048,64.9001,-0.001017
16.064,64.9001,-0.001017
16.080,64.9001,-0.001026
16.096,64.9001,-0.001026
16.112,64.9001,-0.001026
16.128,64.9001,-0.001026
16.144,64.9001,-0.001026
16.176,64.9001,-0.001026
16.192,64.9001,-0.001026
16.208,64.9001,-0.001026
16.224,64.9001,-0.001026
16.240,64.9001,-0.001026
16.256,64.9001,-0.001026
16.272,64.9001,-0.001026
16.288,64.9001,-0.001026
16.308,64.9001,-0.001026
16.336,64.9001,-0.001026
16.352,64.9001,-0.001073
16.369,64.9001,-0.001073
16.385,64.9001,-0.001073
16.400,64.9001,-0.001073
16.416,64.9001,-0.001073
16.434,64.9001,-0.001073
16.460,64.9001,-0.001073
16.479,64.9001,-0.001073
16.497,64.9001,-0.001073
16.523,64.9001,-0.001073
16.544,64.9001,-0.001073
16.561,64.9001,-0.001073
16.576,64.9001,-0.001073
16.592,64.9001,-0.001054
16.608,64.9001,-0.001054
16.624,64.9001,-0.001054
16.640,64.9001,-0.001054
16.656,64.9001,-0.001054
16.672,64.9001,-0.001054
16.700,64.9001,-0.001054
16.716,64.9001,-0.001054
16.732,64.9001,-0.001054
16.748,64.9001,-0.001054
16.763,64.9001,-0.001054
16.780,64.9001,-0.001054
16.796,64.9001,-0.001054
16.812,64.9001,-0.001054
16.827,64.9001,-0.001045
16.844,64.9001,-0.001045
16.860,64.9001,-0.001045
16.875,64.9001,-0.001045
16.891,64.9001,-0.001045
16.908,64.9001,-0.001045
16.923,64.9001,-0.001045
16.939,64.9001,-0.001045
16.955,64.9001,-0.001045
16.971,64.9001,-0.001045
16.988,64.9001,-0.001045
17.004,64.9001,-0.001045
17.020,64.9001,-0.001045
17.035,64.9001,-0.001045
17.053,64.9001,-0.001045
17.079,64.9001,-0.001017
17.099,64.9001,-0.001017
17.115,64.9001,-0.001017
17.132,64.9001,-0.001017
17.147,64.9001,-0.001017
17.164,64.9001,-0.001017
17.180,64.9001,-0.001017
17.196,64.9001,-0.001017
17.211,64.9001,-0.001017
17.234,64.9001,-0.001017
17.255,64.9001,-0.001017
17.280,64.9001,-0.001017
17.297,64.9001,-0.001017
17.313,64.9001,-0.001017
17.329,64.9001,-0.001017
17.345,64.9001,-0.001017
17.362,64.9001,-0.001017
17.377,64.9001,-0.001017
17.393,64.9001,-0.001017
17.409,64.9001,-0.001017
17.426,64.9001,-0.001017
17.441,64.9001,-0.001017
17.458,64.9001,-0.001017
17.473,64.9001,-0.001017
17.491,64.9001,-0.001017
17.510,64.9001,-0.001017
17.525,64.9001,-0.001017
17.541,64.9001,-0.001017
17.572,64.9001,-0.001101
17.588,64.9001,-0.001101
17.604,64.9001,-0.001101
17.620,64.9001,-0.001101
17.636,64.9001,-0.001101
17.668,64.9001,-0.001101
17.698,64.9001,-0.001101
17.714,64.9001,-0.001101
17.730,64.9001,-0.001101
17.745,64.9001,-0.001101
17.761,64.9001,-0.001101
17.789,64.9001,-0.001101
17.805,64.9001,-0.001101
17.820,64.9001,-0.001092
17.836,64.9001,-0.001092
17.853,64.9001,-0.001092
17.869,64.9001,-0.001092
17.885,64.9001,-0.001092
17.900,64.9001,-0.001092
17.916,64.9001,-0.001092
17.932,64.9001,-0.001092
17.949,64.9001,-0.001092
17.965,64.9001,-0.001092
17.983,64.9001,-0.001092
17.999,64.9001,-0.001092
18.021,64.9001,-0.001092
18.037,64.9001,-0.001092
18.053,64.9001,-0.001092
18.084,64.9001,-0.001017
18.100,64.9001,-0.001017
18.115,64.9001,-0.001017
18.145,64.9001,-0.001017
18.161,64.9001,-0.001017
18.176,64.9001,-0.001017
18.193,64.9001,-0.001017
18.224,64.9001,-0.001017
18.240,64.9001,-0.001017
18.271,64.9001,-0.001017
18.302,64.9001,-0.001017
18.317,64.9001,-0.001017
18.344,64.9001,-0.001054
18.360,64.9001,-0.001054
18.376,64.9001,-0.001054
18.392,64.9001,-0.001054
18.408,64.9001,-0.001054
18.424,64.9001,-0.001054
18.440,64.9001,-0.001054
18.456,64.9001,-0.001054
18.472,64.9001,-0.001054
18.488,64.9001,-0.001054
18.504,64.9001,-0.001054
18.520,64.9001,-0.001054
18.537,64.9001,-0.001054
18.552,64.9001,-0.001054
18.568,64.9001,-0.001064
18.584,64.9001,-0.001064
18.600,64.9001,-0.001064
18.616,64.9001,-0.001064
18.633,64.9001,-0.001064
18.648,64.9001,-0.001064
18.664,64.9001,-0.001064
18.680,64.9001,-0.001064
18.696,64.9001,-0.001064
18.712,64.9001,-0.001064
18.728,64.9001,-0.001064
18.744,64.9001,-0.001064
18.760,64.9001,-0.001064
18.776,64.9001,-0.001064
18.793,64.9001,-0.001064
18.814,64.9001,-0.001054
18.830,64.9001,-0.001054
18.845,64.9001,-0.001054
18.869,64.9001,-0.001054
18.885,64.9001,-0.001054
18.901,64.9001,-0.001054
18.917,64.9001,-0.001054
18.933,64.9001,-0.001054
18.949,64.9001,-0.001054
18.965,64.9001,-0.001054
18.981,64.9001,-0.001054
18.997,64.9001,-0.001054
19.013,64.9001,-0.001054
19.029,64.9001,-0.001054
19.045,64.9001,-0.001054
19.061,64.9001,-0.001054
19.077,64.9001,-0.001054
19.095,64.9001,-0.001054
19.122,64.9001,-0.001054
19.141,64.9001,-0.001054
19.157,64.9001,-0.001054
19.173,64.9001,-0.001054
19.189,64.9001,-0.001054
19.205,64.9001,-0.001054
19.221,64.9001,-0.001054
19.237,64.9001,-0.001054
19.253,64.9001,-0.001054
19.269,64.9001,-0.001054
19.285,64.9001,-0.001054
19.301,64.9001,-0.001073
19.317,64.9001,-0.001073
19.333,64.9001,-0.001073
19.349,64.9001,-0.001073
19.365,64.9001,-0.001073
19.381,64.9001,-0.001073
19.397,64.9001,-0.001073
19.412,64.9001,-0.001073
19.428,64.9001,-0.001073
19.445,64.9001,-0.001073
19.461,64.9001,-0.001073
19.476,64.9001,-0.001073
19.493,64.9001,-0.001073
19.509,64.9001,-0.001073
19.526,64.9001,-0.001073
19.541,64.9001,-0.001073
19.557,64.9001,-0.001120
19.573,64.9001,-0.001120
19.588,64.9001,-0.001120
19.604,64.9001,-0.001120
19.621,64.9001,-0.001120
19.637,64.9001,-0.001120
19.666,64.9001,-0.001120
19.685,64.9001,-0.001120
19.700,64.9001,-0.001120
19.716,64.9001,-0.001120
19.733,64.9001,-0.001120
19.748,64.8999,-0.001120
19.764,64.8994,-0.001120
19.780,64.8989,-0.001120
19.797,64.8980,-0.001120
19.812,64.8970,-0.001120
19.829,64.8958,-0.001120
19.844,64.8944,-0.001158
19.860,64.8929,-0.001158
19.877,64.8909,-0.001158
19.892,64.8892,-0.001158
19.909,64.8870,-0.001158
19.929,64.8837,-0.001158
19.946,64.8811,-0.001158
19.962,64.8784,-0.001158
19.977,64.8754,-0.001158
19.993,64.8722,-0.001158
20.009,64.8688,-0.001158
20.026,64.8651,-0.001158
20.041,64.8615,-0.001158
20.062,64.8561,-0.001158
20.085,64.8500,-0.001158
20.105,64.8444,-0.000706
20.122,64.8396,-0.000706
20.137,64.8349,-0.000706
20.154,64.8297,-0.000706
20.169,64.8243,-0.000706
20.185,64.8189,-0.000706
20.201,64.8132,-0.000706
20.217,64.8072,-0.000706
20.234,64.8010,-0.000706
20.250,64.7947,-0.000706
20.265,64.7884,-0.000706
20.282,64.7815,-0.000706
20.297,64.7747,-0.000706
20.314,64.7671,-0.000706
20.335,64.7576,0.001007
20.365,64.7436,0.001007
20.381,64.7356,0.001007
20.397,64.7273,0.001007
20.413,64.7188,0.001007
20.444,64.7028,0.001007
20.470,64.6879,0.001007
20.487,64.6787,0.001007
20.502,64.6698,0.001007
20.518,64.6600,0.001007
20.535,64.6502,0.001007
20.551,64.6401,0.000687
20.566,64.6305,0.000687
20.582,64.6201,0.000687
20.598,64.6096,0.000687
20.615,64.5985,0.000687
20.630,64.5877,0.000687
20.646,64.5766,0.000687
20.663,64.5649,0.000687
20.679,64.5537,0.000687
20.694,64.5420,0.000687
20.711,64.5299,0.000687
20.727,64.5181,0.000687
20.743,64.5057,0.000687
20.758,64.4938,0.000687
20.774,64.4807,0.000687
20.790,64.4684,0.000687
20.806,64.4554,-0.000847
20.822,64.4417,-0.000847
20.839,64.4282,-0.000847
20.854,64.4150,-0.000847
20.870,64.4009,-0.000847
20.886,64.3864,-0.000847
20.902,64.3731,-0.000847
20.918,64.3584,-0.000847
20.934,64.3440,-0.000847
20.950,64.3285,-0.000847
20.966,64.3140,-0.000847
20.996,64.2856,-0.000847
21.011,64.2709,-0.000847
21.028,64.2543,-0.000847
21.045,64.2379,-0.000847
21.060,64.2224,-0.000847
21.075,64.2069,-0.000847
21.091,64.1902,-0.000762
21.107,64.1741,-0.000762
21.127,64.1535,-0.000762
21.154,64.1236,-0.000762
21.171,64.1051,-0.000762
21.187,64.0879,-0.000762
21.203,64.0696,-0.000762
21.219,64.0513,-0.000762
21.235,64.0337,-0.000762
21.251,64.0144,-0.000762
21.267,63.9961,-0.000762
21.283,63.9781,-0.000762
21.299,63.9589,-0.000762
21.315,63.9388,-0.000762
21.331,63.9204,-0.000687
21.347,63.9010,-0.000687
21.363,63.8793,-0.000687
21.379,63.8604,-0.000687
21.395,63.8411,-0.000687
21.411,63.8206,-0.000687
21.427,63.7996,-0.000687
21.443,63.7789,-0.000687
21.459,63.7585,-0.000687
21.475,63.7366,-0.000687
21.491,63.7159,-0.000687
21.507,63.6934,-0.000687
21.523,63.6718,-0.000687
21.550,63.6351,-0.000687
21.566,63.6125,-0.000687
21.582,63.5908,-0.000621
21.598,63.5678,-0.000621
21.614,63.5453,-0.000621
21.630,63.5218,-0.000621
21.646,63.4994,-0.000621
21.662,63.4756,-0.000621
21.678,63.4514,-0.000621
21.694,63.4273,-0.000621
21.710,63.4044,-0.000621
21.726,63.3786,-0.000621
21.747,63.3471,-0.000621
21.771,63.3104,-0.000621
21.790,63.2812,-0.000621
21.806,63.2559,-0.000621
21.822,63.2315,-0.000621
21.838,63.2040,-0.000508
21.854,63.1799,-0.000508
21.870,63.1532,-0.000508
21.886,63.1274,-0.000508
21.902,63.1021,-0.000508
21.918,63.0750,-0.000508
21.934,63.0478,-0.000508
21.950,63.0214,-0.000508
21.966,62.9949,-0.000508
21.981,62.9673,-0.000508
21.998,62.9388,-0.000508
22.014,62.9124,-0.000508
22.030,62.8846,-0.000508
22.047,62.8541,-0.000508
22.072,62.8107,-0.000508
22.088,62.7809,-0.000508
22.103,62.7533,-0.000377
22.120,62.7237,-0.000377
22.136,62.6953,-0.000377
22.152,62.6651,-0.000377
22.168,62.6363,-0.000377
22.184,62.6060,-0.000377
22.199,62.5766,-0.000377
22.216,62.5461,-0.000377
22.232,62.5156,-0.000377
22.248,62.4844,-0.000377
22.264,62.4545,-0.000377
22.279,62.4242,-0.000377
22.295,62.3935,-0.000377
22.311,62.3622,-0.000377
22.327,62.3292,-0.000339
22.344,62.2991,-0.000339
22.362,62.2601,-0.000339
22.381,62.2234,-0.000339
22.404,62.1764,-0.000339
22.423,62.1361,-0.000339
22.439,62.1045,-0.000339
22.455,62.0724,-0.000339
22.471,62.0388,-0.000339
22.489,62.0018,-0.000339
22.512,61.9529,-0.000339
22.528,61.9185,-0.000339
22.544,61.8843,-0.000339
22.575,61.8191,-0.000339
22.591,61.7865,-0.000339
22.613,61.7397,-0.000320
22.638,61.6879,-0.000320
22.668,61.6234,-0.000320
22.698,61.5641,-0.000320
22.714,61.5324,-0.000320
22.744,61.4718,-0.000320
22.775,61.4116,-0.000320
22.790,61.3804,-0.000320
22.805,61.3517,-0.000320
22.837,61.2911,-0.000386
22.852,61.2620,-0.000386
22.868,61.2314,-0.000386
22.883,61.2020,-0.000386
22.899,61.1723,-0.000386
22.916,61.1396,-0.000386
22.932,61.1114,-0.000386
22.947,61.0828,-0.000386
22.964,61.0529,-0.000386
22.980,61.0233,-0.000386
22.996,60.9947,-0.000386
23.011,60.9672,-0.000386
23.028,60.9377,-0.000386
23.044,60.9089,-0.000386
23.059,60.8820,-0.000593
23.075,60.8542,-0.000593
23.091,60.8263,-0.000593
23.108,60.7975,-0.000593
23.123,60.7712,-0.000593
23.139,60.7435,-0.000593
23.164,60.7012,-0.000593
23.181,60.6746,-0.000593
23.196,60.6487,-0.000593
23.212,60.6219,-0.000593
23.228,60.5956,-0.000593
23.244,60.5692,-0.000593
23.260,60.5450,-0.000593
23.276,60.5188,-0.000593
23.293,60.4927,-0.000593
23.309,60.4682,-0.000593
23.324,60.4441,-0.000659
23.340,60.4191,-0.000659
23.357,60.3922,-0.000659
23.373,60.3696,-0.000659
23.388,60.3460,-0.000659
23.405,60.3210,-0.000659
23.421,60.2975,-0.000659
23.436,60.2744,-0.000659
23.452,60.2506,-0.000659
23.469,60.2271,-0.000659
23.484,60.2052,-0.000659
23.501,60.1813,-0.000659
23.516,60.1597,-0.000659
23.533,60.1352,-0.000659
23.548,60.1143,-0.000659
23.564,60.0922,-0.000631
23.580,60.0710,-0.000631
23.599,60.0455,-0.000631
23.627,60.0082,-0.000631
23.644,59.9854,-0.000631
23.661,59.9637,-0.000631
23.689,59.9273,-0.000631
23.708,59.9033,-0.000631
23.724,59.8826,-0.000631
23.740,59.8636,-0.000631
23.757,59.8423,-0.000631
23.772,59.8230,-0.000631
23.788,59.8048,-0.000631
23.804,59.7854,-0.000602
23.820,59.7654,-0.000602
23.836,59.7479,-0.000602
23.852,59.7296,-0.000602
23.868,59.7112,-0.000602
23.884,59.6930,-0.000602
23.900,59.6747,-0.000602
23.916,59.6573,-0.000602
23.932,59.6392,-0.000602
23.949,59.6212,-0.000602
23.964,59.6048,-0.000602
23.980,59.5874,-0.000602
23.996,59.5708,-0.000602
24.013,59.5532,-0.000602
24.028,59.5376,-0.000602
24.044,59.5212,-0.000602
24.060,59.5059,-0.000499
24.076,59.4901,-0.000499
24.092,59.4744,-0.000499
24.109,59.4576,-0.000499
24.126,59.4402,-0.000499
24.151,59.4179,-0.000499
24.172,59.3988,-0.000499
24.189,59.3835,-0.000499
24.204,59.3698,-0.000499
24.220,59.3564,-0.000499
24.242,59.3364,-0.000499
24.259,59.3221,-0.000499
24.276,59.3086,-0.000499
24.291,59.2952,-0.000499
24.314,59.2768,-0.000499
24.336,59.2590,-0.000395
24.355,59.2448,-0.000395
24.372,59.2320,-0.000395
24.399,59.2116,-0.000395
24.419,59.1968,-0.000395
24.435,59.1851,-0.000395
24.451,59.1739,-0.000395
24.467,59.1633,-0.000395
24.483,59.1520,-0.000395
24.499,59.1413,-0.000395
24.515,59.1305,-0.000395
24.531,59.1205,-0.000395
24.547,59.1104,-0.000395
24.564,59.1000,-0.000395
24.579,59.0907,-0.000377
24.595,59.0810,-0.000377
24.611,59.0719,-0.000377
24.628,59.0621,-0.000377
24.649,59.0504,-0.000377
24.664,59.0420,-0.000377
24.680,59.0334,-0.000377
24.711,59.0178,-0.000377
24.726,59.0100,-0.000377
24.742,59.0020,-0.000377
24.765,58.9916,-0.000377
24.781,58.9844,-0.000377
24.797,58.9770,-0.000377
24.813,58.9703,-0.000377
24.829,58.9636,-0.000329
24.844,58.9571,-0.000329
24.861,58.9506,-0.000329
24.877,58.9445,-0.000329
24.893,58.9383,-0.000329
24.909,58.9327,-0.000329
24.925,58.9271,-0.000329
24.941,58.9217,-0.000329
24.956,58.9166,-0.000329
24.973,58.9116,-0.000329
24.990,58.9064,-0.000329
25.005,58.9023,-0.000329
25.020,58.8980,-0.000329
25.038,58.8935,-0.000329
25.066,58.8867,-0.000329
25.085,58.8820,-0.000254
25.101,58.8789,-0.000254
25.117,58.8755,-0.000254
25.133,58.8724,-0.000254
25.148,58.8697,-0.000254
25.165,58.8670,-0.000254
25.181,58.8645,-0.000254
25.197,58.8623,-0.000254
25.212,58.8603,-0.000254
25.229,58.8583,-0.000254
25.245,58.8566,-0.000254
25.261,58.8551,-0.000254
25.277,58.8538,-0.000254
25.298,58.8525,-0.000254
25.313,58.8516,-0.000254
25.330,58.8510,-0.000273
25.345,58.8505,-0.000273
25.363,58.8502,-0.000273
25.392,58.8501,-0.000273
25.409,58.8501,-0.000273
25.426,58.8501,-0.000273
25.441,58.8501,-0.000273
25.458,58.8501,-0.000273
25.474,58.8501,-0.000273
25.490,58.8501,-0.000273
25.506,58.8501,-0.000273
25.521,58.8501,-0.000273
25.538,58.8502,-0.000273
25.554,58.8505,-0.000273
25.569,58.8509,-0.000226
25.585,58.8515,-0.000226
25.601,58.8523,-0.000226
25.617,58.8533,-0.000226
25.634,58.8546,-0.000226
25.649,58.8559,-0.000226
25.666,58.8577,-0.000226
25.681,58.8593,-0.000226
25.698,58.8614,-0.000226
25.713,58.8635,-0.000226
25.730,58.8661,-0.000226
25.746,58.8686,-0.000226
25.761,58.8712,-0.000226
25.777,58.8743,-0.000226
25.794,58.8776,-0.000226
25.810,58.8807,-0.000226
25.825,58.8842,-0.000226
25.851,58.8905,-0.000282
25.868,58.8945,-0.000282
25.883,58.8989,-0.000282
25.900,58.9032,-0.000282
25.915,58.9078,-0.000282
25.932,58.9127,-0.000282
25.948,58.9177,-0.000282
25.963,58.9230,-0.000282
25.980,58.9286,-0.000282
25.996,58.9340,-0.000282
26.012,58.9397,-0.000282
26.027,58.9455,-0.000282
26.045,58.9526,-0.000282
26.066,58.9611,-0.000282
26.088,58.9698,-0.000329
26.108,58.9786,-0.000329
26.123,58.9854,-0.000329
26.139,58.9927,-0.000329
26.155,59.0003,-0.000329
26.172,59.0084,-0.000329
26.187,59.0161,-0.000329
26.203,59.0241,-0.000329
26.220,59.0332,-0.000329
26.242,59.0451,-0.000329
26.257,59.0531,-0.000329
26.273,59.0618,-0.000329
26.288,59.0708,-0.000329
26.304,59.0802,-0.000329
26.320,59.0891,-0.000273
26.350,59.1080,-0.000273
26.382,59.1277,-0.000273
26.408,59.1452,-0.000273
26.424,59.1561,-0.000273
26.440,59.1674,-0.000273
26.456,59.1782,-0.000273
26.472,59.1898,-0.000273
26.490,59.2020,-0.000273
26.505,59.2134,-0.000273
26.520,59.2249,-0.000273
26.537,59.2374,-0.000273
26.552,59.2495,-0.000273
26.568,59.2621,-0.000339
26.584,59.2745,-0.000339
26.602,59.2890,-0.000339
26.628,59.3104,-0.000339
26.648,59.3276,-0.000339
26.665,59.3417,-0.000339
26.680,59.3550,-0.000339
26.696,59.3689,-0.000339
26.712,59.3833,-0.000339
26.728,59.3982,-0.000339
26.744,59.4124,-0.000339
26.760,59.4274,-0.000339
26.776,59.4424,-0.000339
26.792,59.4577,-0.000339
26.808,59.4730,-0.000377
26.824,59.4891,-0.000377
26.840,59.5045,-0.000377
26.856,59.5213,-0.000377
26.872,59.5368,-0.000377
26.888,59.5535,-0.000377
26.907,59.5733,-0.000377
26.932,59.5997,-0.000377
26.949,59.6177,-0.000377
26.966,59.6364,-0.000377
26.982,59.6548,-0.000377
27.014,59.6890,-0.000377
27.044,59.7236,-0.000377
27.060,59.7425,-0.000377
27.091,59.7781,-0.000461
27.107,59.7986,-0.000461
27.124,59.8172,-0.000461
27.153,59.8531,-0.000461
27.171,59.8765,-0.000461
27.187,59.8953,-0.000461
27.204,59.9166,-0.000461
27.219,59.9363,-0.000461
27.235,59.9576,-0.000461
27.251,59.9780,-0.000461
27.267,59.9981,-0.000461
27.283,60.0198,-0.000461
27.299,60.0410,-0.000461
27.315,60.0621,-0.000593
27.331,60.0841,-0.000593
27.347,60.1061,-0.000593
27.363,60.1289,-0.000593
27.379,60.1505,-0.000593
27.395,60.1737,-0.000593
27.411,60.1964,-0.000593
27.427,60.2200,-0.000593
27.443,60.2418,-0.000593
27.459,60.2650,-0.000593
27.475,60.2885,-0.000593
27.491,60.3137,-0.000593
27.507,60.3362,-0.000593
27.523,60.3616,-0.000593
27.539,60.3847,-0.000593
27.555,60.4101,-0.000593
27.571,60.4336,-0.000687
27.587,60.4601,-0.000687
27.603,60.4844,-0.000687
27.619,60.5102,-0.000687
27.635,60.5348,-0.000687
27.652,60.5623,-0.000687
27.679,60.6064,-0.000687
27.699,60.6392,-0.000687
27.715,60.6653,-0.000687
27.731,60.6932,-0.000687
27.747,60.7185,-0.000687
27.763,60.7447,-0.000687
27.779,60.7727,-0.000687
27.796,60.8012,-0.000687
27.819,60.8408,-0.000687
27.834,60.8692,-0.000706
27.864,60.9212,-0.000706
27.895,60.9772,-0.000706
27.925,61.0308,-0.000706
27.941,61.0591,-0.000706
27.971,61.1168,-0.000706
27.988,61.1449,-0.000706
28.018,61.2012,-0.000706
28.035,61.2350,-0.000706
28.051,61.2648,-0.000706
28.066,61.2947,-0.000725
28.083,61.3260,-0.000725
28.098,61.3568,-0.000725
28.114,61.3874,-0.000725
28.131,61.4206,-0.000725
28.146,61.4505,-0.000725
28.162,61.4831,-0.000725
28.178,61.5144,-0.000725
28.194,61.5470,-0.000725
28.211,61.5800,-0.000725
28.226,61.6122,-0.000725
28.243,61.6463,-0.000725
28.258,61.6775,-0.000725
28.275,61.7117,-0.000725
28.291,61.7459,-0.000725
28.307,61.7783,-0.000687
28.322,61.8114,-0.000687
28.338,61.8454,-0.000687
28.354,61.8815,-0.000687
28.370,61.9130,-0.000687
28.386,61.9469,-0.000687
28.402,61.9803,-0.000687
28.418,62.0136,-0.000687
28.435,62.0486,-0.000687
28.453,62.0868,-0.000687
28.483,62.1472,-0.000687
28.499,62.1774,-0.000687
28.514,62.2090,-0.000687
28.530,62.2428,-0.000687
28.551,62.2826,-0.000687
28.568,62.3159,-0.000687
28.583,62.3456,-0.000433
28.600,62.3771,-0.000433
28.616,62.4081,-0.000433
28.632,62.4396,-0.000433
28.648,62.4689,-0.000433
28.663,62.4988,-0.000433
28.679,62.5285,-0.000433
28.695,62.5588,-0.000433
28.712,62.5888,-0.000433
28.727,62.6178,-0.000433
28.743,62.6470,-0.000433
28.759,62.6762,-0.000433
28.775,62.7050,-0.000433
28.791,62.7338,-0.000433
28.808,62.7639,-0.000433
28.824,62.7912,-0.000264
28.840,62.8195,-0.000264
28.857,62.8516,-0.000264
28.886,62.9008,-0.000264
28.903,62.9300,-0.000264
28.919,62.9568,-0.000264
28.935,62.9838,-0.000264
28.952,63.0115,-0.000264
28.967,63.0370,-0.000264
28.988,63.0716,-0.000264
29.011,63.1101,-0.000264
29.032,63.1422,-0.000264
29.048,63.1686,-0.000264
29.064,63.1930,-0.000264
29.079,63.2197,-0.000264
29.102,63.2537,-0.000320
29.118,63.2784,-0.000320
29.134,63.3040,-0.000320
29.150,63.3276,-0.000320
29.167,63.3525,-0.000320
29.183,63.3763,-0.000320
29.199,63.4005,-0.000320
29.214,63.4235,-0.000320
29.230,63.4468,-0.000320
29.246,63.4702,-0.000320
29.262,63.4928,-0.000320
29.278,63.5154,-0.000320
29.294,63.5391,-0.000320
29.312,63.5628,-0.000320
29.337,63.5987,-0.000395
29.361,63.6317,-0.000395
29.384,63.6619,-0.000395
29.399,63.6823,-0.000395
29.415,63.7041,-0.000395
29.446,63.7438,-0.000395
29.477,63.7839,-0.000395
29.508,63.8218,-0.000395
29.523,63.8414,-0.000395
29.554,63.8795,-0.000395
29.585,63.9161,-0.000518
29.601,63.9354,-0.000518
29.623,63.9620,-0.000518
29.639,63.9792,-0.000518
29.655,63.9977,-0.000518
29.671,64.0164,-0.000518
29.687,64.0334,-0.000518
29.703,64.0514,-0.000518
29.719,64.0686,-0.000518
29.735,64.0859,-0.000518
29.751,64.1030,-0.000518
29.767,64.1204,-0.000518
29.783,64.1370,-0.000518
29.799,64.1532,-0.000518
29.816,64.1701,-0.000593
29.831,64.1856,-0.000593
29.851,64.2057,-0.000593
29.878,64.2326,-0.000593
29.895,64.2486,-0.000593
29.911,64.2639,-0.000593
29.927,64.2784,-0.000593
29.943,64.2936,-0.000593
29.960,64.3089,-0.000593
29.975,64.3228,-0.000593
29.993,64.3384,-0.000593
30.016,64.3586,-0.000593
30.047,64.3844,-0.000593
30.076,64.4095,-0.000650
30.107,64.4336,-0.000650
30.137,64.4582,-0.000650
30.154,64.4699,-0.000650
30.169,64.4818,-0.000650
30.185,64.4931,-0.000650
30.216,64.5165,-0.000650
30.232,64.5272,-0.000650
30.248,64.5380,-0.000650
30.278,64.5584,-0.000650
30.295,64.5696,-0.000650
30.311,64.5802,-0.000810
30.327,64.5899,-0.000810
30.343,64.6006,-0.000810
30.362,64.6122,-0.000810
30.386,64.6255,-0.000810
30.407,64.6377,-0.000810
30.424,64.6472,-0.000810
30.448,64.6606,-0.000810
30.479,64.6771,-0.000810
30.510,64.6921,-0.000810
30.541,64.7067,-0.000810
30.556,64.7142,-0.000866
30.572,64.7210,-0.000866
30.587,64.7277,-0.000866
30.603,64.7345,-0.000866
30.634,64.7471,-0.000866
30.664,64.7588,-0.000866
30.681,64.7649,-0.000866
30.711,64.7752,-0.000866
30.730,64.7817,-0.000866
30.748,64.7872,-0.000866
30.773,64.7946,-0.000866
30.791,64.7996,-0.000866
30.806,64.8039,-0.000866
30.823,64.8081,-0.000847
30.839,64.8119,-0.000847
30.855,64.8159,-0.000847
30.871,64.8194,-0.000847
30.886,64.8226,-0.000847
30.903,64.8259,-0.000847
30.919,64.8289,-0.000847
30.934,64.8316,-0.000847
30.950,64.8341,-0.000847
30.966,64.8365,-0.000847
30.983,64.8388,-0.000847
30.998,64.8407,-0.000847
31.015,64.8426,-0.000847
31.030,64.8442,-0.000847
31.046,64.8455,-0.000847
31.062,64.8468,-0.001017
31.078,64.8479,-0.001017
31.096,64.8488,-0.001017
31.121,64.8496,-0.001017
31.144,64.8501,-0.001017
31.160,64.8501,-0.001017
31.191,64.8501,-0.001017
31.218,64.8501,-0.001017
31.238,64.8501,-0.001017
31.254,64.8501,-0.001017
31.270,64.8501,-0.001017
31.285,64.8501,-0.001017
31.308,64.8501,-0.001017
31.332,64.8501,-0.001158
31.347,64.8501,-0.001158
31.378,64.8501,-0.001158
31.393,64.8501,-0.001158
31.410,64.8501,-0.001158
31.426,64.8501,-0.001158
31.442,64.8501,-0.001158
31.471,64.8501,-0.001158
31.489,64.8501,-0.001158
31.506,64.8501,-0.001158
31.521,64.8501,-0.001158
31.538,64.8501,-0.001158
31.554,64.8501,-0.001158
31.569,64.8501,-0.001120
31.586,64.8501,-0.001120
31.603,64.8501,-0.001120
31.619,64.8501,-0.001120
31.642,64.8501,-0.001120
31.657,64.8501,-0.001120
31.689,64.8501,-0.001120
31.720,64.8501,-0.001120
31.743,64.8501,-0.001120
31.759,64.8501,-0.001120
31.774,64.8501,-0.001120
31.791,64.8501,-0.001120
31.806,64.8501,-0.001054
31.822,64.8501,-0.001054
31.838,64.8501,-0.001054
31.855,64.8501,-0.001054
31.870,64.8501,-0.001054
31.887,64.8501,-0.001054
31.902,64.8501,-0.001054
31.919,64.8501,-0.001054
31.935,64.8501,-0.001054
31.951,64.8501,-0.001054
31.968,64.8501,-0.001054
31.998,64.8501,-0.001054
32.014,64.8501,-0.001054
32.031,64.8501,-0.001054
32.060,64.8501,-0.001007
32.078,64.8501,-0.001007
32.094,64.8501,-0.001007
32.110,64.8501,-0.001007
32.127,64.8501,-0.001007
32.142,64.8501,-0.001007
32.158,64.8501,-0.001007
32.174,64.8501,-0.001007
32.190,64.8501,-0.001007
32.206,64.8501,-0.001007
32.223,64.8501,-0.001007
32.238,64.8501,-0.001007
32.254,64.8501,-0.001007
32.276,64.8501,-0.001007
32.291,64.8501,-0.001007
32.308,64.8501,-0.001017
32.323,64.8501,-0.001017
32.339,64.8501,-0.001017
32.355,64.8501,-0.001017
32.372,64.8501,-0.001017
32.388,64.8501,-0.001017
32.404,64.8501,-0.001017
32.431,64.8501,-0.001017
32.451,64.8501,-0.001017
32.468,64.8501,-0.001017
32.483,64.8501,-0.001017
32.498,64.8501,-0.001017
32.516,64.8501,-0.001017
32.532,64.8501,-0.001017
32.555,64.8501,-0.001017
32.586,64.8501,-0.000970
32.617,64.8501,-0.000970
32.647,64.8501,-0.000970
32.678,64.8501,-0.000970
32.709,64.8501,-0.000970
32.725,64.8501,-0.000970
32.755,64.8501,-0.000970
32.774,64.8501,-0.000970
32.801,64.8501,-0.000970
32.832,64.8501,-0.000979
32.848,64.8501,-0.000979
32.864,64.8501,-0.000979
32.880,64.8501,-0.000979
32.896,64.8501,-0.000979
32.912,64.8501,-0.000979
32.929,64.8501,-0.000979
32.944,64.8501,-0.000979
32.960,64.8501,-0.000979
32.976,64.8501,-0.000979
32.993,64.8501,-0.000979
33.008,64.8501,-0.000979
33.024,64.8501,-0.000979
33.040,64.8501,-0.000979
33.056,64.8501,-0.001017
33.072,64.8501,-0.001017
33.088,64.8501,-0.001017
33.104,64.8501,-0.001017
33.120,64.8501,-0.001017
33.136,64.8501,-0.001017
33.152,64.8501,-0.001017
33.168,64.8501,-0.001017
33.184,64.8501,-0.001017
33.201,64.8501,-0.001017
33.216,64.8501,-0.001017
33.232,64.8501,-0.001017
33.248,64.8501,-0.001017
33.264,64.8501,-0.001017
33.280,64.8501,-0.001017
33.296,64.8501,-0.001017
33.312,64.8501,-0.000979
33.329,64.8501,-0.000979
33.344,64.8501,-0.000979
33.361,64.8501,-0.000979
33.387,64.8501,-0.000979
33.402,64.8501,-0.000979
33.418,64.8501,-0.000979
33.434,64.8501,-0.000979
33.450,64.8501,-0.000979
33.466,64.8501,-0.000979
33.482,64.8501,-0.000979
33.498,64.8501,-0.000979
33.514,64.8501,-0.000979
33.530,64.8501,-0.000979
33.545,64.8501,-0.000979
33.562,64.8501,-0.000979
33.577,64.8501,-0.000979
33.593,64.8501,-0.000979
33.610,64.8501,-0.000979
33.626,64.8501,-0.000979
33.645,64.8501,-0.000979
33.669,64.8501,-0.000979
33.690,64.8501,-0.000979
33.706,64.8501,-0.000979
33.721,64.8501,-0.000979
33.738,64.8501,-0.000979
33.754,64.8501,-0.000979
33.769,64.8501,-0.000979
33.786,64.8501,-0.000979
33.802,64.8501,-0.000979
33.817,64.8501,-0.000979
33.834,64.8501,-0.000998
33.850,64.8501,-0.000998
33.866,64.8501,-0.000998
33.881,64.8501,-0.000998
33.898,64.8501,-0.000998
33.929,64.8501,-0.000998
33.944,64.8501,-0.000998
33.960,64.8501,-0.000998
33.977,64.8501,-0.000998
33.993,64.8501,-0.000998
34.015,64.8501,-0.000998
34.040,64.8501,-0.000998
34.057,64.8501,-0.000998
34.073,64.8501,-0.000998
34.094,64.8501,-0.001007
34.118,64.8501,-0.001007
34.136,64.8501,-0.001007
34.153,64.8501,-0.001007
34.168,64.8501,-0.001007
34.185,64.8501,-0.001007
34.201,64.8501,-0.001007
34.216,64.8501,-0.001007
34.232,64.8501,-0.001007
34.249,64.8501,-0.001007
34.265,64.8501,-0.001007
34.280,64.8501,-0.001007
34.297,64.8501,-0.001007
34.313,64.8501,-0.001007
34.328,64.8501,-0.001026
34.345,64.8501,-0.001026
34.361,64.8501,-0.001026
34.376,64.8501,-0.001026
34.393,64.8501,-0.001026
34.409,64.8501,-0.001026
34.424,64.8501,-0.001026
34.440,64.8501,-0.001026
34.456,64.8501,-0.001026
34.485,64.8501,-0.001026
34.500,64.8501,-0.001026
34.517,64.8501,-0.001026
34.533,64.8501,-0.001026
34.548,64.8501,-0.001026
34.564,64.8501,-0.001026
34.581,64.8501,-0.001045
34.596,64.8501,-0.001045
34.614,64.8501,-0.001045
34.629,64.8501,-0.001045
34.644,64.8501,-0.001045
34.660,64.8501,-0.001045
34.677,64.8501,-0.001045
34.706,64.8501,-0.001045
34.724,64.8501,-0.001045
34.740,64.8501,-0.001045
34.756,64.8501,-0.001045
34.772,64.8501,-0.001045
34.788,64.8501,-0.001045
34.804,64.8501,-0.001045
34.821,64.8501,-0.001045
34.836,64.8501,-0.001073
34.852,64.8501,-0.001073
34.869,64.8501,-0.001073
34.884,64.8501,-0.001073
34.900,64.8501,-0.001073
34.916,64.8501,-0.001073
34.933,64.8501,-0.001073
34.948,64.8501,-0.001073
34.964,64.8501,-0.001073
34.981,64.8501,-0.001073
35.011,64.8501,-0.001073
35.028,64.8501,-0.001073
35.044,64.8501,-0.001073
35.060,64.8501,-0.001073
35.075,64.8501,-0.001092
35.091,64.8501,-0.001092
35.107,64.8501,-0.001092
35.123,64.8501,-0.001092
35.139,64.8501,-0.001092
35.155,64.8501,-0.001092
35.178,64.8501,-0.001092
35.202,64.8501,-0.001092
35.219,64.8501,-0.001092
35.236,64.8501,-0.001092
35.251,64.8501,-0.001092
35.267,64.8501,-0.001092
35.283,64.8501,-0.001092
35.299,64.8501,-0.001092
35.315,64.8501,-0.001092
35.331,64.8501,-0.001092
35.347,64.8501,-0.001092
35.363,64.8501,-0.001092
35.380,64.8501,-0.001092
35.404,64.8501,-0.001092
35.419,64.8501,-0.001092
35.436,64.8501,-0.001092
35.466,64.8501,-0.001092
35.482,64.8501,-0.001092
35.512,64.8501,-0.001092
35.543,64.8501,-0.001092
35.574,64.8501,-0.001064
35.604,64.8501,-0.001064
35.620,64.8501,-0.001064
35.650,64.8501,-0.001064
35.669,64.8501,-0.001064
35.696,64.8501,-0.001064
35.715,64.8501,-0.001064
35.731,64.8501,-0.001064
35.747,64.8501,-0.001064
35.763,64.8501,-0.001064
35.779,64.8501,-0.001064
35.795,64.8501,-0.001064
35.811,64.8501,-0.001073
35.827,64.8501,-0.001073
35.843,64.8501,-0.001073
35.860,64.8501,-0.001073
35.883,64.8501,-0.001073
35.913,64.8501,-0.001073
35.944,64.8501,-0.001073
35.975,64.8501,-0.001073
36.006,64.8501,-0.001073
36.022,64.8501,-0.001073
36.053,64.8501,-0.001073
36.069,64.8501,-0.001073
36.085,64.8501,-0.001120
36.100,64.8501,-0.001120
36.131,64.8501,-0.001120
36.147,64.8501,-0.001120
36.164,64.8501,-0.001120
36.179,64.8501,-0.001120
36.195,64.8501,-0.001120
36.211,64.8501,-0.001120
36.227,64.8501,-0.001120
36.243,64.8501,-0.001120
36.259,64.8501,-0.001120
36.275,64.8501,-0.001120
36.292,64.8501,-0.001120
36.318,64.8501,-0.001120
36.349,64.8501,-0.001158
36.379,64.8501,-0.001158
36.409,64.8501,-0.001158
36.424,64.8501,-0.001158
36.455,64.8501,-0.001158
36.470,64.8500,-0.001158
36.501,64.8493,-0.001158
36.532,64.8478,-0.001158
36.547,64.8468,-0.001158
36.563,64.8455,-0.001158
36.591,64.8429,-0.001139
36.607,64.8411,-0.001139
36.623,64.8391,-0.001139
36.639,64.8370,-0.001139
36.655,64.8345,-0.001139
36.671,64.8320,-0.001139
36.687,64.8293,-0.001139
36.703,64.8264,-0.001139
36.723,64.8223,-0.001139
36.747,64.8171,-0.001139
36.767,64.8128,-0.001139
36.784,64.8086,-0.001139
36.799,64.8046,-0.001139
36.816,64.8000,-0.000508
36.840,64.7931,-0.000508
36.871,64.7839,-0.000508
36.901,64.7736,-0.000508
36.917,64.7684,-0.000508
36.948,64.7573,-0.000508
36.979,64.7452,-0.000508
37.009,64.7330,-0.000508
37.024,64.7260,-0.000508
37.055,64.7127,0.001120
37.070,64.7056,0.001120
37.090,64.6956,0.001120
37.117,64.6829,0.001120
37.132,64.6752,0.001120
37.147,64.6673,0.001120
37.164,64.6585,0.001120
37.179,64.6501,0.001120
37.196,64.6410,0.001120
37.212,64.6315,0.001120
37.228,64.6225,0.001120
37.243,64.6132,0.001120
37.260,64.6028,0.001120
37.279,64.5914,0.001120
37.301,64.5775,0.001120
37.316,64.5671,0.001120
37.333,64.5571,0.000706
37.364,64.5356,0.000706
37.394,64.5146,0.000706
37.425,64.4921,0.000706
37.441,64.4797,0.000706
37.472,64.4561,0.000706
37.488,64.4442,0.000706
37.519,64.4194,0.000706
37.550,64.3940,0.000706
37.566,64.3803,-0.000762
37.582,64.3663,-0.000762
37.612,64.3413,-0.000762
37.629,64.3257,-0.000762
37.653,64.3047,-0.000762
37.674,64.2853,-0.000762
37.689,64.2712,-0.000762
37.720,64.2420,-0.000762
37.751,64.2115,-0.000762
37.782,64.1814,-0.000762
37.812,64.1506,-0.000734
37.827,64.1343,-0.000734
37.844,64.1166,-0.000734
37.860,64.1005,-0.000734
37.876,64.0833,-0.000734
37.891,64.0667,-0.000734
37.908,64.0477,-0.000734
37.924,64.0311,-0.000734
37.940,64.0131,-0.000734
37.955,63.9952,-0.000734
37.971,63.9769,-0.000734
37.987,63.9585,-0.000734
38.003,63.9400,-0.000734
38.020,63.9206,-0.000734
38.035,63.9020,-0.000734
38.051,63.8829,-0.000631
38.067,63.8635,-0.000631
38.083,63.8435,-0.000631
38.100,63.8227,-0.000631
38.120,63.7973,-0.000631
38.135,63.7782,-0.000631
38.166,63.7378,-0.000631
38.182,63.7183,-0.000631
38.211,63.6798,-0.000631
38.227,63.6589,-0.000631
38.243,63.6373,-0.000631
38.259,63.6155,-0.000631
38.289,63.5730,-0.000631
38.305,63.5507,-0.000574
38.321,63.5282,-0.000574
38.340,63.5012,-0.000574
38.367,63.4627,-0.000574
38.385,63.4360,-0.000574
38.402,63.4118,-0.000574
38.417,63.3892,-0.000574
38.434,63.3647,-0.000574
38.449,63.3406,-0.000574
38.465,63.3167,-0.000574
38.481,63.2923,-0.000574
38.497,63.2680,-0.000574
38.513,63.2427,-0.000574
38.530,63.2167,-0.000574
38.546,63.1920,-0.000574
38.561,63.1667,-0.000508
38.577,63.1414,-0.000508
38.593,63.1153,-0.000508
38.609,63.0899,-0.000508
38.624,63.0638,-0.000508
38.641,63.0365,-0.000508
38.657,63.0106,-0.000508
38.673,62.9838,-0.000508
38.689,62.9562,-0.000508
38.705,62.9290,-0.000508
38.721,62.9018,-0.000508
38.737,62.8737,-0.000508
38.767,62.8220,-0.000508
38.783,62.7934,-0.000508
38.799,62.7652,-0.000395
38.815,62.7375,-0.000395
38.831,62.7090,-0.000395
38.847,62.6800,-0.000395
38.864,62.6497,-0.000395
38.880,62.6201,-0.000395
38.895,62.5912,-0.000395
38.911,62.5620,-0.000395
38.928,62.5306,-0.000395
38.943,62.5027,-0.000395
38.959,62.4712,-0.000395
38.975,62.4415,-0.000395
38.991,62.4107,-0.000395
39.007,62.3801,-0.000395
39.023,62.3488,-0.000395
39.039,62.3179,-0.000395
39.056,62.2853,-0.000292
39.071,62.2543,-0.000292
39.087,62.2219,-0.000292
39.103,62.1914,-0.000292
39.119,62.1594,-0.000292
39.135,62.1269,-0.000292
39.151,62.0928,-0.000292
39.167,62.0616,-0.000292
39.183,62.0275,-0.000292
39.199,61.9953,-0.000292
39.215,61.9622,-0.000292
39.231,61.9274,-0.000292
39.247,61.8949,-0.000292
39.263,61.8608,-0.000292
39.279,61.8252,-0.000292
39.295,61.7918,-0.000292
39.325,61.7286,-0.000207
39.341,61.6953,-0.000207
39.356,61.6628,-0.000207
39.372,61.6306,-0.000207
39.388,61.5972,-0.000207
39.405,61.5634,-0.000207
39.420,61.5317,-0.000207
39.436,61.4975,-0.000207
39.452,61.4666,-0.000207
39.468,61.4360,-0.000207
39.484,61.4034,-0.000207
39.500,61.3723,-0.000207
39.517,61.3380,-0.000207
39.545,61.2838,-0.000207
39.564,61.2477,-0.000367
39.581,61.2149,-0.000367
39.596,61.1861,-0.000367
39.612,61.1560,-0.000367
39.628,61.1253,-0.000367
39.644,61.0941,-0.000367
39.660,61.0664,-0.000367
39.676,61.0370,-0.000367
39.692,61.0075,-0.000367
39.708,60.9776,-0.000367
39.724,60.9487,-0.000367
39.740,60.9208,-0.000367
39.756,60.8918,-0.000367
39.772,60.8628,-0.000367
39.788,60.8354,-0.000367
39.804,60.8070,-0.000631
39.820,60.7786,-0.000631
39.836,60.7514,-0.000631
39.852,60.7251,-0.000631
39.876,60.6828,-0.000631
39.899,60.6441,-0.000631
39.917,60.6146,-0.000631
39.933,60.5885,-0.000631
39.964,60.5379,-0.000631
39.979,60.5114,-0.000631
39.995,60.4871,-0.000631
40.011,60.4619,-0.000631
40.041,60.4131,-0.000631
40.072,60.3673,-0.000631
40.087,60.3427,-0.000687
40.117,60.2982,-0.000687
40.148,60.2511,-0.000687
40.164,60.2285,-0.000687
40.180,60.2049,-0.000687
40.210,60.1614,-0.000687
40.226,60.1382,-0.000687
40.245,60.1109,-0.000687
40.262,60.0868,-0.000687
40.288,60.0525,-0.000687
40.306,60.0268,-0.000687
40.322,60.0051,-0.000687
40.339,59.9829,-0.000602
40.355,59.9617,-0.000602
40.371,59.9399,-0.000602
40.387,59.9193,-0.000602
40.402,59.8995,-0.000602
40.426,59.8686,-0.000602
40.442,59.8489,-0.000602
40.457,59.8297,-0.000602
40.474,59.8086,-0.000602
40.490,59.7880,-0.000602
40.505,59.7704,-0.000602
40.521,59.7509,-0.000602
40.537,59.7323,-0.000602
40.560,59.7049,-0.000602
40.583,59.6791,-0.000602
40.602,59.6566,-0.000518
40.618,59.6387,-0.000518
40.633,59.6217,-0.000518
40.650,59.6023,-0.000518
40.675,59.5749,-0.000518
40.698,59.5515,-0.000518
40.713,59.5350,-0.000518
40.730,59.5176,-0.000518
40.745,59.5016,-0.000518
40.761,59.4851,-0.000518
40.777,59.4691,-0.000518
40.794,59.4520,-0.000518
40.810,59.4369,-0.000518
40.825,59.4215,-0.000471
40.841,59.4060,-0.000471
40.859,59.3892,-0.000471
40.877,59.3726,-0.000471
40.907,59.3448,-0.000471
40.923,59.3301,-0.000471
40.953,59.3035,-0.000471
40.979,59.2808,-0.000471
40.995,59.2672,-0.000471
41.011,59.2537,-0.000471
41.027,59.2409,-0.000471
41.044,59.2278,-0.000471
41.059,59.2152,-0.000424
41.075,59.2026,-0.000424
41.092,59.1891,-0.000424
41.108,59.1777,-0.000424
41.124,59.1658,-0.000424
41.140,59.1537,-0.000424
41.157,59.1406,-0.000424
41.185,59.1218,-0.000424
41.203,59.1087,-0.000424
41.220,59.0975,-0.000424
41.236,59.0874,-0.000424
41.251,59.0771,-0.000424
41.267,59.0668,-0.000424
41.284,59.0562,-0.000424
41.300,59.0466,-0.000424
41.316,59.0365,-0.000358
41.341,59.0218,-0.000358
41.372,59.0038,-0.000358
41.403,58.9874,-0.000358
41.434,58.9709,-0.000358
41.449,58.9636,-0.000358
41.481,58.9482,-0.000358
41.512,58.9341,-0.000358
41.527,58.9271,-0.000358
41.559,58.9135,-0.000301
41.589,58.9012,-0.000301
41.620,58.8894,-0.000301
41.651,58.8784,-0.000301
41.667,58.8729,-0.000301
41.683,58.8678,-0.000301
41.699,58.8628,-0.000301
41.715,58.8579,-0.000301
41.731,58.8533,-0.000301
41.747,58.8489,-0.000301
41.764,58.8443,-0.000301
41.791,58.8375,-0.000301
41.811,58.8331,-0.000282
41.827,58.8295,-0.000282
41.843,58.8263,-0.000282
41.859,58.8232,-0.000282
41.875,58.8203,-0.000282
41.892,58.8174,-0.000282
41.910,58.8145,-0.000282
41.932,58.8115,-0.000282
41.947,58.8096,-0.000282
41.978,58.8062,-0.000282
42.009,58.8035,-0.000282
42.032,58.8021,-0.000282
42.048,58.8012,-0.000282
42.064,58.8006,-0.000264
42.081,58.8003,-0.000264
42.096,58.8000,-0.000264
42.112,58.8000,-0.000264
42.128,58.8000,-0.000264
42.145,58.8000,-0.000264
42.164,58.8000,-0.000264
42.195,58.8000,-0.000264
42.225,58.8000,-0.000264
42.256,58.8000,-0.000264
42.273,58.8000,-0.000264
42.302,58.8000,-0.000198
42.320,58.8000,-0.000198
42.338,58.8003,-0.000198
42.364,58.8010,-0.000198
42.384,58.8020,-0.000198
42.402,58.8031,-0.000198
42.417,58.8042,-0.000198
42.442,58.8065,-0.000198
42.472,58.8099,-0.000198
42.503,58.8139,-0.000198
42.534,58.8189,-0.000198
42.564,58.8242,-0.000198
42.595,58.8304,-0.000264
42.625,58.8372,-0.000264
42.640,58.8409,-0.000264
42.656,58.8449,-0.000264
42.672,58.8491,-0.000264
42.688,58.8537,-0.000264
42.704,58.8584,-0.000264
42.720,58.8634,-0.000264
42.736,58.8682,-0.000264
42.752,58.8736,-0.000264
42.768,58.8793,-0.000264
42.784,58.8845,-0.000264
42.800,58.8908,-0.000311
42.816,58.8965,-0.000311
42.832,58.9027,-0.000311
42.848,58.9091,-0.000311
42.864,58.9157,-0.000311
42.879,58.9223,-0.000311
42.899,58.9309,-0.000311
42.914,58.9374,-0.000311
42.936,58.9478,-0.000311
42.967,58.9631,-0.000311
42.998,58.9785,-0.000311
43.013,58.9872,-0.000311
43.029,58.9950,-0.000311
43.044,59.0033,-0.000311
43.075,59.0210,-0.000282
43.090,59.0301,-0.000282
43.121,59.0484,-0.000282
43.136,59.0576,-0.000282
43.152,59.0678,-0.000282
43.167,59.0774,-0.000282
43.186,59.0896,-0.000282
43.213,59.1082,-0.000282
43.232,59.1209,-0.000282
43.249,59.1326,-0.000282
43.264,59.1433,-0.000282
43.280,59.1557,-0.000282
43.295,59.1665,-0.000282
43.311,59.1788,-0.000282
43.328,59.1913,-0.000282
43.343,59.2032,-0.000329
43.359,59.2159,-0.000329
43.376,59.2295,-0.000329
43.393,59.2425,-0.000329
43.416,59.2621,-0.000329
43.447,59.2885,-0.000329
43.478,59.3150,-0.000329
43.493,59.3290,-0.000329
43.524,59.3570,-0.000329
43.554,59.3854,-0.000329
43.570,59.4005,-0.000329
43.601,59.4296,-0.000424
43.617,59.4457,-0.000424
43.648,59.4762,-0.000424
43.675,59.5042,-0.000424
43.691,59.5211,-0.000424
43.708,59.5383,-0.000424
43.724,59.5551,-0.000424
43.742,59.5744,-0.000424
43.771,59.6065,-0.000424
43.787,59.6248,-0.000424
43.805,59.6449,-0.000424
43.832,59.6756,-0.000527
43.851,59.6977,-0.000527
43.868,59.7169,-0.000527
43.883,59.7355,-0.000527
43.899,59.7546,-0.000527
43.915,59.7742,-0.000527
43.933,59.7963,-0.000527
43.949,59.8158,-0.000527
43.972,59.8437,-0.000527
44.003,59.8841,-0.000527
44.034,59.9230,-0.000527
44.064,59.9641,-0.000527
44.080,59.9839,-0.000555
44.110,60.0246,-0.000555
44.125,60.0464,-0.000555
44.157,60.0889,-0.000555
44.173,60.1113,-0.000555
44.203,60.1557,-0.000555
44.228,60.1898,-0.000555
44.243,60.2133,-0.000555
44.259,60.2362,-0.000555
44.276,60.2614,-0.000555
44.291,60.2836,-0.000555
44.307,60.3076,-0.000650
44.323,60.3318,-0.000650
44.339,60.3572,-0.000650
44.356,60.3824,-0.000650
44.371,60.4064,-0.000650
44.388,60.4329,-0.000650
44.406,60.4618,-0.000650
44.434,60.5060,-0.000650
44.451,60.5336,-0.000650
44.467,60.5592,-0.000650
44.483,60.5863,-0.000650
44.499,60.6117,-0.000650
44.516,60.6403,-0.000650
44.537,60.6754,-0.000650
44.558,60.7110,-0.000706
44.579,60.7472,-0.000706
44.595,60.7759,-0.000706
44.611,60.8020,-0.000706
44.627,60.8295,-0.000706
44.643,60.8581,-0.000706
44.659,60.8870,-0.000706
44.675,60.9146,-0.000706
44.690,60.9431,-0.000706
44.707,60.9725,-0.000706
44.723,61.0024,-0.000706
44.739,61.0308,-0.000706
44.755,61.0601,-0.000706
44.771,61.0902,-0.000706
44.787,61.1214,-0.000706
44.803,61.1515,-0.000706
44.819,61.1800,-0.000706
44.835,61.2115,-0.000706
44.851,61.2419,-0.000706
44.867,61.2724,-0.000706
44.883,61.3030,-0.000706
44.899,61.3346,-0.000706
44.915,61.3669,-0.000706
44.932,61.3995,-0.000706
44.947,61.4292,-0.000706
44.967,61.4701,-0.000706
44.989,61.5154,-0.000706
45.011,61.5590,-0.000706
45.027,61.5919,-0.000706
45.043,61.6243,-0.000706
45.059,61.6573,-0.000706
45.075,61.6909,-0.000706
45.091,61.7242,-0.000706
45.107,61.7592,-0.000706
45.123,61.7932,-0.000706
45.140,61.8289,-0.000706
45.165,61.8821,-0.000706
45.190,61.9354,-0.000706
45.221,61.9982,-0.000706
45.252,62.0627,-0.000706
45.284,62.1261,-0.000706
45.314,62.1861,-0.000471
45.331,62.2212,-0.000471
45.347,62.2507,-0.000471
45.363,62.2848,-0.000471
45.379,62.3140,-0.000471
45.395,62.3455,-0.000471
45.412,62.3780,-0.000471
45.437,62.4260,-0.000471
45.468,62.4862,-0.000471
45.500,62.5430,-0.000471
45.530,62.5997,-0.000471
45.561,62.6537,-0.000235
45.576,62.6814,-0.000235
45.592,62.7106,-0.000235
45.622,62.7647,-0.000235
45.652,62.8163,-0.000235
45.683,62.8686,-0.000235
45.702,62.9020,-0.000235
45.730,62.9488,-0.000235
45.747,62.9764,-0.000235
45.764,63.0038,-0.000235
45.791,63.0495,-0.000235
45.811,63.0813,-0.000292
45.837,63.1226,-0.000292
45.853,63.1486,-0.000292
45.869,63.1737,-0.000292
45.885,63.1984,-0.000292
45.900,63.2228,-0.000292
45.917,63.2477,-0.000292
45.933,63.2735,-0.000292
45.948,63.2962,-0.000292
45.965,63.3214,-0.000292
45.980,63.3439,-0.000292
45.999,63.3714,-0.000292
46.021,63.4051,-0.000292
46.037,63.4268,-0.000292
46.053,63.4493,-0.000292
46.069,63.4720,-0.000292
46.085,63.4950,-0.000405
46.115,63.5371,-0.000405
46.131,63.5588,-0.000405
46.162,63.6011,-0.000405
46.177,63.6220,-0.000405
46.193,63.6426,-0.000405
46.209,63.6642,-0.000405
46.240,63.7035,-0.000405
46.270,63.7426,-0.000405
46.286,63.7622,-0.000405
46.317,63.8000,-0.000405
46.332,63.8194,-0.000405
46.359,63.8515,-0.000480
46.375,63.8711,-0.000480
46.391,63.8891,-0.000480
46.407,63.9084,-0.000480
46.423,63.9271,-0.000480
46.443,63.9498,-0.000480
46.470,63.9806,-0.000480
46.486,63.9980,-0.000480
46.502,64.0161,-0.000480
46.518,64.0332,-0.000480
46.534,64.0502,-0.000480
46.551,64.0680,-0.000480
46.580,64.0980,-0.000574
46.598,64.1168,-0.000574
46.615,64.1339,-0.000574
46.631,64.1495,-0.000574
46.646,64.1645,-0.000574
46.663,64.1805,-0.000574
46.679,64.1963,-0.000574
46.695,64.2115,-0.000574
46.710,64.2258,-0.000574
46.727,64.2409,-0.000574
46.743,64.2559,-0.000574
46.759,64.2702,-0.000574
46.774,64.2838,-0.000574
46.791,64.2983,-0.000574
46.807,64.3125,-0.000574
46.822,64.3257,-0.000744
46.838,64.3393,-0.000744
46.855,64.3524,-0.000744
46.881,64.3744,-0.000744
46.897,64.3869,-0.000744
46.914,64.4000,-0.000744
46.929,64.4118,-0.000744
46.945,64.4239,-0.000744
46.961,64.4359,-0.000744
46.977,64.4479,-0.000744
46.994,64.4594,-0.000744
47.010,64.4709,-0.000744
47.025,64.4820,-0.000744
47.041,64.4929,-0.000744
47.057,64.5037,-0.000744
47.073,64.5144,-0.000810
47.089,64.5247,-0.000810
47.106,64.5357,-0.000810
47.128,64.5492,-0.000810
47.154,64.5647,-0.000810
47.171,64.5750,-0.000810
47.200,64.5915,-0.000810
47.217,64.6013,-0.000810
47.234,64.6103,-0.000810
47.249,64.6182,-0.000810
47.265,64.6266,-0.000810
47.281,64.6347,-0.000810
47.299,64.6434,-0.000810
47.324,64.6558,-0.000885
47.345,64.6652,-0.000885
47.362,64.6724,-0.000885
47.377,64.6791,-0.000885
47.393,64.6862,-0.000885
47.416,64.6956,-0.000885
47.439,64.7043,-0.000885
47.464,64.7139,-0.000885
47.480,64.7190,-0.000885
47.496,64.7246,-0.000885
47.511,64.7297,-0.000885
47.528,64.7350,-0.000885
47.543,64.7399,-0.000885
47.559,64.7446,-0.000885
47.575,64.7490,-0.000951
47.591,64.7534,-0.000951
47.611,64.7585,-0.000951
47.635,64.7643,-0.000951
47.655,64.7689,-0.000951
47.672,64.7726,-0.000951
47.697,64.7772,-0.000951
47.713,64.7802,-0.000951
47.744,64.7853,-0.000951
47.759,64.7874,-0.000951
47.790,64.7912,-0.000951
47.806,64.7929,-0.000951
47.835,64.7957,-0.000998
47.867,64.7979,-0.000998
47.897,64.7993,-0.000998
47.928,64.7999,-0.000998
47.959,64.8000,-0.000998
47.975,64.8000,-0.000998
47.991,64.8000,-0.000998
48.007,64.8000,-0.000998
48.023,64.8000,-0.000998
48.042,64.8000,-0.000998
48.067,64.8000,-0.001054
48.087,64.8000,-0.001054
48.103,64.8000,-0.001054
48.119,64.8000,-0.001054
48.135,64.8000,-0.001054
48.152,64.8000,-0.001054
48.167,64.8000,-0.001054
48.183,64.8000,-0.001054
48.199,64.8000,-0.001054
48.215,64.8000,-0.001054
48.231,64.8000,-0.001054
48.247,64.8000,-0.001054
48.263,64.8000,-0.001054
48.279,64.8000,-0.001054
48.295,64.8000,-0.001054
48.311,64.8000,-0.001017
48.327,64.8000,-0.001017
48.343,64.8000,-0.001017
48.365,64.8000,-0.001017
48.391,64.8000,-0.001017
48.408,64.8000,-0.001017
48.424,64.8000,-0.001017
48.453,64.8000,-0.001017
48.470,64.8000,-0.001017
48.494,64.8000,-0.001017
48.509,64.8000,-0.001017
48.525,64.8000,-0.001017
48.542,64.8000,-0.001017
48.558,64.8000,-0.001045
48.574,64.8000,-0.001045
48.590,64.8000,-0.001045
48.605,64.8000,-0.001045
48.622,64.8000,-0.001045
48.637,64.8000,-0.001045
48.654,64.8000,-0.001045
48.670,64.8000,-0.001045
48.685,64.8000,-0.001045
48.702,64.8000,-0.001045
48.719,64.8000,-0.001045
48.749,64.8000,-0.001045
48.765,64.8000,-0.001045
48.782,64.8000,-0.001045
48.797,64.8000,-0.001045
48.814,64.8000,-0.000998
48.829,64.8000,-0.000998
48.850,64.8000,-0.000998
48.872,64.8000,-0.000998
48.893,64.8000,-0.000998
48.909,64.8000,-0.000998
48.926,64.8000,-0.000998
48.942,64.8000,-0.000998
48.957,64.8000,-0.000998
48.974,64.8000,-0.000998
48.989,64.8000,-0.000998
49.005,64.8000,-0.000998
49.027,64.8000,-0.000998
49.057,64.8000,-0.000970
49.075,64.8000,-0.000970
49.096,64.8000,-0.000970
49.119,64.8000,-0.000970
49.138,64.8000,-0.000970
49.157,64.8000,-0.000970
49.180,64.8000,-0.000970
49.211,64.8000,-0.000970
49.229,64.8000,-0.000970
49.250,64.8000,-0.000970
49.266,64.8000,-0.000970
49.282,64.8000,-0.000970
49.298,64.8000,-0.000970
49.314,64.8000,-0.001035
49.330,64.8000,-0.001035
49.346,64.8000,-0.001035
49.363,64.8000,-0.001035
49.380,64.8000,-0.001035
49.411,64.8000,-0.001035
49.442,64.8000,-0.001035
49.460,64.8000,-0.001035
49.476,64.8000,-0.001035
49.506,64.8000,-0.001035
49.522,64.8000,-0.001035
49.539,64.8000,-0.001035
49.555,64.8000,-0.001035
49.582,64.8000,-0.001054
49.598,64.8000,-0.001054
49.628,64.8000,-0.001054
49.645,64.8000,-0.001054
49.676,64.8000,-0.001054
49.692,64.8000,-0.001054
49.709,64.8000,-0.001054
49.725,64.8000,-0.001054
49.740,64.8000,-0.001054
49.756,64.8000,-0.001054
49.776,64.8000,-0.001054
49.799,64.8000,-0.001045
49.820,64.8000,-0.001045
49.837,64.8000,-0.001045
49.852,64.8000,-0.001045
49.868,64.8000,-0.001045
49.885,64.8000,-0.001045
49.901,64.8000,-0.001045
49.916,64.8000,-0.001045
49.932,64.8000,-0.001045
49.948,64.8000,-0.001045
49.965,64.8000,-0.001045
49.980,64.8000,-0.001045
49.996,64.8000,-0.001045
50.012,64.8000,-0.001045
50.028,64.8000,-0.001045
50.044,64.8000,-0.001045
50.060,64.8000,-0.001007
50.076,64.8000,-0.001007
50.093,64.8000,-0.001007
50.108,64.8000,-0.001007
50.136,64.8000,-0.001007
50.153,64.8000,-0.001007
50.171,64.8000,-0.001007
50.187,64.8000,-0.001007
50.203,64.8000,-0.001007
50.233,64.8000,-0.001007
50.248,64.8000,-0.001007
50.265,64.8000,-0.001007
50.280,64.8000,-0.001007
50.296,64.8000,-0.001007
50.312,64.8000,-0.001017
50.333,64.8000,-0.001017
50.356,64.8000,-0.001017
50.376,64.8000,-0.001017
50.393,64.8000,-0.001017
50.409,64.8000,-0.001017
50.433,64.8000,-0.001017
50.448,64.8000,-0.001017
50.464,64.8000,-0.001017
50.494,64.8000,-0.001017
50.525,64.8000,-0.001017
50.557,64.8000,-0.001035
50.588,64.8000,-0.001035
50.619,64.8000,-0.001035
50.635,64.8000,-0.001035
50.650,64.8000,-0.001035
50.678,64.8000,-0.001035
50.701,64.8000,-0.001035
50.728,64.8000,-0.001035
50.744,64.8000,-0.001035
50.776,64.8000,-0.001035
50.806,64.8000,-0.001035
50.822,64.8000,-0.001035
50.853,64.8000,-0.000988
50.870,64.8000,-0.000988
50.900,64.8000,-0.000988
50.917,64.8000,-0.000988
50.935,64.8000,-0.000988
50.961,64.8000,-0.000988
50.981,64.8000,-0.000988
50.997,64.8000,-0.000988
51.013,64.8000,-0.000988
51.028,64.8000,-0.000988
51.044,64.8000,-0.000988
51.061,64.8000,-0.000988
51.078,64.8000,-0.000988
51.102,64.8000,-0.000922
51.133,64.8000,-0.000922
51.148,64.8000,-0.000922
51.164,64.8000,-0.000922
51.195,64.8000,-0.000922
51.225,64.8000,-0.000922
51.256,64.8000,-0.000922
51.272,64.8000,-0.000922
51.287,64.8000,-0.000922
51.318,64.8000,-0.000922
51.349,64.8000,-0.000932
51.366,64.8000,-0.000932
51.381,64.8000,-0.000932
51.412,64.8000,-0.000932
51.432,64.8000,-0.000932
51.458,64.8000,-0.000932
51.477,64.8000,-0.000932
51.493,64.8000,-0.000932
51.509,64.8000,-0.000932
51.525,64.8000,-0.000932
51.541,64.8000,-0.000932
51.557,64.8000,-0.000932
51.572,64.8000,-0.000932
51.588,64.8000,-0.000988
51.605,64.8000,-0.000988
51.621,64.8000,-0.000988
51.636,64.8000,-0.000988
51.652,64.8000,-0.000988
51.668,64.8000,-0.000988
51.685,64.8000,-0.000988
51.700,64.8000,-0.000988
51.717,64.8000,-0.000988
51.733,64.8000,-0.000988
51.749,64.8000,-0.000988
51.764,64.8000,-0.000988
51.780,64.8000,-0.000988
51.797,64.8000,-0.000988
51.812,64.8000,-0.001064
51.828,64.8000,-0.001064
51.845,64.8000,-0.001064
51.862,64.8000,-0.001064
51.891,64.8000,-0.001064
51.914,64.8000,-0.001064
51.938,64.8000,-0.001064
51.956,64.8000,-0.001064
51.973,64.8000,-0.001064
51.988,64.8000,-0.001064
52.005,64.8000,-0.001064
52.020,64.8000,-0.001064
52.036,64.8000,-0.001064
52.053,64.8000,-0.001064
52.068,64.8000,-0.001101
52.084,64.8000,-0.001101
52.100,64.8000,-0.001101
52.116,64.8000,-0.001101
52.132,64.8000,-0.001101
52.148,64.8000,-0.001101
52.164,64.8000,-0.001101
52.180,64.8000,-0.001101
52.196,64.8000,-0.001101
52.213,64.7999,-0.001101
52.231,64.7995,-0.001101
52.262,64.7984,-0.001101
52.278,64.7975,-0.001101
52.308,64.7954,-0.001111
52.324,64.7939,-0.001111
52.341,64.7922,-0.001111
52.371,64.7887,-0.001111
52.388,64.7861,-0.001111
52.405,64.7836,-0.001111
52.433,64.7791,-0.001111
52.452,64.7755,-0.001111
52.469,64.7720,-0.001111
52.484,64.7689,-0.001111
52.501,64.7653,-0.001111
52.516,64.7614,-0.001111
52.532,64.7573,-0.001111
52.548,64.7535,-0.001111
52.564,64.7492,-0.000546
52.580,64.7445,-0.000546
52.597,64.7396,-0.000546
52.612,64.7347,-0.000546
52.628,64.7298,-0.000546
52.644,64.7245,-0.000546
52.661,64.7188,-0.000546
52.676,64.7133,-0.000546
52.692,64.7074,-0.000546
52.709,64.7008,-0.000546
52.724,64.6951,-0.000546
52.740,64.6885,-0.000546
52.756,64.6817,-0.000546
52.773,64.6740,-0.000546
52.797,64.6637,-0.000546
52.814,64.6557,-0.000546
52.835,64.6462,-0.000546
52.851,64.6382,0.001130
52.882,64.6227,0.001130
52.913,64.6062,0.001130
52.928,64.5974,0.001130
52.959,64.5797,0.001130
52.990,64.5623,0.001130
53.021,64.5435,0.001130
53.037,64.5330,0.001130
53.053,64.5231,0.001130
53.082,64.5036,0.000744
53.100,64.4917,0.000744
53.116,64.4805,0.000744
53.132,64.4691,0.000744
53.149,64.4571,0.000744
53.164,64.4458,0.000744
53.180,64.4343,0.000744
53.196,64.4227,0.000744
53.212,64.4105,0.000744
53.228,64.3977,0.000744
53.244,64.3855,0.000744
53.260,64.3729,0.000744
53.276,64.3599,0.000744
53.292,64.3457,0.000744
53.308,64.3332,0.000744
53.324,64.3198,0.000744
53.340,64.3059,-0.000706
53.357,64.2913,-0.000706
53.375,64.2744,-0.000706
53.408,64.2454,-0.000706
53.437,64.2188,-0.000706
53.454,64.2026,-0.000706
53.483,64.1743,-0.000706
53.500,64.1577,-0.000706
53.517,64.1412,-0.000706
53.545,64.1132,-0.000706
53.564,64.0931,-0.000715
53.580,64.0762,-0.000715
53.596,64.0598,-0.000715
53.612,64.0430,-0.000715
53.628,64.0257,-0.000715
53.644,64.0084,-0.000715
53.660,63.9909,-0.000715
53.676,63.9730,-0.000715
53.692,63.9538,-0.000715
53.708,63.9364,-0.000715
53.724,63.9183,-0.000715
53.740,63.8982,-0.000715
53.755,63.8809,-0.000715
53.772,63.8612,-0.000715
53.787,63.8429,-0.000715
53.805,63.8216,-0.000715
53.820,63.8031,-0.000715
53.836,63.7838,-0.000715
53.866,63.7458,-0.000678
53.882,63.7257,-0.000678
53.898,63.7056,-0.000678
53.914,63.6841,-0.000678
53.930,63.6645,-0.000678
53.946,63.6425,-0.000678
53.962,63.6217,-0.000678
53.978,63.5992,-0.000678
53.996,63.5743,-0.000678
54.024,63.5358,-0.000678
54.041,63.5129,-0.000678
54.058,63.4891,-0.000678
54.073,63.4678,-0.000678
54.089,63.4452,-0.000527
54.105,63.4222,-0.000527
54.123,63.3967,-0.000527
54.138,63.3747,-0.000527
54.153,63.3519,-0.000527
54.170,63.3260,-0.000527
54.189,63.2977,-0.000527
54.211,63.2655,-0.000527
54.226,63.2413,-0.000527
54.257,63.1944,-0.000527
54.287,63.1463,-0.000527
54.318,63.0977,-0.000527
54.350,63.0463,-0.000442
54.380,62.9971,-0.000442
54.411,62.9441,-0.000442
54.427,62.9187,-0.000442
54.458,62.8652,-0.000442
54.473,62.8385,-0.000442
54.490,62.8108,-0.000442
54.506,62.7834,-0.000442
54.522,62.7545,-0.000442
54.537,62.7280,-0.000442
54.554,62.6971,-0.000442
54.570,62.6702,-0.000442
54.586,62.6395,-0.000339
54.601,62.6127,-0.000339
54.617,62.5833,-0.000339
54.633,62.5541,-0.000339
54.649,62.5249,-0.000339
54.666,62.4928,-0.000339
54.682,62.4623,-0.000339
54.697,62.4338,-0.000339
54.716,62.3973,-0.000339
54.734,62.3644,-0.000339
54.751,62.3328,-0.000339
54.781,62.2723,-0.000339
54.811,62.2139,-0.000339
54.841,62.1538,-0.000254
54.859,62.1189,-0.000254
54.888,62.0591,-0.000254
54.916,62.0015,-0.000254
54.933,61.9679,-0.000254
54.948,61.9361,-0.000254
54.965,61.8997,-0.000254
54.983,61.8630,-0.000254
55.012,61.8020,-0.000254
55.028,61.7663,-0.000254
55.045,61.7309,-0.000254
55.073,61.6713,-0.000217
55.092,61.6320,-0.000217
55.108,61.5969,-0.000217
55.124,61.5646,-0.000217
55.140,61.5327,-0.000217
55.157,61.4969,-0.000217
55.177,61.4565,-0.000217
55.197,61.4159,-0.000217
55.228,61.3544,-0.000217
55.259,61.2939,-0.000217
55.275,61.2606,-0.000217
55.305,61.2036,-0.000217
55.337,61.1423,-0.000367
55.353,61.1134,-0.000367
55.383,61.0555,-0.000367
55.414,60.9982,-0.000367
55.430,60.9699,-0.000367
55.445,60.9414,-0.000367
55.473,60.8902,-0.000367
55.489,60.8625,-0.000367
55.505,60.8340,-0.000367
55.521,60.8050,-0.000367
55.537,60.7772,-0.000367
55.553,60.7493,-0.000367
55.569,60.7211,-0.000584
55.585,60.6945,-0.000584
55.601,60.6664,-0.000584
55.617,60.6398,-0.000584
55.633,60.6124,-0.000584
55.649,60.5864,-0.000584
55.665,60.5583,-0.000584
55.681,60.5334,-0.000584
55.698,60.5057,-0.000584
55.713,60.4813,-0.000584
55.731,60.4518,-0.000584
55.755,60.4140,-0.000584
55.771,60.3874,-0.000584
55.793,60.3536,-0.000584
55.809,60.3293,-0.000584
55.825,60.3048,-0.000612
55.841,60.2792,-0.000612
55.857,60.2558,-0.000612
55.873,60.2315,-0.000612
55.889,60.2080,-0.000612
55.905,60.1845,-0.000612
55.921,60.1607,-0.000612
55.937,60.1377,-0.000612
55.953,60.1137,-0.000612
55.969,60.0915,-0.000612
55.985,60.0681,-0.000612
56.001,60.0467,-0.000612
56.030,60.0051,-0.000612
56.046,59.9838,-0.000612
56.062,59.9626,-0.000602
56.078,59.9409,-0.000602
56.094,59.9191,-0.000602
56.110,59.8966,-0.000602
56.126,59.8774,-0.000602
56.142,59.8563,-0.000602
56.159,59.8350,-0.000602
56.174,59.8155,-0.000602
56.190,59.7949,-0.000602
56.206,59.7750,-0.000602
56.222,59.7537,-0.000602
56.238,59.7359,-0.000602
56.254,59.7162,-0.000602
56.270,59.6973,-0.000602
56.286,59.6780,-0.000602
56.302,59.6592,-0.000602
56.319,59.6395,-0.000555
56.344,59.6098,-0.000555
56.359,59.5929,-0.000555
56.375,59.5748,-0.000555
56.407,59.5397,-0.000555
56.440,59.5037,-0.000555
56.468,59.4742,-0.000555
56.499,59.4427,-0.000555
56.529,59.4116,-0.000555
56.553,59.3886,-0.000555
56.569,59.3726,-0.000555
56.585,59.3567,-0.000489
56.601,59.3417,-0.000489
56.617,59.3270,-0.000489
56.633,59.3125,-0.000489
56.649,59.2968,-0.000489
56.665,59.2831,-0.000489
56.680,59.2691,-0.000489
56.696,59.2550,-0.000489
56.712,59.2412,-0.000489
56.728,59.2269,-0.000489
56.745,59.2140,-0.000489
56.760,59.2006,-0.000489
56.776,59.1873,-0.000489
56.792,59.1746,-0.000489
56.809,59.1615,-0.000405
56.825,59.1489,-0.000405
56.841,59.1362,-0.000405
56.856,59.1247,-0.000405
56.873,59.1127,-0.000405
56.888,59.1011,-0.000405
56.905,59.0892,-0.000405
56.921,59.0774,-0.000405
56.936,59.0670,-0.000405
56.952,59.0560,-0.000405
56.968,59.0452,-0.000405
56.985,59.0343,-0.000405
57.000,59.0242,-0.000405
57.016,59.0141,-0.000405
57.032,59.0040,-0.000405
57.048,58.9942,-0.000405
57.065,58.9844,-0.000405
57.088,58.9703,-0.000301
57.103,58.9620,-0.000301
57.120,58.9526,-0.000301
57.136,58.9438,-0.000301
57.152,58.9352,-0.000301
57.168,58.9269,-0.000301
57.183,58.9191,-0.000301
57.200,58.9105,-0.000301
57.217,58.9022,-0.000301
57.239,58.8918,-0.000301
57.270,58.8779,-0.000301
57.285,58.8711,-0.000301
57.316,58.8587,-0.000254
57.331,58.8521,-0.000254
57.353,58.8440,-0.000254
57.378,58.8347,-0.000254
57.408,58.8243,-0.000254
57.439,58.8143,-0.000254
57.456,58.8092,-0.000254
57.485,58.8008,-0.000254
57.503,58.7959,-0.000254
57.520,58.7916,-0.000254
57.535,58.7879,-0.000254
57.552,58.7841,-0.000198
57.567,58.7807,-0.000198
57.584,58.7772,-0.000198
57.600,58.7741,-0.000198
57.615,58.7710,-0.000198
57.639,58.7670,-0.000198
57.670,58.7624,-0.000198
57.686,58.7604,-0.000198
57.703,58.7585,-0.000198
57.718,58.7567,-0.000198
57.734,58.7552,-0.000198
57.750,58.7540,-0.000198
57.767,58.7528,-0.000198
57.794,58.7513,-0.000198
57.814,58.7505,-0.000179
57.830,58.7502,-0.000179
57.847,58.7500,-0.000179
57.862,58.7500,-0.000179
57.878,58.7500,-0.000179
57.894,58.7500,-0.000179
57.910,58.7500,-0.000179
57.926,58.7500,-0.000179
57.942,58.7500,-0.000179
57.958,58.7500,-0.000179
57.974,58.7500,-0.000179
57.990,58.7502,-0.000179
58.006,58.7504,-0.000179
58.022,58.7509,-0.000179
58.038,58.7516,-0.000179
58.054,58.7525,-0.000179
58.070,58.7536,-0.000179
58.086,58.7549,-0.000188
58.103,58.7564,-0.000188
58.119,58.7581,-0.000188
58.149,58.7618,-0.000188
58.173,58.7652,-0.000188
58.189,58.7676,-0.000188
58.205,58.7704,-0.000188
58.221,58.7733,-0.000188
58.237,58.7764,-0.000188
58.253,58.7797,-0.000188
58.269,58.7831,-0.000188
58.285,58.7869,-0.000188
58.301,58.7907,-0.000188
58.317,58.7947,-0.000273
58.333,58.7991,-0.000273
58.349,58.8035,-0.000273
58.365,58.8083,-0.000273
58.381,58.8129,-0.000273
58.397,58.8180,-0.000273
58.414,58.8236,-0.000273
58.429,58.8288,-0.000273
58.446,58.8347,-0.000273
58.473,58.8445,-0.000273
58.494,58.8528,-0.000273
58.520,58.8636,-0.000273
58.541,58.8722,-0.000273
58.557,58.8791,-0.000273
58.573,58.8861,-0.000311
58.589,58.8934,-0.000311
58.605,58.9016,-0.000311
58.621,58.9088,-0.000311
58.637,58.9167,-0.000311
58.653,58.9249,-0.000311
58.669,58.9332,-0.000311
58.685,58.9418,-0.000311
58.701,58.9506,-0.000311
58.725,58.9641,-0.000311
58.741,58.9733,-0.000311
58.757,58.9824,-0.000311
58.773,58.9924,-0.000311
58.791,59.0033,-0.000311
58.815,59.0179,-0.000311
58.830,59.0280,-0.000245
58.846,59.0390,-0.000245
58.868,59.0534,-0.000245
58.884,59.0643,-0.000245
58.901,59.0758,-0.000245
58.918,59.0880,-0.000245
58.939,59.1034,-0.000245
58.970,59.1266,-0.000245
58.986,59.1386,-0.000245
59.017,59.1622,-0.000245
59.034,59.1757,-0.000245
59.064,59.2001,-0.000339
59.094,59.2257,-0.000339
59.109,59.2386,-0.000339
59.125,59.2521,-0.000339
59.141,59.2658,-0.000339
59.158,59.2817,-0.000339
59.187,59.3080,-0.000339
59.204,59.3238,-0.000339
59.221,59.3398,-0.000339
59.236,59.3540,-0.000339
59.252,59.3696,-0.000339
59.278,59.3943,-0.000339
59.293,59.4097,-0.000339
59.309,59.4255,-0.000414
59.325,59.4421,-0.000414
59.341,59.4577,-0.000414
59.356,59.4743,-0.000414
59.372,59.4912,-0.000414
59.389,59.5086,-0.000414
59.404,59.5260,-0.000414
59.421,59.5435,-0.000414
59.437,59.5613,-0.000414
59.453,59.5786,-0.000414
59.469,59.5977,-0.000414
59.485,59.6148,-0.000414
59.501,59.6339,-0.000414
59.516,59.6514,-0.000414
59.534,59.6739,-0.000414
59.559,59.7022,-0.000414
59.593,59.7427,-0.000499
59.613,59.7681,-0.000499
59.637,59.7978,-0.000499
59.652,59.8174,-0.000499
59.668,59.8381,-0.000499
59.699,59.8770,-0.000499
59.714,59.8974,-0.000499
59.745,59.9379,-0.000499
59.761,59.9598,-0.000499
59.777,59.9828,-0.000499
59.802,60.0156,-0.000499
59.818,60.0383,-0.000499
59.834,60.0608,-0.000574
59.850,60.0834,-0.000574
59.865,60.1051,-0.000574
59.882,60.1287,-0.000574
59.898,60.1517,-0.000574
59.913,60.1747,-0.000574
59.930,60.1991,-0.000574
59.945,60.2223,-0.000574
59.962,60.2479,-0.000574
59.979,60.2746,-0.000574
60.010,60.3197,-0.000574
60.027,60.3465,-0.000574
60.042,60.3700,-0.000574
60.071,60.4164,-0.000593
60.096,60.4558,-0.000593
60.118,60.4916,-0.000593
60.137,60.5222,-0.000593
60.156,60.5530,-0.000593
60.179,60.5921,-0.000593
60.210,60.6437,-0.000593
60.226,60.6710,-0.000593
60.257,60.7257,-0.000593
60.288,60.7792,-0.000593
60.319,60.8342,-0.000593
60.341,60.8717,-0.000612
60.366,60.9166,-0.000612
60.396,60.9735,-0.000612
60.427,61.0292,-0.000612
60.443,61.0581,-0.000612
60.458,61.0895,-0.000612
60.490,61.1470,-0.000612
60.520,61.2076,-0.000612
60.540,61.2430,-0.000612
60.567,61.2957,-0.000668
60.597,61.3564,-0.000668
60.628,61.4183,-0.000668
60.660,61.4820,-0.000668
60.675,61.5140,-0.000668
60.691,61.5463,-0.000668
60.709,61.5832,-0.000668
60.736,61.6415,-0.000668
60.755,61.6797,-0.000668
60.771,61.7132,-0.000668
60.787,61.7468,-0.000668
60.803,61.7814,-0.000762
60.819,61.8153,-0.000762
60.835,61.8494,-0.000762
60.851,61.8821,-0.000762
60.867,61.9168,-0.000762
60.890,61.9635,-0.000762
60.907,61.9966,-0.000762
60.922,62.0277,-0.000762
60.938,62.0597,-0.000762
60.955,62.0953,-0.000762
60.982,62.1480,-0.000762
61.002,62.1883,-0.000762
61.018,62.2202,-0.000762
61.034,62.2508,-0.000762
61.050,62.2811,-0.000537
61.066,62.3132,-0.000537
61.082,62.3436,-0.000537
61.098,62.3728,-0.000537
61.114,62.4033,-0.000537
61.130,62.4346,-0.000537
61.146,62.4632,-0.000537
61.162,62.4935,-0.000537
61.178,62.5227,-0.000537
61.194,62.5532,-0.000537
61.210,62.5805,-0.000537
61.226,62.6101,-0.000537
61.242,62.6382,-0.000537
61.258,62.6668,-0.000537
61.274,62.6950,-0.000537
61.290,62.7234,-0.000537
61.307,62.7533,-0.000537
61.322,62.7804,-0.000537
61.339,62.8077,-0.000311
61.369,62.8589,-0.000311
61.386,62.8889,-0.000311
61.402,62.9145,-0.000311
61.429,62.9602,-0.000311
61.446,62.9873,-0.000311
61.461,63.0122,-0.000311
61.476,63.0371,-0.000311
61.492,63.0626,-0.000311
61.509,63.0882,-0.000311
61.524,63.1127,-0.000311
61.540,63.1372,-0.000311
61.557,63.1641,-0.000311
61.584,63.2064,-0.000377
61.604,63.2358,-0.000377
61.620,63.2605,-0.000377
61.636,63.2842,-0.000377
61.652,63.3076,-0.000377
61.668,63.3312,-0.000377
61.684,63.3546,-0.000377
61.700,63.3775,-0.000377
61.716,63.4024,-0.000377
61.732,63.4238,-0.000377
61.748,63.4464,-0.000377
61.764,63.4682,-0.000377
61.780,63.4906,-0.000377
61.796,63.5128,-0.000377
61.812,63.5345,-0.000377
61.828,63.5559,-0.000395
61.844,63.5778,-0.000395
61.860,63.5987,-0.000395
61.876,63.6196,-0.000395
61.892,63.6411,-0.000395
61.908,63.6615,-0.000395
61.924,63.6817,-0.000395
61.940,63.7024,-0.000395
61.956,63.7220,-0.000395
61.984,63.7575,-0.000395
61.999,63.7757,-0.000395
62.016,63.7955,-0.000395
62.033,63.8160,-0.000395
62.064,63.8532,-0.000395
62.080,63.8705,-0.000461
62.096,63.8893,-0.000461
62.113,63.9105,-0.000461
62.128,63.9255,-0.000461
62.144,63.9434,-0.000461
62.160,63.9604,-0.000461
62.176,63.9784,-0.000461
62.192,63.9961,-0.000461
62.207,64.0120,-0.000461
62.224,64.0298,-0.000461
62.240,64.0462,-0.000461
62.255,64.0618,-0.000461
62.272,64.0784,-0.000461
62.288,64.0944,-0.000461
62.304,64.1106,-0.000461
62.319,64.1257,-0.000555
62.335,64.1410,-0.000555
62.352,64.1571,-0.000555
62.368,64.1718,-0.000555
62.383,64.1863,-0.000555
62.400,64.2012,-0.000555
62.416,64.2156,-0.000555
62.431,64.2301,-0.000555
62.448,64.2440,-0.000555
62.464,64.2588,-0.000555
62.481,64.2729,-0.000555
62.512,64.2992,-0.000555
62.537,64.3195,-0.000555
62.553,64.3324,-0.000555
62.570,64.3452,-0.000668
62.585,64.3575,-0.000668
62.601,64.3698,-0.000668
62.617,64.3816,-0.000668
62.634,64.3937,-0.000668
62.650,64.4055,-0.000668
62.665,64.4168,-0.000668
62.681,64.4278,-0.000668
62.697,64.4389,-0.000668
62.716,64.4523,-0.000668
62.744,64.4707,-0.000668
62.762,64.4815,-0.000668
62.778,64.4922,-0.000668
62.793,64.5014,-0.000668
62.810,64.5113,-0.000762
62.825,64.5205,-0.000762
62.842,64.5304,-0.000762
62.858,64.5393,-0.000762
62.873,64.5479,-0.000762
62.890,64.5569,-0.000762
62.905,64.5655,-0.000762
62.922,64.5739,-0.000762
62.937,64.5817,-0.000762
62.954,64.5900,-0.000762
62.970,64.5977,-0.000762
62.986,64.6054,-0.000762
63.001,64.6125,-0.000762
63.018,64.6203,-0.000762
63.034,64.6271,-0.000762
63.049,64.6336,-0.000762
63.080,64.6462,-0.000762
63.096,64.6524,-0.000762
63.112,64.6585,-0.000762
63.129,64.6645,-0.000762
63.145,64.6702,-0.000762
63.161,64.6756,-0.000762
63.176,64.6808,-0.000762
63.192,64.6859,-0.000762
63.209,64.6911,-0.000762
63.224,64.6955,-0.000762
63.240,64.7001,-0.000762
63.258,64.7048,-0.000762
63.286,64.7120,-0.000762
63.304,64.7160,-0.000885
63.320,64.7195,-0.000885
63.336,64.7230,-0.000885
63.352,64.7260,-0.000885
63.369,64.7291,-0.000885
63.385,64.7319,-0.000885
63.401,64.7344,-0.000885
63.426,64.7381,-0.000885
63.448,64.7409,-0.000885
63.464,64.7426,-0.000885
63.481,64.7442,-0.000885
63.496,64.7457,-0.000885
63.512,64.7468,-0.000885
63.528,64.7479,-0.000885
63.544,64.7487,-0.000885
63.560,64.7493,-0.000998
63.576,64.7498,-0.000998
63.592,64.7500,-0.000998
63.624,64.7500,-0.000998
63.640,64.7500,-0.000998
63.656,64.7500,-0.000998
63.671,64.7500,-0.000998
63.687,64.7500,-0.000998
63.703,64.7500,-0.000998
63.719,64.7500,-0.000998
63.736,64.7500,-0.000998
63.752,64.7500,-0.000998
63.767,64.7500,-0.000998
63.783,64.7500,-0.000998
63.799,64.7500,-0.000998
63.815,64.7500,-0.000998
63.831,64.7500,-0.000998
63.847,64.7500,-0.001017
63.863,64.7500,-0.001017
63.880,64.7500,-0.001017
63.895,64.7500,-0.001017
63.911,64.7500,-0.001017
63.927,64.7500,-0.001017
63.943,64.7500,-0.001017
63.959,64.7500,-0.001017
63.975,64.7500,-0.001017
63.991,64.7500,-0.001017
64.007,64.7500,-0.001017
64.023,64.7500,-0.001017
64.039,64.7500,-0.001017
64.055,64.7500,-0.001017
64.071,64.7500,-0.001017
64.087,64.7500,-0.000960
64.103,64.7500,-0.000960
64.119,64.7500,-0.000960
64.135,64.7500,-0.000960
64.151,64.7500,-0.000960
64.178,64.7500,-0.000960
64.194,64.7500,-0.000960
64.210,64.7500,-0.000960
64.226,64.7500,-0.000960
64.242,64.7500,-0.000960
64.258,64.7500,-0.000960
64.274,64.7500,-0.000960
64.291,64.7500,-0.000960
64.321,64.7500,-0.000951
64.338,64.7500,-0.000951
64.354,64.7500,-0.000951
64.370,64.7500,-0.000951
64.386,64.7500,-0.000951
64.402,64.7500,-0.000951
64.419,64.7500,-0.000951
64.438,64.7500,-0.000951
64.461,64.7500,-0.000951
64.482,64.7500,-0.000951
64.498,64.7500,-0.000951
64.514,64.7500,-0.000951
64.531,64.7500,-0.000951
64.546,64.7500,-0.000951
64.562,64.7500,-0.000951
64.578,64.7500,-0.000951
64.594,64.7500,-0.000951
64.610,64.7500,-0.000951
64.626,64.7500,-0.000951
64.642,64.7500,-0.000951
64.658,64.7500,-0.000951
64.674,64.7500,-0.000951
64.690,64.7500,-0.000951
64.719,64.7500,-0.000951
64.736,64.7500,-0.000951
64.752,64.7500,-0.000951
64.769,64.7500,-0.000951
64.799,64.7500,-0.000951
64.817,64.7500,-0.000875
64.832,64.7500,-0.000875
64.849,64.7500,-0.000875
64.868,64.7500,-0.000875
64.893,64.7500,-0.000875
64.913,64.7500,-0.000875
64.939,64.7500,-0.000875
64.960,64.7500,-0.000875
64.976,64.7500,-0.000875
64.992,64.7500,-0.000875
65.008,64.7500,-0.000875
65.024,64.7500,-0.000875
65.040,64.7500,-0.000875
65.056,64.7500,-0.000932
65.072,64.7500,-0.000932
65.088,64.7500,-0.000932
65.104,64.7500,-0.000932
65.120,64.7500,-0.000932
65.136,64.7500,-0.000932
65.153,64.7500,-0.000932
65.168,64.7500,-0.000932
65.183,64.7500,-0.000932
65.207,64.7500,-0.000932
65.231,64.7500,-0.000932
65.247,64.7500,-0.000932
65.270,64.7500,-0.000932
65.286,64.7500,-0.000932
65.301,64.7500,-0.001007
65.318,64.7500,-0.001007
65.333,64.7500,-0.001007
65.349,64.7500,-0.001007
65.366,64.7500,-0.001007
65.382,64.7500,-0.001007
65.398,64.7500,-0.001007
65.414,64.7500,-0.001007
65.429,64.7500,-0.001007
65.445,64.7500,-0.001007
65.462,64.7500,-0.001007
65.477,64.7500,-0.001007
65.493,64.7500,-0.001007
65.511,64.7500,-0.001007
65.540,64.7500,-0.001007
65.558,64.7500,-0.000960
65.574,64.7500,-0.000960
65.589,64.7500,-0.000960
65.605,64.7500,-0.000960
65.622,64.7500,-0.000960
65.638,64.7500,-0.000960
65.653,64.7500,-0.000960
65.669,64.7500,-0.000960
65.685,64.7500,-0.000960
65.702,64.7500,-0.000960
65.718,64.7500,-0.000960
65.734,64.7500,-0.000960
65.750,64.7500,-0.000960
65.766,64.7500,-0.000960
65.781,64.7500,-0.000960
65.797,64.7500,-0.000960
65.813,64.7500,-0.000960
65.829,64.7500,-0.000932
65.846,64.7500,-0.000932
65.868,64.7500,-0.000932
65.896,64.7500,-0.000932
65.913,64.7500,-0.000932
65.944,64.7500,-0.000932
65.974,64.7500,-0.000932
65.989,64.7500,-0.000932
66.006,64.7500,-0.000932
66.021,64.7500,-0.000932
66.039,64.7500,-0.000932
66.066,64.7500,-0.000988
66.085,64.7500,-0.000988
66.101,64.7500,-0.000988
66.118,64.7500,-0.000988
66.133,64.7500,-0.000988
66.150,64.7500,-0.000988
66.166,64.7500,-0.000988
66.182,64.7500,-0.000988
66.197,64.7500,-0.000988
66.214,64.7500,-0.000988
66.229,64.7500,-0.000988
66.245,64.7500,-0.000988
66.261,64.7500,-0.000988
66.277,64.7500,-0.000988
66.293,64.7500,-0.000988
66.310,64.7500,-0.000988
66.338,64.7500,-0.001054
66.355,64.7500,-0.001054
66.370,64.7500,-0.001054
66.387,64.7500,-0.001054
66.411,64.7500,-0.001054
66.434,64.7500,-0.001054
66.450,64.7500,-0.001054
66.466,64.7500,-0.001054
66.483,64.7500,-0.001054
66.499,64.7500,-0.001054
66.514,64.7500,-0.001054
66.532,64.7500,-0.001054
66.558,64.7500,-0.001007
66.578,64.7500,-0.001007
66.595,64.7500,-0.001007
66.610,64.7500,-0.001007
66.626,64.7500,-0.001007
66.642,64.7500,-0.001007
66.659,64.7500,-0.001007
66.675,64.7500,-0.001007
66.690,64.7500,-0.001007
66.706,64.7500,-0.001007
66.723,64.7500,-0.001007
66.738,64.7500,-0.001007
66.754,64.7500,-0.001007
66.770,64.7500,-0.001007
66.787,64.7500,-0.001007
66.802,64.7500,-0.000988
66.819,64.7500,-0.000988
66.838,64.7500,-0.000988
66.861,64.7500,-0.000988
66.877,64.7500,-0.000988
66.893,64.7500,-0.000988
66.909,64.7500,-0.000988
66.925,64.7500,-0.000988
66.941,64.7500,-0.000988
66.957,64.7500,-0.000988
66.973,64.7500,-0.000988
66.989,64.7500,-0.000988
67.005,64.7500,-0.000988
67.021,64.7500,-0.000988
67.037,64.7500,-0.000988
67.053,64.7500,-0.000960
67.069,64.7500,-0.000960
67.085,64.7500,-0.000960
67.101,64.7500,-0.000960
67.117,64.7500,-0.000960
67.133,64.7500,-0.000960
67.151,64.7500,-0.000960
67.180,64.7500,-0.000960
67.197,64.7500,-0.000960
67.213,64.7500,-0.000960
67.229,64.7500,-0.000960
67.245,64.7500,-0.000960
67.261,64.7500,-0.000960
67.277,64.7500,-0.000960
67.293,64.7500,-0.000960
67.309,64.7500,-0.000922
67.325,64.7500,-0.000922
67.342,64.7500,-0.000922
67.367,64.7500,-0.000922
67.383,64.7500,-0.000922
67.404,64.7500,-0.000922
67.420,64.7500,-0.000922
67.436,64.7500,-0.000922
67.452,64.7500,-0.000922
67.469,64.7500,-0.000922
67.485,64.7500,-0.000922
67.500,64.7500,-0.000922
67.516,64.7500,-0.000922
67.532,64.7500,-0.000922
67.548,64.7500,-0.000922
67.564,64.7500,-0.000998
67.580,64.7500,-0.000998
67.596,64.7500,-0.000998
67.612,64.7500,-0.000998
67.628,64.7500,-0.000998
67.644,64.7500,-0.000998
67.660,64.7500,-0.000998
67.676,64.7500,-0.000998
67.692,64.7500,-0.000998
67.708,64.7500,-0.000998
67.724,64.7500,-0.000998
67.740,64.7500,-0.000998
67.756,64.7500,-0.000998
67.773,64.7500,-0.000998
67.793,64.7500,-0.000998
67.808,64.7500,-0.000998
67.836,64.7500,-0.001007
67.852,64.7500,-0.001007
67.868,64.7500,-0.001007
67.884,64.7500,-0.001007
67.900,64.7500,-0.001007
67.916,64.7500,-0.001007
67.932,64.7500,-0.001007
67.957,64.7500,-0.001007
67.973,64.7500,-0.001007
67.988,64.7500,-0.001007
68.004,64.7500,-0.001007
68.022,64.7500,-0.001007
68.050,64.7500,-0.000998
68.068,64.7500,-0.000998
68.084,64.7500,-0.000998
68.099,64.7500,-0.000998
68.117,64.7500,-0.000998
68.132,64.7500,-0.000998
68.148,64.7500,-0.000998
68.164,64.7500,-0.000998
68.179,64.7500,-0.000998
68.195,64.7500,-0.000998
68.211,64.7500,-0.000998
68.228,64.7500,-0.000998
68.244,64.7500,-0.000998
68.260,64.7500,-0.000998
68.276,64.7500,-0.000998
68.291,64.7500,-0.000998
68.307,64.7500,-0.001007
68.324,64.7500,-0.001007
68.342,64.7500,-0.001007
68.374,64.7500,-0.001007
68.389,64.7500,-0.001007
68.420,64.7500,-0.001007
68.436,64.7500,-0.001007
68.452,64.7500,-0.001007
68.468,64.7500,-0.001007
68.484,64.7500,-0.001007
68.509,64.7500,-0.001007
68.526,64.7500,-0.001007
68.541,64.7500,-0.001007
68.558,64.7500,-0.001045
68.574,64.7500,-0.001045
68.589,64.7500,-0.001045
68.606,64.7500,-0.001045
68.622,64.7500,-0.001045
68.637,64.7500,-0.001045
68.653,64.7500,-0.001045
68.669,64.7500,-0.001045
68.686,64.7500,-0.001045
68.702,64.7500,-0.001045
68.718,64.7500,-0.001045
68.733,64.7500,-0.001045
68.750,64.7500,-0.001045
68.772,64.7500,-0.001045
68.803,64.7500,-0.001045
68.818,64.7500,-0.001045
68.833,64.7500,-0.001083
68.849,64.7500,-0.001083
68.879,64.7500,-0.001083
68.895,64.7500,-0.001083
68.910,64.7500,-0.001083
68.929,64.7500,-0.001083
68.957,64.7500,-0.001083
68.973,64.7500,-0.001083
68.989,64.7500,-0.001083
69.006,64.7500,-0.001083
69.021,64.7500,-0.001083
69.050,64.7500,-0.001083
69.067,64.7500,-0.001083
69.083,64.7500,-0.001120
69.098,64.7500,-0.001120
69.115,64.7498,-0.001120
69.130,64.7495,-0.001120
69.146,64.7489,-0.001120
69.163,64.7482,-0.001120
69.179,64.7472,-0.001120
69.194,64.7461,-0.001120
69.210,64.7448,-0.001120
69.226,64.7432,-0.001120
69.243,64.7414,-0.001120
69.258,64.7396,-0.001120
69.274,64.7375,-0.001120
69.290,64.7351,-0.001120
69.306,64.7327,-0.001120
69.323,64.7299,-0.001026
69.338,64.7272,-0.001026
69.354,64.7241,-0.001026
69.371,64.7206,-0.001026
69.387,64.7173,-0.001026
69.403,64.7134,-0.001026
69.420,64.7095,-0.001026
69.449,64.7018,-0.001026
69.466,64.6971,-0.001026
69.482,64.6925,-0.001026
69.499,64.6876,-0.001026
69.514,64.6827,-0.001026
69.530,64.6775,-0.001026
69.547,64.6718,-0.001026
69.562,64.6666,-0.001026
69.578,64.6607,-0.001026
69.601,64.6521,0.000264
69.617,64.6459,0.000264
69.633,64.6393,0.000264
69.649,64.6327,0.000264
69.666,64.6251,0.000264
69.682,64.6186,0.000264
69.697,64.6116,0.000264
69.714,64.6037,0.000264
69.729,64.5964,0.000264
69.745,64.5886,0.000264
69.762,64.5802,0.000264
69.787,64.5672,0.000264
69.803,64.5588,0.000264
69.833,64.5423,0.001195
69.863,64.5251,0.001195
69.894,64.5069,0.001195
69.909,64.4973,0.001195
69.925,64.4876,0.001195
69.940,64.4776,0.001195
69.956,64.4678,0.001195
69.971,64.4576,0.001195
69.987,64.4468,0.001195
70.017,64.4255,0.001195
70.033,64.4148,0.001195
70.049,64.4034,0.001195
70.065,64.3920,0.000104
70.081,64.3802,0.000104
70.097,64.3674,0.000104
70.113,64.3556,0.000104
70.129,64.3432,0.000104
70.157,64.3212,0.000104
70.173,64.3075,0.000104
70.189,64.2949,0.000104
70.205,64.2816,0.000104
70.222,64.2665,0.000104
70.248,64.2441,0.000104
70.269,64.2262,0.000104
70.285,64.2116,0.000104
70.301,64.1970,0.000104
70.317,64.1826,-0.000706
70.333,64.1677,-0.000706
70.349,64.1526,-0.000706
70.365,64.1371,-0.000706
70.381,64.1217,-0.000706
70.397,64.1059,-0.000706
70.413,64.0896,-0.000706
70.429,64.0741,-0.000706
70.445,64.0579,-0.000706
70.460,64.0415,-0.000706
70.477,64.0241,-0.000706
70.493,64.0079,-0.000706
70.509,63.9899,-0.000706
70.528,63.9696,-0.000706
70.557,63.9385,-0.000631
70.573,63.9203,-0.000631
70.589,63.9018,-0.000631
70.605,63.8837,-0.000631
70.621,63.8656,-0.000631
70.637,63.8473,-0.000631
70.653,63.8273,-0.000631
70.669,63.8093,-0.000631
70.685,63.7895,-0.000631
70.709,63.7613,-0.000631
70.726,63.7405,-0.000631
70.742,63.7206,-0.000631
70.758,63.6997,-0.000631
70.773,63.6798,-0.000631
70.789,63.6609,-0.000631
70.805,63.6400,-0.000565
70.821,63.6179,-0.000565
70.838,63.5967,-0.000565
70.853,63.5763,-0.000565
70.870,63.5548,-0.000565
70.885,63.5344,-0.000565
70.904,63.5084,-0.000565
70.929,63.4738,-0.000565
70.949,63.4453,-0.000565
70.965,63.4219,-0.000565
70.982,63.3993,-0.000565
70.997,63.3777,-0.000565
71.013,63.3544,-0.000565
71.031,63.3275,-0.000565
71.053,63.2946,-0.000565
71.083,63.2484,-0.000471
71.100,63.2249,-0.000471
71.130,63.1778,-0.000471
71.161,63.1307,-0.000471
71.177,63.1055,-0.000471
71.207,63.0557,-0.000471
71.232,63.0169,-0.000471
71.253,62.9825,-0.000471
71.269,62.9550,-0.000471
71.300,62.9054,-0.000471
71.331,62.8537,-0.000367
71.362,62.8006,-0.000367
71.393,62.7471,-0.000367
71.408,62.7198,-0.000367
71.424,62.6925,-0.000367
71.457,62.6341,-0.000367
71.485,62.5820,-0.000367
71.502,62.5512,-0.000367
71.519,62.5205,-0.000367
71.534,62.4929,-0.000367
71.550,62.4630,-0.000320
71.566,62.4329,-0.000320
71.583,62.4010,-0.000320
71.598,62.3732,-0.000320
71.615,62.3417,-0.000320
71.631,62.3111,-0.000320
71.646,62.2808,-0.000320
71.662,62.2502,-0.000320
71.678,62.2186,-0.000320
71.694,62.1872,-0.000320
71.711,62.1538,-0.000320
71.726,62.1240,-0.000320
71.742,62.0918,-0.000320
71.759,62.0588,-0.000320
71.774,62.0268,-0.000320
71.790,61.9950,-0.000320
71.806,61.9622,-0.000320
71.823,61.9279,-0.000320
71.839,61.8953,-0.000235
71.854,61.8625,-0.000235
71.870,61.8293,-0.000235
71.886,61.7948,-0.000235
71.903,61.7603,-0.000235
71.918,61.7275,-0.000235
71.936,61.6905,-0.000235
71.951,61.6571,-0.000235
71.981,61.5934,-0.000235
72.000,61.5538,-0.000235
72.018,61.5171,-0.000235
72.042,61.4674,-0.000235
72.063,61.4253,-0.000235
72.079,61.3940,-0.000235
72.094,61.3626,-0.000301
72.110,61.3303,-0.000301
72.126,61.2973,-0.000301
72.142,61.2668,-0.000301
72.158,61.2352,-0.000301
72.175,61.2033,-0.000301
72.191,61.1720,-0.000301
72.207,61.1418,-0.000301
72.222,61.1118,-0.000301
72.240,61.0781,-0.000301
72.265,61.0311,-0.000301
72.289,60.9853,-0.000301
72.321,60.9270,-0.000546
72.351,60.8711,-0.000546
72.367,60.8438,-0.000546
72.383,60.8134,-0.000546
72.399,60.7849,-0.000546
72.428,60.7339,-0.000546
72.446,60.7024,-0.000546
72.462,60.6751,-0.000546
72.479,60.6462,-0.000546
72.494,60.6202,-0.000546
72.511,60.5920,-0.000546
72.527,60.5647,-0.000546
72.542,60.5394,-0.000546
72.558,60.5120,-0.000678
72.575,60.4849,-0.000678
72.590,60.4602,-0.000678
72.606,60.4339,-0.000678
72.622,60.4083,-0.000678
72.638,60.3816,-0.000678
72.654,60.3574,-0.000678
72.670,60.3312,-0.000678
72.686,60.3063,-0.000678
72.702,60.2816,-0.000678
72.718,60.2575,-0.000678
72.734,60.2329,-0.000678
72.750,60.2087,-0.000678
72.766,60.1832,-0.000678
72.782,60.1605,-0.000678
72.798,60.1355,-0.000678
72.815,60.1116,-0.000640
72.845,60.0683,-0.000640
72.873,60.0271,-0.000640
72.889,60.0054,-0.000640
72.905,59.9837,-0.000640
72.921,59.9607,-0.000640
72.937,59.9389,-0.000640
72.953,59.9175,-0.000640
72.969,59.8958,-0.000640
72.985,59.8738,-0.000640
73.001,59.8526,-0.000640
73.017,59.8313,-0.000640
73.033,59.8112,-0.000640
73.049,59.7902,-0.000640
73.065,59.7696,-0.000555
73.081,59.7494,-0.000555
73.097,59.7297,-0.000555
73.113,59.7100,-0.000555
73.129,59.6895,-0.000555
73.145,59.6700,-0.000555
73.161,59.6509,-0.000555
73.177,59.6322,-0.000555
73.193,59.6124,-0.000555
73.210,59.5943,-0.000555
73.225,59.5765,-0.000555
73.241,59.5574,-0.000555
73.258,59.5384,-0.000555
73.281,59.5129,-0.000555
73.296,59.4954,-0.000555
73.328,59.4608,-0.000555
73.359,59.4283,-0.000489
73.389,59.3974,-0.000489
73.405,59.3811,-0.000489
73.436,59.3503,-0.000489
73.467,59.3197,-0.000489
73.497,59.2901,-0.000489
73.514,59.2751,-0.000489
73.529,59.2608,-0.000489
73.545,59.2466,-0.000489
73.561,59.2315,-0.000489
73.577,59.2176,-0.000489
73.593,59.2035,-0.000367
73.609,59.1898,-0.000367
73.625,59.1758,-0.000367
73.642,59.1622,-0.000367
73.657,59.1496,-0.000367
73.673,59.1364,-0.000367
73.690,59.1225,-0.000367
73.705,59.1104,-0.000367
73.721,59.0983,-0.000367
73.737,59.0856,-0.000367
73.753,59.0736,-0.000367
73.769,59.0619,-0.000367
73.785,59.0502,-0.000367
73.802,59.0375,-0.000367
73.821,59.0242,-0.000367
73.851,59.0033,-0.000339
73.867,58.9926,-0.000339
73.882,58.9828,-0.000339
73.898,58.9725,-0.000339
73.925,58.9554,-0.000339
73.942,58.9454,-0.000339
73.961,58.9336,-0.000339
73.991,58.9161,-0.000339
74.013,58.9036,-0.000339
74.038,58.8904,-0.000339
74.053,58.8817,-0.000339
74.068,58.8740,-0.000339
74.085,58.8657,-0.000292
74.101,58.8579,-0.000292
74.121,58.8475,-0.000292
74.147,58.8363,-0.000292
74.165,58.8283,-0.000292
74.181,58.8211,-0.000292
74.197,58.8141,-0.000292
74.212,58.8081,-0.000292
74.229,58.8016,-0.000292
74.245,58.7952,-0.000292
74.261,58.7892,-0.000292
74.276,58.7836,-0.000292
74.293,58.7781,-0.000292
74.309,58.7725,-0.000292
74.325,58.7671,-0.000292
74.340,58.7624,-0.000245
74.357,58.7572,-0.000245
74.373,58.7529,-0.000245
74.388,58.7485,-0.000245
74.405,58.7443,-0.000245
74.421,58.7402,-0.000245
74.449,58.7335,-0.000245
74.464,58.7299,-0.000245
74.481,58.7267,-0.000245
74.497,58.7235,-0.000245
74.512,58.7208,-0.000245
74.529,58.7180,-0.000245
74.545,58.7154,-0.000245
74.560,58.7132,-0.000245
74.577,58.7110,-0.000235
74.592,58.7090,-0.000235
74.609,58.7072,-0.000235
74.624,58.7056,-0.000235
74.640,58.7043,-0.000235
74.656,58.7031,-0.000235
74.673,58.7022,-0.000235
74.689,58.7013,-0.000235
74.704,58.7007,-0.000235
74.720,58.7003,-0.000235
74.737,58.7000,-0.000235
74.753,58.7000,-0.000235
74.769,58.7000,-0.000235
74.784,58.7000,-0.000235
74.801,58.7000,-0.000235
74.816,58.7000,-0.000235
74.833,58.7000,-0.000160
74.848,58.7000,-0.000160
74.865,58.7003,-0.000160
74.880,58.7008,-0.000160
74.896,58.7014,-0.000160
74.913,58.7022,-0.000160
74.929,58.7033,-0.000160
74.944,58.7044,-0.000160
74.961,58.7059,-0.000160
74.982,58.7080,-0.000160
74.998,58.7098,-0.000160
75.013,58.7118,-0.000160
75.030,58.7141,-0.000160
75.047,58.7169,-0.000160
75.076,58.7216,-0.000141
75.093,58.7248,-0.000141
75.109,58.7281,-0.000141
75.126,58.7317,-0.000141
75.142,58.7353,-0.000141
75.157,58.7389,-0.000141
75.174,58.7430,-0.000141
75.190,58.7470,-0.000141
75.205,58.7514,-0.000141
75.222,58.7560,-0.000141
75.238,58.7608,-0.000141
75.253,58.7655,-0.000141
75.269,58.7706,-0.000141
75.285,58.7761,-0.000141
75.302,58.7819,-0.000141
75.317,58.7872,-0.000169
75.333,58.7932,-0.000169
75.350,58.7995,-0.000169
75.366,58.8058,-0.000169
75.381,58.8120,-0.000169
75.397,58.8189,-0.000169
75.413,58.8257,-0.000169
75.429,58.8327,-0.000169
75.445,58.8399,-0.000169
75.461,58.8474,-0.000169
75.478,58.8557,-0.000169
75.494,58.8631,-0.000169
75.509,58.8709,-0.000169
75.525,58.8795,-0.000169
75.541,58.8876,-0.000169
75.557,58.8962,-0.000169
75.573,58.9049,-0.000273
75.589,58.9141,-0.000273
75.606,58.9238,-0.000273
75.621,58.9326,-0.000273
75.637,58.9424,-0.000273
75.653,58.9521,-0.000273
75.674,58.9658,-0.000273
75.689,58.9748,-0.000273
75.713,58.9905,-0.000273
75.734,59.0040,-0.000273
75.749,59.0154,-0.000273
75.765,59.0259,-0.000273
75.782,59.0380,-0.000273
75.797,59.0489,-0.000273
75.813,59.0605,-0.000273
75.829,59.0729,-0.000301
75.845,59.0848,-0.000301
75.861,59.0972,-0.000301
75.877,59.1097,-0.000301
75.893,59.1221,-0.000301
75.909,59.1349,-0.000301
75.925,59.1481,-0.000301
75.942,59.1619,-0.000301
75.957,59.1747,-0.000301
75.973,59.1883,-0.000301
75.989,59.2022,-0.000301
76.005,59.2167,-0.000301
76.031,59.2398,-0.000301
76.047,59.2544,-0.000301
76.063,59.2687,-0.000339
76.079,59.2837,-0.000339
76.095,59.2988,-0.000339
76.111,59.3150,-0.000339
76.127,59.3296,-0.000339
76.144,59.3466,-0.000339
76.160,59.3625,-0.000339
76.175,59.3773,-0.000339
76.191,59.3941,-0.000339
76.207,59.4116,-0.000339
76.224,59.4278,-0.000339
76.253,59.4584,-0.000339
76.272,59.4789,-0.000339
76.299,59.5092,-0.000452
76.319,59.5311,-0.000452
76.335,59.5497,-0.000452
76.351,59.5678,-0.000452
76.367,59.5856,-0.000452
76.384,59.6060,-0.000452
76.399,59.6238,-0.000452
76.415,59.6430,-0.000452
76.431,59.6614,-0.000452
76.447,59.6807,-0.000452
76.463,59.7012,-0.000452
76.479,59.7201,-0.000452
76.495,59.7400,-0.000452
76.511,59.7617,-0.000452
76.536,59.7923,-0.000452
76.561,59.8261,-0.000452
76.589,59.8618,-0.000527
76.606,59.8835,-0.000527
76.621,59.9044,-0.000527
76.637,59.9259,-0.000527
76.653,59.9486,-0.000527
76.669,59.9705,-0.000527
76.685,59.9929,-0.000527
76.701,60.0151,-0.000527
76.717,60.0375,-0.000527
76.733,60.0607,-0.000527
76.749,60.0838,-0.000527
76.765,60.1082,-0.000527
76.782,60.1310,-0.000527
76.797,60.1542,-0.000527
76.813,60.1770,-0.000574
76.829,60.2012,-0.000574
76.847,60.2290,-0.000574
76.862,60.2526,-0.000574
76.884,60.2861,-0.000574
76.900,60.3106,-0.000574
76.930,60.3592,-0.000574
76.961,60.4065,-0.000574
76.977,60.4331,-0.000574
77.007,60.4824,-0.000574
77.022,60.5079,-0.000574
77.038,60.5330,-0.000574
77.069,60.5862,-0.000612
77.086,60.6147,-0.000612
77.101,60.6398,-0.000612
77.117,60.6667,-0.000612
77.144,60.7151,-0.000612
77.160,60.7418,-0.000612
77.176,60.7702,-0.000612
77.193,60.8005,-0.000612
77.209,60.8300,-0.000612
77.239,60.8838,-0.000612
77.256,60.9156,-0.000612
77.271,60.9431,-0.000612
77.287,60.9725,-0.000612
77.304,61.0039,-0.000678
77.320,61.0323,-0.000678
77.341,61.0729,-0.000678
77.362,61.1152,-0.000678
77.384,61.1547,-0.000678
77.400,61.1862,-0.000678
77.415,61.2160,-0.000678
77.431,61.2471,-0.000678
77.449,61.2815,-0.000678
77.470,61.3241,-0.000678
77.501,61.3848,-0.000678
77.516,61.4170,-0.000678
77.532,61.4493,-0.000678
77.548,61.4826,-0.000678
77.564,61.5140,-0.000753
77.580,61.5475,-0.000753
77.596,61.5802,-0.000753
77.611,61.6143,-0.000753
77.642,61.6786,-0.000753
77.665,61.7277,-0.000753
77.682,61.7626,-0.000753
77.697,61.7946,-0.000753
77.714,61.8297,-0.000753
77.729,61.8613,-0.000753
77.745,61.8955,-0.000753
77.762,61.9283,-0.000753
77.778,61.9607,-0.000753
77.793,61.9926,-0.000753
77.809,62.0247,-0.000602
77.825,62.0574,-0.000602
77.842,62.0901,-0.000602
77.857,62.1210,-0.000602
77.873,62.1524,-0.000602
77.891,62.1876,-0.000602
77.906,62.2173,-0.000602
77.924,62.2506,-0.000602
77.949,62.2988,-0.000602
77.970,62.3393,-0.000602
77.985,62.3678,-0.000602
78.001,62.3973,-0.000602
78.017,62.4282,-0.000602
78.033,62.4565,-0.000602
78.049,62.4861,-0.000339
78.066,62.5164,-0.000339
78.081,62.5442,-0.000339
78.097,62.5729,-0.000339
78.113,62.6016,-0.000339
78.138,62.6462,-0.000339
78.165,62.6920,-0.000339
78.192,62.7400,-0.000339
78.208,62.7673,-0.000339
78.224,62.7957,-0.000339
78.241,62.8225,-0.000339
78.256,62.8491,-0.000339
78.272,62.8755,-0.000339
78.289,62.9022,-0.000339
78.304,62.9291,-0.000339
78.320,62.9540,-0.000254
78.336,62.9800,-0.000254
78.352,63.0059,-0.000254
78.369,63.0335,-0.000254
78.385,63.0582,-0.000254
78.413,63.1018,-0.000254
78.432,63.1314,-0.000254
78.453,63.1655,-0.000254
78.475,63.1959,-0.000254
78.491,63.2203,-0.000254
78.522,63.2673,-0.000254
78.553,63.3120,-0.000254
78.569,63.3362,-0.000301
78.600,63.3792,-0.000301
78.632,63.4241,-0.000301
78.662,63.4658,-0.000301
78.692,63.5071,-0.000301
78.709,63.5295,-0.000301
78.732,63.5600,-0.000301
78.748,63.5807,-0.000301
78.764,63.6015,-0.000301
78.780,63.6218,-0.000301
78.796,63.6423,-0.000301
78.812,63.6622,-0.000433
78.828,63.6826,-0.000433
78.844,63.7022,-0.000433
78.860,63.7215,-0.000433
78.876,63.7412,-0.000433
78.892,63.7598,-0.000433
78.908,63.7794,-0.000433
78.924,63.7985,-0.000433
78.940,63.8165,-0.000433
78.956,63.8360,-0.000433
78.974,63.8557,-0.000433
78.991,63.8753,-0.000433
79.017,63.9036,-0.000433
79.037,63.9249,-0.000433
79.052,63.9418,-0.000433
79.068,63.9581,-0.000518
79.085,63.9764,-0.000518
79.100,63.9920,-0.000518
79.116,64.0090,-0.000518
79.132,64.0242,-0.000518
79.148,64.0410,-0.000518
79.164,64.0571,-0.000518
79.180,64.0721,-0.000518
79.196,64.0876,-0.000518
79.212,64.1029,-0.000518
79.228,64.1185,-0.000518
79.244,64.1328,-0.000518
79.274,64.1610,-0.000518
79.295,64.1792,-0.000518
79.326,64.2074,-0.000612
79.342,64.2202,-0.000612
79.357,64.2330,-0.000612
79.373,64.2462,-0.000612
79.389,64.2600,-0.000612
79.420,64.2847,-0.000612
79.436,64.2970,-0.000612
79.467,64.3213,-0.000612
79.498,64.3440,-0.000612
79.513,64.3556,-0.000612
79.529,64.3664,-0.000612
79.545,64.3776,-0.000612
79.561,64.3885,-0.000687
79.582,64.4038,-0.000687
79.607,64.4191,-0.000687
79.625,64.4313,-0.000687
79.641,64.4416,-0.000687
79.657,64.4510,-0.000687
79.674,64.4614,-0.000687
79.689,64.4702,-0.000687
79.705,64.4799,-0.000687
79.721,64.4888,-0.000687
79.737,64.4976,-0.000687
79.753,64.5067,-0.000687
79.769,64.5153,-0.000687
79.785,64.5234,-0.000687
79.801,64.5318,-0.000687
79.822,64.5424,-0.000697
79.842,64.5517,-0.000697
79.869,64.5644,-0.000697
79.886,64.5718,-0.000697
79.902,64.5789,-0.000697
79.918,64.5858,-0.000697
79.934,64.5920,-0.000697
79.951,64.5992,-0.000697
79.977,64.6089,-0.000697
79.998,64.6165,-0.000697
80.014,64.6222,-0.000697
80.030,64.6272,-0.000697
80.046,64.6325,-0.000697
80.062,64.6377,-0.000772
80.078,64.6426,-0.000772
80.094,64.6471,-0.000772
80.110,64.6514,-0.000772
80.126,64.6558,-0.000772
80.142,64.6597,-0.000772
80.158,64.6636,-0.000772
80.175,64.6676,-0.000772
80.193,64.6716,-0.000772
80.209,64.6746,-0.000772
80.224,64.6776,-0.000772
80.240,64.6803,-0.000772
80.270,64.6853,-0.000772
80.285,64.6874,-0.000772
80.303,64.6896,-0.000772
80.318,64.6915,-0.000772
80.336,64.6934,-0.000772
80.359,64.6956,-0.000885
80.376,64.6968,-0.000885
80.391,64.6978,-0.000885
80.407,64.6987,-0.000885
80.424,64.6993,-0.000885
80.440,64.6998,-0.000885
80.455,64.7001,-0.000885
80.471,64.7001,-0.000885
80.487,64.7001,-0.000885
80.504,64.7001,-0.000885
80.520,64.7001,-0.000885
80.536,64.7001,-0.000885
80.552,64.7001,-0.000885
80.567,64.7001,-0.000885
80.583,64.7001,-0.000998
80.599,64.7001,-0.000998
80.615,64.7001,-0.000998
80.632,64.7001,-0.000998
80.647,64.7001,-0.000998
80.664,64.7001,-0.000998
80.680,64.7001,-0.000998
80.696,64.7001,-0.000998
80.711,64.7001,-0.000998
80.729,64.7001,-0.000998
80.744,64.7001,-0.000998
80.764,64.7001,-0.000998
80.782,64.7001,-0.000998
80.798,64.7001,-0.000998
80.828,64.7001,-0.001007
80.859,64.7001,-0.001007
80.883,64.7001,-0.001007
80.899,64.7001,-0.001007
80.914,64.7001,-0.001007
80.931,64.7001,-0.001007
80.947,64.7001,-0.001007
80.963,64.7001,-0.001007
80.978,64.7001,-0.001007
80.995,64.7001,-0.001007
81.010,64.7001,-0.001007
81.026,64.7001,-0.001007
81.042,64.7001,-0.001007
81.059,64.7001,-0.001007
81.074,64.7001,-0.000970
81.090,64.7001,-0.000970
81.107,64.7001,-0.000970
81.129,64.7001,-0.000970
81.154,64.7001,-0.000970
81.171,64.7001,-0.000970
81.187,64.7001,-0.000970
81.202,64.7001,-0.000970
81.218,64.7001,-0.000970
81.237,64.7001,-0.000970
81.262,64.7001,-0.000970
81.282,64.7001,-0.000970
81.298,64.7001,-0.000970
81.314,64.7001,-0.000970
81.330,64.7001,-0.000979
81.346,64.7001,-0.000979
81.363,64.7001,-0.000979
81.379,64.7001,-0.000979
81.394,64.7001,-0.000979
81.418,64.7001,-0.000979
81.433,64.7001,-0.000979
81.450,64.7001,-0.000979
81.465,64.7001,-0.000979
81.483,64.7001,-0.000979
81.510,64.7001,-0.000979
81.529,64.7001,-0.000979
81.545,64.7001,-0.000979
81.562,64.7001,-0.000979
81.577,64.7001,-0.000970
81.593,64.7001,-0.000970
81.610,64.7001,-0.000970
81.625,64.7001,-0.000970
81.641,64.7001,-0.000970
81.657,64.7001,-0.000970
81.673,64.7001,-0.000970
81.689,64.7001,-0.000970
81.705,64.7001,-0.000970
81.721,64.7001,-0.000970
81.737,64.7001,-0.000970
81.753,64.7001,-0.000970
81.769,64.7001,-0.000970
81.785,64.7001,-0.000970
81.801,64.7001,-0.000970
81.818,64.7001,-0.000988
81.834,64.7001,-0.000988
81.850,64.7001,-0.000988
81.881,64.7001,-0.000988
81.897,64.7001,-0.000988
81.913,64.7001,-0.000988
81.929,64.7001,-0.000988
81.945,64.7001,-0.000988
81.972,64.7001,-0.000988
81.988,64.7001,-0.000988
82.003,64.7001,-0.000988
82.019,64.7001,-0.000988
82.034,64.7001,-0.000988
82.051,64.7001,-0.000988
82.067,64.7001,-0.000970
82.083,64.7001,-0.000970
82.100,64.7001,-0.000970
82.130,64.7001,-0.000970
82.147,64.7001,-0.000970
82.164,64.7001,-0.000970
82.179,64.7001,-0.000970
82.196,64.7001,-0.000970
82.223,64.7001,-0.000970
82.243,64.7001,-0.000970
82.259,64.7001,-0.000970
82.275,64.7001,-0.000970
82.292,64.7001,-0.000970
82.307,64.7001,-0.000970
82.323,64.7001,-0.000998
82.339,64.7001,-0.000998
82.355,64.7001,-0.000998
82.371,64.7001,-0.000998
82.387,64.7001,-0.000998
82.403,64.7001,-0.000998
82.419,64.7001,-0.000998
82.435,64.7001,-0.000998
82.451,64.7001,-0.000998
82.467,64.7001,-0.000998
82.493,64.7001,-0.000998
82.509,64.7001,-0.000998
82.525,64.7001,-0.000998
82.541,64.7001,-0.000998
82.557,64.7001,-0.001007
82.573,64.7001,-0.001007
82.589,64.7001,-0.001007
82.605,64.7001,-0.001007
82.621,64.7001,-0.001007
82.636,64.7001,-0.001007
82.653,64.7001,-0.001007
82.669,64.7001,-0.001007
82.684,64.7001,-0.001007
82.700,64.7001,-0.001007
82.718,64.7001,-0.001007
82.734,64.7001,-0.001007
82.749,64.7001,-0.001007
82.764,64.7001,-0.001007
82.784,64.7001,-0.001007
82.811,64.7001,-0.000951
82.829,64.7001,-0.000951
82.845,64.7001,-0.000951
82.860,64.7001,-0.000951
82.878,64.7001,-0.000951
82.893,64.7001,-0.000951
82.910,64.7001,-0.000951
82.925,64.7001,-0.000951
82.940,64.7001,-0.000951
82.957,64.7001,-0.000951
82.974,64.7001,-0.000951
82.989,64.7001,-0.000951
83.005,64.7001,-0.000951
83.030,64.7001,-0.000951
83.047,64.7001,-0.000951
83.063,64.7001,-0.000941
83.079,64.7001,-0.000941
83.095,64.7001,-0.000941
83.111,64.7001,-0.000941
83.126,64.7001,-0.000941
83.142,64.7001,-0.000941
83.158,64.7001,-0.000941
83.174,64.7001,-0.000941
83.190,64.7001,-0.000941
83.207,64.7001,-0.000941
83.223,64.7001,-0.000941
83.239,64.7001,-0.000941
83.254,64.7001,-0.000941
83.271,64.7001,-0.000941
83.287,64.7001,-0.000941
83.302,64.7001,-0.000941
83.318,64.7001,-0.000941
83.336,64.7001,-0.000941
83.359,64.7001,-0.000941
83.384,64.7001,-0.000941
83.400,64.7001,-0.000941
83.432,64.7001,-0.000941
83.462,64.7001,-0.000941
83.479,64.7001,-0.000941
83.495,64.7001,-0.000941
83.511,64.7001,-0.000941
83.527,64.7001,-0.000941
83.555,64.7001,-0.000941
83.574,64.7001,-0.000941
83.590,64.7001,-0.000941
83.606,64.7001,-0.000941
83.622,64.7001,-0.000941
83.638,64.7001,-0.000941
83.655,64.7001,-0.000941
83.670,64.7001,-0.000941
83.686,64.7001,-0.000941
83.703,64.7001,-0.000941
83.718,64.7001,-0.000941
83.734,64.7001,-0.000941
83.751,64.7001,-0.000941
83.766,64.7001,-0.000941
83.782,64.7001,-0.000941
83.798,64.7001,-0.000941
83.815,64.7001,-0.000951
83.830,64.7001,-0.000951
83.846,64.7001,-0.000951
83.862,64.7001,-0.000951
83.879,64.7001,-0.000951
83.894,64.7001,-0.000951
83.911,64.7001,-0.000951
83.926,64.7001,-0.000951
83.942,64.7001,-0.000951
83.958,64.7001,-0.000951
83.975,64.7001,-0.000951
83.990,64.7001,-0.000951
84.007,64.7001,-0.000951
84.025,64.7001,-0.000951
84.050,64.7001,-0.000951
84.070,64.7001,-0.000951
84.086,64.7001,-0.000951
84.102,64.7001,-0.000951
84.124,64.7001,-0.000951
84.140,64.7001,-0.000951
84.156,64.7001,-0.000951
84.172,64.7001,-0.000951
84.188,64.7001,-0.000951
84.204,64.7001,-0.000951
84.220,64.7001,-0.000951
84.237,64.7001,-0.000951
84.253,64.7001,-0.000951
84.268,64.7001,-0.000951
84.284,64.7001,-0.000951
84.300,64.7001,-0.000951
84.316,64.7001,-0.000951
84.332,64.7001,-0.000951
84.348,64.7001,-0.000932
84.365,64.7001,-0.000932
84.380,64.7001,-0.000932
84.396,64.7001,-0.000932
84.412,64.7001,-0.000932
84.428,64.7001,-0.000932
84.444,64.7001,-0.000932
84.460,64.7001,-0.000932
84.476,64.7001,-0.000932
84.492,64.7001,-0.000932
84.508,64.7001,-0.000932
84.524,64.7001,-0.000932
84.540,64.7001,-0.000932
84.556,64.7001,-0.000932
84.572,64.7001,-0.000932
84.588,64.7001,-0.000951
84.604,64.7001,-0.000951
84.623,64.7001,-0.000951
84.652,64.7001,-0.000951
84.680,64.7001,-0.000951
84.696,64.7001,-0.000951
84.712,64.7001,-0.000951
84.729,64.7001,-0.000951
84.746,64.7001,-0.000951
84.776,64.7001,-0.000951
84.792,64.7001,-0.000951
84.808,64.7001,-0.000951
84.824,64.7001,-0.000951
84.840,64.7001,-0.001007
84.856,64.7001,-0.001007
84.872,64.7001,-0.001007
84.888,64.7001,-0.001007
84.904,64.7001,-0.001007
84.920,64.7001,-0.001007
84.938,64.7001,-0.001007
84.954,64.7001,-0.001007
84.976,64.7001,-0.001007
84.993,64.7001,-0.001007
85.023,64.7001,-0.001007
85.038,64.7001,-0.001007
85.069,64.7001,-0.001007
85.100,64.7001,-0.000998
85.132,64.7001,-0.000998
85.162,64.7001,-0.000998
85.177,64.7001,-0.000998
85.193,64.7001,-0.000998
85.208,64.7001,-0.000998
85.237,64.7001,-0.000998
85.253,64.7001,-0.000998
85.269,64.7001,-0.000998
85.285,64.7001,-0.000998
85.301,64.7001,-0.000998
85.318,64.7001,-0.000998
85.347,64.7001,-0.001026
85.368,64.7001,-0.001026
85.395,64.7001,-0.001026
85.413,64.7001,-0.001026
85.429,64.7001,-0.001026
85.445,64.7001,-0.001026
85.461,64.7001,-0.001026
85.477,64.7001,-0.001026
85.494,64.7001,-0.001026
85.509,64.7001,-0.001026
85.525,64.7001,-0.001026
85.541,64.7001,-0.001026
85.557,64.7001,-0.001026
85.573,64.7001,-0.001026
85.589,64.7001,-0.001092
85.605,64.6999,-0.001092
85.621,64.6997,-0.001092
85.636,64.6993,-0.001092
85.653,64.6987,-0.001092
85.669,64.6978,-0.001092
85.684,64.6968,-0.001092
85.700,64.6956,-0.001092
85.717,64.6942,-0.001092
85.733,64.6926,-0.001092
85.749,64.6907,-0.001092
85.764,64.6888,-0.001092
85.792,64.6849,-0.001092
85.808,64.6824,-0.001092
85.824,64.6796,-0.000988
85.841,64.6767,-0.000988
85.856,64.6736,-0.000988
85.873,64.6702,-0.000988
85.889,64.6667,-0.000988
85.905,64.6630,-0.000988
85.923,64.6588,-0.000988
85.941,64.6539,-0.000988
85.965,64.6476,-0.000988
85.985,64.6416,-0.000988
86.001,64.6367,-0.000988
86.017,64.6318,-0.000988
86.032,64.6268,-0.000988
86.049,64.6210,-0.000988
86.064,64.6158,0.000245
86.080,64.6099,0.000245
86.096,64.6039,0.000245
86.113,64.5972,0.000245
86.128,64.5913,0.000245
86.145,64.5846,0.000245
86.160,64.5780,0.000245
86.177,64.5708,0.000245
86.192,64.5637,0.000245
86.208,64.5564,0.000245
86.225,64.5487,0.000245
86.240,64.5412,0.000245
86.256,64.5329,0.000245
86.273,64.5247,0.000245
86.288,64.5167,0.000245
86.304,64.5079,0.000245
86.320,64.4994,0.000245
86.349,64.4836,0.001130
86.364,64.4741,0.001130
86.381,64.4647,0.001130
86.397,64.4552,0.001130
86.413,64.4454,0.001130
86.429,64.4351,0.001130
86.445,64.4251,0.001130
86.460,64.4145,0.001130
86.476,64.4041,0.001130
86.493,64.3932,0.001130
86.509,64.3824,0.001130
86.525,64.3705,0.001130
86.541,64.3592,0.001130
86.560,64.3456,0.001130
86.583,64.3288,0.001130
86.614,64.3045,0.000132
86.636,64.2877,0.000132
86.652,64.2749,0.000132
86.669,64.2615,0.000132
86.684,64.2490,0.000132
86.700,64.2355,0.000132
86.717,64.2214,0.000132
86.733,64.2073,0.000132
86.748,64.1943,0.000132
86.764,64.1803,0.000132
86.780,64.1661,0.000132
86.796,64.1517,0.000132
86.813,64.1366,-0.000650
86.828,64.1221,-0.000650
86.848,64.1029,-0.000650
86.876,64.0758,-0.000650
86.893,64.0592,-0.000650
86.910,64.0429,-0.000650
86.938,64.0154,-0.000650
86.956,63.9963,-0.000650
86.985,63.9665,-0.000650
87.004,63.9465,-0.000650
87.019,63.9290,-0.000650
87.036,63.9116,-0.000650
87.052,63.8935,-0.000650
87.068,63.8764,-0.000650
87.083,63.8579,-0.000593
87.099,63.8409,-0.000593
87.115,63.8221,-0.000593
87.131,63.8030,-0.000593
87.147,63.7854,-0.000593
87.163,63.7660,-0.000593
87.179,63.7467,-0.000593
87.195,63.7268,-0.000593
87.211,63.7082,-0.000593
87.227,63.6883,-0.000593
87.243,63.6685,-0.000593
87.259,63.6481,-0.000593
87.276,63.6268,-0.000593
87.291,63.6068,-0.000593
87.309,63.5846,-0.000593
87.339,63.5458,-0.000480
87.355,63.5237,-0.000480
87.371,63.5022,-0.000480
87.387,63.4805,-0.000480
87.403,63.4588,-0.000480
87.430,63.4211,-0.000480
87.446,63.3995,-0.000480
87.462,63.3771,-0.000480
87.478,63.3538,-0.000480
87.494,63.3311,-0.000480
87.525,63.2848,-0.000480
87.541,63.2629,-0.000480
87.557,63.2377,-0.000480
87.574,63.2136,-0.000480
87.603,63.1686,-0.000433
87.622,63.1398,-0.000433
87.650,63.0968,-0.000433
87.669,63.0675,-0.000433
87.686,63.0414,-0.000433
87.714,62.9968,-0.000433
87.733,62.9658,-0.000433
87.749,62.9395,-0.000433
87.765,62.9139,-0.000433
87.781,62.8872,-0.000433
87.797,62.8609,-0.000433
87.813,62.8332,-0.000433
87.829,62.8063,-0.000433
87.845,62.7803,-0.000377
87.861,62.7528,-0.000377
87.878,62.7232,-0.000377
87.900,62.6852,-0.000377
87.915,62.6586,-0.000377
87.946,62.6021,-0.000377
87.976,62.5502,-0.000377
88.006,62.4953,-0.000377
88.022,62.4658,-0.000377
88.053,62.4080,-0.000377
88.069,62.3788,-0.000377
88.085,62.3484,-0.000254
88.101,62.3188,-0.000254
88.118,62.2868,-0.000254
88.133,62.2564,-0.000254
88.149,62.2267,-0.000254
88.165,62.1940,-0.000254
88.185,62.1555,-0.000254
88.207,62.1113,-0.000254
88.229,62.0700,-0.000254
88.245,62.0366,-0.000254
88.261,62.0050,-0.000254
88.277,61.9734,-0.000254
88.293,61.9404,-0.000254
88.309,61.9053,-0.000254
88.325,61.8736,-0.000254
88.341,61.8416,-0.000188
88.357,61.8082,-0.000188
88.373,61.7742,-0.000188
88.389,61.7400,-0.000188
88.405,61.7060,-0.000188
88.420,61.6728,-0.000188
88.437,61.6379,-0.000188
88.453,61.6049,-0.000188
88.483,61.5407,-0.000188
88.499,61.5067,-0.000188
88.515,61.4752,-0.000188
88.531,61.4422,-0.000188
88.549,61.4030,-0.000188
88.579,61.3434,-0.000273
88.595,61.3120,-0.000273
88.612,61.2774,-0.000273
88.627,61.2467,-0.000273
88.643,61.2159,-0.000273
88.659,61.1822,-0.000273
88.680,61.1421,-0.000273
88.703,61.0998,-0.000273
88.722,61.0616,-0.000273
88.738,61.0295,-0.000273
88.755,60.9999,-0.000273
88.770,60.9708,-0.000273
88.786,60.9410,-0.000273
88.803,60.9106,-0.000273
88.818,60.8815,-0.000508
88.835,60.8521,-0.000508
88.850,60.8232,-0.000508
88.867,60.7932,-0.000508
88.883,60.7649,-0.000508
88.898,60.7370,-0.000508
88.914,60.7087,-0.000508
88.930,60.6803,-0.000508
88.946,60.6528,-0.000508
88.962,60.6236,-0.000508
88.980,60.5945,-0.000508
88.995,60.5688,-0.000508
89.011,60.5420,-0.000508
89.040,60.4931,-0.000508
89.056,60.4663,-0.000508
89.072,60.4403,-0.000602
89.088,60.4142,-0.000602
89.104,60.3879,-0.000602
89.119,60.3627,-0.000602
89.135,60.3370,-0.000602
89.151,60.3114,-0.000602
89.167,60.2863,-0.000602
89.184,60.2598,-0.000602
89.199,60.2356,-0.000602
89.215,60.2113,-0.000602
89.232,60.1851,-0.000602
89.248,60.1620,-0.000602
89.263,60.1390,-0.000602
89.279,60.1149,-0.000602
89.296,60.0885,-0.000602
89.323,60.0504,-0.000565
89.343,60.0210,-0.000565
89.360,59.9975,-0.000565
89.376,59.9740,-0.000565
89.401,59.9394,-0.000565
89.431,59.8971,-0.000565
89.462,59.8554,-0.000565
89.479,59.8325,-0.000565
89.509,59.7928,-0.000565
89.539,59.7518,-0.000565
89.562,59.7236,-0.000565
89.579,59.7027,-0.000565
89.594,59.6837,-0.000565
89.611,59.6627,-0.000565
89.626,59.6437,-0.000565
89.642,59.6240,-0.000565
89.658,59.6047,-0.000565
89.674,59.5856,-0.000565
89.690,59.5668,-0.000565
89.706,59.5477,-0.000565
89.722,59.5291,-0.000565
89.738,59.5113,-0.000565
89.754,59.4929,-0.000565
89.770,59.4752,-0.000565
89.786,59.4575,-0.000565
89.802,59.4400,-0.000565
89.818,59.4217,-0.000489
89.834,59.4051,-0.000489
89.851,59.3869,-0.000489
89.866,59.3710,-0.000489
89.882,59.3543,-0.000489
89.898,59.3384,-0.000489
89.914,59.3214,-0.000489
89.930,59.3059,-0.000489
89.946,59.2895,-0.000489
89.962,59.2738,-0.000489
89.979,59.2574,-0.000489
89.996,59.2418,-0.000489
90.020,59.2188,-0.000489
90.051,59.1907,-0.000489
90.082,59.1638,-0.000414
90.112,59.1367,-0.000414
90.143,59.1112,-0.000414
90.159,59.0977,-0.000414
90.174,59.0856,-0.000414
90.204,59.0611,-0.000414
90.221,59.0481,-0.000414
90.251,59.0250,-0.000414
90.282,59.0018,-0.000414
90.298,58.9906,-0.000414
90.314,58.9787,-0.000358
90.331,58.9676,-0.000358
90.346,58.9569,-0.000358
90.362,58.9459,-0.000358
90.378,58.9354,-0.000358
90.395,58.9245,-0.000358
90.422,58.9075,-0.000358
90.442,58.8951,-0.000358
90.458,58.8852,-0.000358
90.474,58.8757,-0.000358
90.490,58.8670,-0.000358
90.506,58.8577,-0.000358
90.522,58.8486,-0.000358
90.538,58.8398,-0.000358
90.554,58.8318,-0.000292
90.570,58.8232,-0.000292
90.597,58.8098,-0.000292
90.613,58.8017,-0.000292
90.629,58.7941,-0.000292
90.645,58.7871,-0.000292
90.661,58.7799,-0.000292
90.677,58.7730,-0.000292
90.694,58.7657,-0.000292
90.709,58.7593,-0.000292
90.725,58.7531,-0.000292
90.741,58.7468,-0.000292
90.757,58.7407,-0.000292
90.773,58.7350,-0.000292
90.789,58.7293,-0.000292
90.805,58.7239,-0.000292
90.821,58.7186,-0.000292
90.837,58.7137,-0.000235
90.853,58.7086,-0.000235
90.869,58.7040,-0.000235
90.885,58.6995,-0.000235
90.901,58.6953,-0.000235
90.917,58.6910,-0.000235
90.933,58.6874,-0.000235
90.949,58.6835,-0.000235
90.964,58.6802,-0.000235
90.981,58.6769,-0.000235
90.998,58.6735,-0.000235
91.027,58.6683,-0.000235
91.045,58.6654,-0.000235
91.062,58.6630,-0.000235
91.077,58.6610,-0.000235
91.093,58.6590,-0.000207
91.121,58.6560,-0.000207
91.137,58.6545,-0.000207
91.153,58.6534,-0.000207
91.169,58.6524,-0.000207
91.186,58.6514,-0.000207
91.213,58.6504,-0.000207
91.233,58.6502,-0.000207
91.249,58.6501,-0.000207
91.265,58.6501,-0.000207
91.280,58.6501,-0.000207
91.297,58.6501,-0.000207
91.313,58.6501,-0.000207
91.328,58.6501,-0.000207
91.344,58.6501,-0.000179
91.361,58.6501,-0.000179
91.377,58.6501,-0.000179
91.393,58.6503,-0.000179
91.409,58.6508,-0.000179
91.425,58.6514,-0.000179
91.440,58.6522,-0.000179
91.457,58.6533,-0.000179
91.473,58.6545,-0.000179
91.488,58.6559,-0.000179
91.505,58.6575,-0.000179
91.521,58.6594,-0.000179
91.539,58.6615,-0.000179
91.567,58.6656,-0.000179
91.585,58.6683,-0.000179
91.601,58.6713,-0.000179
91.616,58.6740,-0.000179
91.633,58.6772,-0.000179
91.657,58.6824,-0.000179
91.674,58.6863,-0.000179
91.690,58.6899,-0.000179
91.705,58.6940,-0.000179
91.722,58.6984,-0.000179
91.738,58.7026,-0.000179
91.754,58.7072,-0.000179
91.769,58.7120,-0.000179
91.787,58.7175,-0.000179
91.814,58.7266,-0.000217
91.833,58.7330,-0.000217
91.850,58.7390,-0.000217
91.865,58.7448,-0.000217
91.881,58.7509,-0.000217
91.898,58.7575,-0.000217
91.914,58.7643,-0.000217
91.930,58.7707,-0.000217
91.945,58.7774,-0.000217
91.962,58.7848,-0.000217
91.978,58.7924,-0.000217
91.993,58.7995,-0.000217
92.009,58.8072,-0.000217
92.025,58.8151,-0.000217
92.041,58.8234,-0.000217
92.057,58.8314,-0.000235
92.074,58.8404,-0.000235
92.089,58.8485,-0.000235
92.107,58.8583,-0.000235
92.123,58.8675,-0.000235
92.153,58.8853,-0.000235
92.170,58.8954,-0.000235
92.185,58.9047,-0.000235
92.212,58.9217,-0.000235
92.229,58.9323,-0.000235
92.244,58.9430,-0.000235
92.261,58.9542,-0.000235
92.278,58.9660,-0.000235
92.308,58.9869,-0.000320
92.324,58.9989,-0.000320
92.342,59.0115,-0.000320
92.371,59.0332,-0.000320
92.388,59.0466,-0.000320
92.405,59.0596,-0.000320
92.420,59.0715,-0.000320
92.437,59.0846,-0.000320
92.453,59.0985,-0.000320
92.469,59.1108,-0.000320
92.485,59.1247,-0.000320
92.510,59.1464,-0.000320
92.526,59.1605,-0.000320
92.542,59.1748,-0.000320
92.564,59.1942,-0.000339
92.580,59.2092,-0.000339
92.596,59.2238,-0.000339
92.612,59.2387,-0.000339
92.628,59.2542,-0.000339
92.644,59.2696,-0.000339
92.661,59.2853,-0.000339
92.676,59.3013,-0.000339
92.692,59.3166,-0.000339
92.709,59.3341,-0.000339
92.735,59.3601,-0.000339
92.750,59.3762,-0.000339
92.766,59.3932,-0.000339
92.782,59.4102,-0.000339
92.798,59.4276,-0.000339
92.814,59.4454,-0.000348
92.830,59.4622,-0.000348
92.847,59.4811,-0.000348
92.862,59.4986,-0.000348
92.878,59.5169,-0.000348
92.894,59.5350,-0.000348
92.910,59.5544,-0.000348
92.926,59.5729,-0.000348
92.942,59.5912,-0.000348
92.961,59.6141,-0.000348
92.989,59.6485,-0.000348
93.006,59.6697,-0.000348
93.022,59.6894,-0.000348
93.038,59.7100,-0.000348
93.054,59.7302,-0.000414
93.070,59.7506,-0.000414
93.086,59.7709,-0.000414
93.102,59.7921,-0.000414
93.118,59.8135,-0.000414
93.134,59.8349,-0.000414
93.150,59.8563,-0.000414
93.166,59.8789,-0.000414
93.182,59.8994,-0.000414
93.198,59.9219,-0.000414
93.214,59.9450,-0.000414
93.230,59.9667,-0.000414
93.246,59.9913,-0.000414
93.269,60.0225,-0.000414
93.285,60.0459,-0.000414
93.301,60.0685,-0.000537
93.317,60.0920,-0.000537
93.333,60.1165,-0.000537
93.349,60.1406,-0.000537
93.365,60.1639,-0.000537
93.382,60.1899,-0.000537
93.398,60.2145,-0.000537
93.413,60.2379,-0.000537
93.429,60.2619,-0.000537
93.445,60.2870,-0.000537
93.463,60.3155,-0.000537
93.486,60.3522,-0.000537
93.517,60.4021,-0.000537
93.547,60.4529,-0.000537
93.563,60.4800,-0.000602
93.594,60.5300,-0.000602
93.610,60.5575,-0.000602
93.640,60.6099,-0.000602
93.657,60.6388,-0.000602
93.672,60.6658,-0.000602
93.702,60.7188,-0.000602
93.732,60.7711,-0.000602
93.749,60.8012,-0.000602
93.765,60.8303,-0.000602
93.781,60.8595,-0.000602
93.798,60.8896,-0.000602
93.822,60.9356,-0.000631
93.838,60.9651,-0.000631
93.854,60.9947,-0.000631
93.870,61.0252,-0.000631
93.885,61.0546,-0.000631
93.902,61.0863,-0.000631
93.918,61.1165,-0.000631
93.934,61.1486,-0.000631
93.953,61.1862,-0.000631
93.980,61.2392,-0.000631
93.998,61.2732,-0.000631
94.015,61.3075,-0.000631
94.030,61.3385,-0.000631
94.047,61.3721,-0.000631
94.062,61.4024,-0.000687
94.077,61.4348,-0.000687
94.094,61.4687,-0.000687
94.110,61.5015,-0.000687
94.126,61.5355,-0.000687
94.142,61.5696,-0.000687
94.165,61.6186,-0.000687
94.196,61.6837,-0.000687
94.227,61.7485,-0.000687
94.258,61.8132,-0.000687
94.273,61.8448,-0.000687
94.304,61.9070,-0.000687
94.319,61.9389,-0.000687
94.350,62.0004,-0.000612
94.365,62.0313,-0.000612
94.382,62.0649,-0.000612
94.397,62.0951,-0.000612
94.413,62.1261,-0.000612
94.430,62.1586,-0.000612
94.445,62.1885,-0.000612
94.461,62.2190,-0.000612
94.478,62.2503,-0.000612
94.494,62.2816,-0.000612
94.509,62.3106,-0.000612
94.525,62.3400,-0.000612
94.541,62.3703,-0.000612
94.558,62.4019,-0.000612
94.574,62.4297,-0.000612
94.589,62.4583,-0.000377
94.605,62.4872,-0.000377
94.622,62.5172,-0.000377
94.637,62.5449,-0.000377
94.654,62.5747,-0.000377
94.669,62.6015,-0.000377
94.685,62.6301,-0.000377
94.702,62.6581,-0.000377
94.718,62.6857,-0.000377
94.734,62.7133,-0.000377
94.750,62.7411,-0.000377
94.766,62.7683,-0.000377
94.781,62.7939,-0.000377
94.798,62.8222,-0.000377
94.814,62.8479,-0.000377
94.829,62.8738,-0.000245
94.846,62.9017,-0.000245
94.863,62.9294,-0.000245
94.889,62.9702,-0.000245
94.904,62.9942,-0.000245
94.919,63.0182,-0.000245
94.936,63.0445,-0.000245
94.966,63.0913,-0.000245
94.984,63.1186,-0.000245
95.013,63.1624,-0.000245
95.031,63.1897,-0.000245
95.049,63.2174,-0.000245
95.077,63.2564,-0.000358
95.095,63.2827,-0.000358
95.112,63.3063,-0.000358
95.127,63.3286,-0.000358
95.143,63.3509,-0.000358
95.159,63.3742,-0.000358
95.176,63.3972,-0.000358
95.192,63.4199,-0.000358
95.208,63.4401,-0.000358
95.223,63.4608,-0.000358
95.244,63.4897,-0.000358
95.262,63.5131,-0.000358
95.293,63.5530,-0.000358
95.308,63.5732,-0.000358
95.339,63.6115,-0.000442
95.355,63.6315,-0.000442
95.386,63.6694,-0.000442
95.414,63.7032,-0.000442
95.432,63.7249,-0.000442
95.462,63.7607,-0.000442
95.481,63.7831,-0.000442
95.497,63.8001,-0.000442
95.512,63.8182,-0.000442
95.541,63.8488,-0.000442
95.559,63.8687,-0.000442
95.587,63.8999,-0.000508
95.606,63.9197,-0.000508
95.622,63.9359,-0.000508
95.638,63.9524,-0.000508
95.654,63.9692,-0.000508
95.670,63.9856,-0.000508
95.687,64.0013,-0.000508
95.702,64.0164,-0.000508
95.718,64.0321,-0.000508
95.734,64.0481,-0.000508
95.750,64.0629,-0.000508
95.766,64.0777,-0.000508
95.783,64.0936,-0.000508
95.799,64.1086,-0.000508
95.819,64.1259,-0.000508
95.849,64.1535,-0.000650
95.865,64.1660,-0.000650
95.897,64.1927,-0.000650
95.912,64.2063,-0.000650
95.943,64.2301,-0.000650
95.972,64.2531,-0.000650
96.002,64.2766,-0.000650
96.018,64.2882,-0.000650
96.034,64.3000,-0.000650
96.050,64.3114,-0.000650
96.066,64.3226,-0.000715
96.082,64.3339,-0.000715
96.100,64.3466,-0.000715
96.126,64.3639,-0.000715
96.146,64.3768,-0.000715
96.163,64.3874,-0.000715
96.188,64.4034,-0.000715
96.219,64.4217,-0.000715
96.235,64.4309,-0.000715
96.250,64.4396,-0.000715
96.281,64.4565,-0.000715
96.311,64.4727,-0.000697
96.343,64.4887,-0.000697
96.373,64.5031,-0.000697
96.404,64.5174,-0.000697
96.419,64.5243,-0.000697
96.435,64.5309,-0.000697
96.466,64.5442,-0.000697
96.495,64.5551,-0.000697
96.512,64.5615,-0.000697
96.544,64.5726,-0.000697
96.574,64.5828,-0.000810
96.590,64.5877,-0.000810
96.606,64.5928,-0.000810
96.622,64.5971,-0.000810
96.638,64.6017,-0.000810
96.654,64.6058,-0.000810
96.674,64.6108,-0.000810
96.689,64.6144,-0.000810
96.711,64.6194,-0.000810
96.742,64.6258,-0.000810
96.773,64.6313,-0.000810
96.803,64.6361,-0.000810
96.819,64.6383,-0.000960
96.835,64.6404,-0.000960
96.850,64.6421,-0.000960
96.869,64.6440,-0.000960
96.898,64.6465,-0.000960
96.914,64.6475,-0.000960
96.929,64.6485,-0.000960
96.945,64.6491,-0.000960
96.976,64.6499,-0.000960
97.006,64.6501,-0.000960
97.034,64.6501,-0.000960
97.050,64.6501,-0.000960
97.066,64.6501,-0.000979
97.082,64.6501,-0.000979
97.098,64.6501,-0.000979
97.113,64.6501,-0.000979
97.129,64.6501,-0.000979
97.145,64.6501,-0.000979
97.162,64.6501,-0.000979
97.178,64.6501,-0.000979
