Elapsed Time (s),Position (mm),Force (N)
-0.025,48.4501,0.001346
0.000,48.4501,0.001346
0.022,48.4501,0.001346
0.039,48.4501,0.001346
0.057,48.4501,0.001346
0.083,48.4501,0.001346
0.103,48.4501,0.001346
0.120,48.4501,0.001346
0.135,48.4501,0.001346
0.151,48.4501,0.002400
0.167,48.4501,0.002400
0.184,48.4501,0.002400
0.200,48.4501,0.002400
0.225,48.4501,0.002400
0.255,48.4501,0.002400
0.271,48.4501,0.002400
0.302,48.4501,0.002400
0.333,48.4501,0.002400
0.363,48.4501,0.002400
0.379,48.4501,0.002400
0.410,48.4501,0.003106
0.440,48.4501,0.003106
0.456,48.4501,0.003106
0.472,48.4501,0.003106
0.503,48.4501,0.003106
0.519,48.4501,0.003106
0.535,48.4501,0.003106
0.551,48.4501,0.003106
0.567,48.4501,0.003106
0.582,48.4501,0.003106
0.598,48.4501,0.003106
0.616,48.4501,0.003106
0.644,48.4501,0.003106
0.662,48.4501,0.003511
0.679,48.4501,0.003511
0.694,48.4501,0.003511
0.710,48.4501,0.003511
0.727,48.4501,0.003511
0.742,48.4501,0.003511
0.759,48.4501,0.003511
0.775,48.4501,0.003511
0.791,48.4501,0.003511
0.806,48.4501,0.003511
0.822,48.4501,0.003511
0.838,48.4501,0.003511
0.854,48.4501,0.003511
0.871,48.4501,0.003511
0.886,48.4501,0.003511
0.903,48.4501,0.003718
0.919,48.4501,0.003718
0.935,48.4501,0.003718
0.951,48.4501,0.003718
0.968,48.4501,0.003718
0.984,48.4501,0.003718
1.000,48.4501,0.003718
1.030,48.4501,0.003718
1.046,48.4501,0.003718
1.062,48.4501,0.003718
1.078,48.4501,0.003718
1.100,48.4501,0.003718
1.124,48.4501,0.003718
1.143,48.4501,0.003718
1.158,48.4501,0.003718
1.175,48.4501,0.003718
1.191,48.4501,0.003859
1.206,48.4501,0.003859
1.224,48.4501,0.003859
1.246,48.4501,0.003859
1.277,48.4501,0.003859
1.308,48.4501,0.003859
1.340,48.4501,0.003859
1.369,48.4501,0.003859
1.399,48.4501,0.003859
1.415,48.4501,0.003859
1.431,48.4501,0.003982
1.446,48.4501,0.003982
1.465,48.4501,0.003982
1.492,48.4501,0.003982
1.510,48.4501,0.003982
1.526,48.4501,0.003982
1.542,48.4501,0.003982
1.559,48.4501,0.003982
1.586,48.4501,0.003982
1.603,48.4501,0.003982
1.619,48.4501,0.003982
1.634,48.4501,0.003982
1.651,48.4501,0.003982
1.667,48.4501,0.003982
1.682,48.4501,0.004029
1.699,48.4501,0.004029
1.714,48.4501,0.004029
1.730,48.4501,0.004029
1.747,48.4501,0.004029
1.762,48.4501,0.004029
1.779,48.4501,0.004029
1.795,48.4501,0.004029
1.811,48.4501,0.004029
1.826,48.4501,0.004029
1.843,48.4501,0.004029
1.859,48.4501,0.004029
1.874,48.4501,0.004029
1.890,48.4501,0.004029
1.907,48.4501,0.004029
1.922,48.4501,0.004095
1.938,48.4501,0.004095
1.954,48.4501,0.004095
1.970,48.4501,0.004095
1.987,48.4501,0.004095
2.002,48.4501,0.004095
2.018,48.4501,0.004095
2.034,48.4501,0.004095
2.050,48.4501,0.004095
2.066,48.4501,0.004095
2.083,48.4501,0.004095
2.098,48.4501,0.004095
2.114,48.4501,0.004095
2.144,48.4501,0.004095
2.160,48.4501,0.004095
2.177,48.4501,0.004170
2.206,48.4501,0.004170
2.224,48.4501,0.004170
2.240,48.4501,0.004170
2.256,48.4501,0.004170
2.273,48.4501,0.004170
2.300,48.4501,0.004170
2.320,48.4501,0.004170
2.336,48.4501,0.004170
2.352,48.4501,0.004170
2.368,48.4501,0.004170
2.384,48.4501,0.004170
2.402,48.4501,0.004170
2.425,48.4501,0.004170
2.440,48.4501,0.004198
2.456,48.4501,0.004198
2.472,48.4501,0.004198
2.503,48.4501,0.004198
2.518,48.4501,0.004198
2.533,48.4501,0.004198
2.550,48.4501,0.004198
2.580,48.4501,0.004198
2.595,48.4501,0.004198
2.611,48.4501,0.004198
2.642,48.4501,0.004198
2.658,48.4501,0.004198
2.673,48.4501,0.004198
2.689,48.4501,0.004198
2.720,48.4501,0.004179
2.736,48.4501,0.004179
2.751,48.4501,0.004179
2.768,48.4501,0.004179
2.784,48.4501,0.004179
2.800,48.4501,0.004179
2.816,48.4501,0.004179
2.832,48.4501,0.004179
2.848,48.4501,0.004179
2.864,48.4501,0.004179
2.880,48.4501,0.004179
2.897,48.4501,0.004179
2.912,48.4501,0.004179
2.929,48.4501,0.004189
2.950,48.4501,0.004189
2.966,48.4501,0.004189
2.982,48.4501,0.004189
3.013,48.4501,0.004189
3.029,48.4501,0.004189
3.060,48.4501,0.004189
3.091,48.4501,0.004189
3.121,48.4501,0.004189
3.142,48.4501,0.004189
3.167,48.4501,0.004189
3.184,48.4501,0.004208
3.201,48.4501,0.004208
3.216,48.4501,0.004208
3.232,48.4501,0.004208
3.261,48.4501,0.004208
3.279,48.4501,0.004208
3.296,48.4501,0.004208
3.323,48.4501,0.004208
3.341,48.4501,0.004208
3.357,48.4501,0.004208
3.373,48.4501,0.004208
3.389,48.4501,0.004208
3.405,48.4501,0.004208
3.421,48.4501,0.004198
3.437,48.4501,0.004198
3.453,48.4501,0.004198
3.469,48.4501,0.004198
3.484,48.4501,0.004198
3.501,48.4501,0.004198
3.517,48.4501,0.004198
3.533,48.4501,0.004198
3.548,48.4501,0.004198
3.565,48.4501,0.004198
3.581,48.4501,0.004198
3.596,48.4501,0.004198
3.613,48.4501,0.004198
3.629,48.4501,0.004198
3.644,48.4501,0.004198
3.660,48.4501,0.004001
3.677,48.4501,0.004001
3.692,48.4501,0.004001
3.709,48.4501,0.004001
3.724,48.4501,0.004001
3.741,48.4501,0.004001
3.757,48.4501,0.004001
3.772,48.4501,0.004001
3.789,48.4501,0.004001
3.819,48.4501,0.004001
3.835,48.4501,0.004001
3.851,48.4501,0.004001
3.867,48.4501,0.004001
3.885,48.4501,0.004001
3.904,48.4501,0.004001
3.928,48.4501,0.003690
3.947,48.4501,0.003690
3.963,48.4501,0.003690
3.979,48.4501,0.003690
3.995,48.4501,0.003690
4.010,48.4501,0.003690
4.027,48.4501,0.003690
4.042,48.4501,0.003690
4.058,48.4501,0.003690
4.075,48.4500,0.003690
4.090,48.4496,0.003690
4.107,48.4491,0.003690
4.122,48.4484,0.003690
4.139,48.4475,0.003690
4.154,48.4464,0.003539
4.170,48.4452,0.003539
4.186,48.4437,0.003539
4.202,48.4419,0.003539
4.219,48.4401,0.003539
4.234,48.4380,0.003539
4.250,48.4357,0.003539
4.267,48.4333,0.003539
4.282,48.4307,0.003539
4.298,48.4278,0.003539
4.315,48.4247,0.003539
4.331,48.4215,0.003539
4.346,48.4183,0.003539
4.374,48.4117,0.003539
4.391,48.4075,0.003539
4.421,48.3995,0.004594
4.439,48.3946,0.004594
4.455,48.3899,0.004594
4.470,48.3850,0.004594
4.486,48.3801,0.004594
4.503,48.3742,0.004594
4.531,48.3646,0.004594
4.550,48.3576,0.004594
4.566,48.3514,0.004594
4.582,48.3452,0.004594
4.599,48.3386,0.004594
4.614,48.3321,0.004594
4.633,48.3240,0.004594
4.655,48.3138,0.004594
4.671,48.3066,0.014675
4.701,48.2924,0.014675
4.732,48.2772,0.014675
4.762,48.2614,0.014675
4.777,48.2528,0.014675
4.808,48.2354,0.014675
4.827,48.2251,0.014675
4.855,48.2080,0.014675
4.872,48.1980,0.014675
4.900,48.1796,0.014675
4.931,48.1595,0.018177
4.949,48.1483,0.018177
4.978,48.1284,0.018177
4.998,48.1130,0.018177
5.025,48.0947,0.018177
5.043,48.0812,0.018177
5.059,48.0685,0.018177
5.075,48.0570,0.018177
5.091,48.0443,0.018177
5.107,48.0314,0.018177
5.123,48.0184,0.018177
5.139,48.0059,0.018177
5.155,47.9925,0.008990
5.171,47.9793,0.008990
5.188,47.9649,0.008990
5.204,47.9513,0.008990
5.220,47.9370,0.008990
5.235,47.9235,0.008990
5.251,47.9090,0.008990
5.267,47.8950,0.008990
5.283,47.8802,0.008990
5.299,47.8647,0.008990
5.315,47.8496,0.008990
5.331,47.8347,0.008990
5.347,47.8188,0.008990
5.363,47.8030,0.008990
5.380,47.7865,0.008990
5.395,47.7709,0.008990
5.411,47.7540,0.005177
5.429,47.7360,0.005177
5.458,47.7057,0.005177
5.475,47.6878,0.005177
5.491,47.6705,0.005177
5.507,47.6530,0.005177
5.523,47.6352,0.005177
5.539,47.6171,0.005177
5.556,47.5982,0.005177
5.571,47.5807,0.005177
5.587,47.5626,0.005177
5.603,47.5444,0.005177
5.619,47.5253,0.005177
5.635,47.5062,0.005177
5.651,47.4865,0.005111
5.667,47.4671,0.005111
5.683,47.4474,0.005111
5.699,47.4269,0.005111
5.715,47.4083,0.005111
5.732,47.3868,0.005111
5.747,47.3669,0.005111
5.763,47.3472,0.005111
5.779,47.3264,0.005111
5.795,47.3051,0.005111
5.811,47.2839,0.005111
5.827,47.2624,0.005111
5.843,47.2410,0.005111
5.860,47.2175,0.005111
5.876,47.1953,0.005111
5.892,47.1745,0.005111
5.907,47.1520,0.005337
5.923,47.1298,0.005337
5.939,47.1082,0.005337
5.955,47.0852,0.005337
5.971,47.0622,0.005337
5.987,47.0381,0.005337
6.015,46.9967,0.005337
6.035,46.9667,0.005337
6.051,46.9435,0.005337
6.067,46.9189,0.005337
6.083,46.8951,0.005337
6.099,46.8697,0.005337
6.115,46.8450,0.005337
6.131,46.8200,0.005337
6.147,46.7947,0.005337
6.163,46.7689,0.005337
6.179,46.7438,0.005337
6.195,46.7180,0.005591
6.211,46.6927,0.005591
6.227,46.6658,0.005591
6.242,46.6401,0.005591
6.259,46.6132,0.005591
6.275,46.5862,0.005591
6.291,46.5594,0.005591
6.307,46.5321,0.005591
6.323,46.5052,0.005591
6.338,46.4778,0.005591
6.355,46.4488,0.005591
6.371,46.4221,0.005591
6.387,46.3933,0.005591
6.404,46.3634,0.005591
6.419,46.3363,0.005591
6.435,46.3085,0.005864
6.451,46.2796,0.005864
6.469,46.2459,0.005864
6.495,46.1991,0.005864
6.515,46.1609,0.005864
6.531,46.1321,0.005864
6.562,46.0725,0.005864
6.588,46.0222,0.005864
6.609,45.9829,0.005864
6.625,45.9516,0.005864
6.641,45.9200,0.005864
6.657,45.8885,0.006260
6.681,45.8406,0.006260
6.712,45.7798,0.006260
6.743,45.7159,0.006260
6.759,45.6843,0.006260
6.789,45.6236,0.006260
6.807,45.5843,0.006260
6.835,45.5279,0.006260
6.851,45.4934,0.006260
6.867,45.4581,0.006260
6.883,45.4249,0.006260
6.912,45.3623,0.006740
6.930,45.3220,0.006740
6.960,45.2624,0.006740
6.977,45.2275,0.006740
6.993,45.1941,0.006740
7.009,45.1612,0.006740
7.024,45.1298,0.006740
7.040,45.0975,0.006740
7.059,45.0595,0.006740
7.084,45.0077,0.006740
7.105,44.9689,0.006740
7.121,44.9369,0.006740
7.137,44.9060,0.006740
7.152,44.8755,0.007211
7.169,44.8440,0.007211
7.185,44.8126,0.007211
7.201,44.7835,0.007211
7.216,44.7532,0.007211
7.232,44.7231,0.007211
7.249,44.6918,0.007211
7.264,44.6629,0.007211
7.280,44.6345,0.007211
7.297,44.6028,0.007211
7.313,44.5749,0.007211
7.329,44.5456,0.007211
7.344,44.5183,0.007211
7.361,44.4887,0.007211
7.377,44.4602,0.007211
7.393,44.4325,0.007211
7.409,44.4039,0.007681
7.424,44.3766,0.007681
7.441,44.3495,0.007681
7.456,44.3225,0.007681
7.479,44.2832,0.007681
7.503,44.2419,0.007681
7.521,44.2136,0.007681
7.536,44.1886,0.007681
7.553,44.1605,0.007681
7.579,44.1192,0.007681
7.610,44.0684,0.007681
7.640,44.0213,0.007681
7.661,43.9886,0.007681
7.677,43.9633,0.007681
7.693,43.9398,0.008246
7.710,43.9134,0.008246
7.726,43.8903,0.008246
7.741,43.8658,0.008246
7.757,43.8435,0.008246
7.773,43.8196,0.008246
7.790,43.7955,0.008246
7.805,43.7735,0.008246
7.821,43.7505,0.008246
7.837,43.7271,0.008246
7.854,43.7039,0.008246
7.870,43.6822,0.008246
7.885,43.6606,0.008246
7.901,43.6379,0.008246
7.917,43.6166,0.008246
7.934,43.5946,0.008848
7.949,43.5735,0.008848
7.966,43.5507,0.008848
7.981,43.5310,0.008848
7.997,43.5097,0.008848
8.013,43.4898,0.008848
8.033,43.4643,0.008848
8.049,43.4442,0.008848
8.077,43.4089,0.008848
8.093,43.3890,0.008848
8.109,43.3696,0.008848
8.125,43.3503,0.008848
8.142,43.3309,0.008848
8.157,43.3125,0.008848
8.173,43.2940,0.008848
8.189,43.2755,0.008848
8.215,43.2451,0.009413
8.233,43.2261,0.009413
8.248,43.2088,0.009413
8.264,43.1914,0.009413
8.281,43.1721,0.009413
8.308,43.1427,0.009413
8.328,43.1229,0.009413
8.345,43.1047,0.009413
8.360,43.0886,0.009413
8.376,43.0730,0.009413
8.392,43.0576,0.009413
8.409,43.0407,0.009413
8.425,43.0251,0.009413
8.447,43.0025,0.009837
8.478,42.9735,0.009837
8.494,42.9595,0.009837
8.524,42.9316,0.009837
8.543,42.9152,0.009837
8.569,42.8921,0.009837
8.585,42.8792,0.009837
8.600,42.8658,0.009837
8.616,42.8532,0.009837
8.632,42.8397,0.009837
8.652,42.8226,0.009837
8.678,42.8032,0.010166
8.696,42.7892,0.010166
8.714,42.7749,0.010166
8.739,42.7562,0.010166
8.760,42.7417,0.010166
8.776,42.7300,0.010166
8.792,42.7189,0.010166
8.808,42.7081,0.010166
8.827,42.6949,0.010166
8.847,42.6814,0.010166
8.878,42.6620,0.010166
8.909,42.6426,0.010449
8.940,42.6241,0.010449
8.956,42.6147,0.010449
8.972,42.6055,0.010449
8.988,42.5970,0.010449
9.019,42.5803,0.010449
9.050,42.5648,0.010449
9.082,42.5491,0.010449
9.112,42.5348,0.010449
9.129,42.5274,0.010449
9.145,42.5211,0.010449
9.160,42.5145,0.010618
9.176,42.5077,0.010618
9.192,42.5013,0.010618
9.208,42.4954,0.010618
9.224,42.4894,0.010618
9.241,42.4832,0.010618
9.268,42.4738,0.010618
9.288,42.4674,0.010618
9.314,42.4594,0.010618
9.330,42.4546,0.010618
9.346,42.4501,0.010618
9.362,42.4457,0.010618
9.383,42.4403,0.010618
9.407,42.4347,0.010740
9.426,42.4307,0.010740
9.442,42.4272,0.010740
9.458,42.4240,0.010740
9.474,42.4210,0.010740
9.490,42.4184,0.010740
9.506,42.4159,0.010740
9.522,42.4134,0.010740
9.538,42.4112,0.010740
9.554,42.4092,0.010740
9.571,42.4073,0.010740
9.586,42.4058,0.010740
9.601,42.4045,0.010740
9.618,42.4032,0.010740
9.634,42.4021,0.010740
9.650,42.4014,0.010853
9.666,42.4008,0.010853
9.682,42.4003,0.010853
9.697,42.4000,0.010853
9.714,42.4000,0.010853
9.730,42.4000,0.010853
9.745,42.4000,0.010853
9.761,42.4000,0.010853
9.777,42.4000,0.010853
9.793,42.4000,0.010853
9.809,42.4000,0.010853
9.826,42.4000,0.010853
9.841,42.4000,0.010853
9.871,42.4000,0.010853
9.887,42.4001,0.010853
9.902,42.4004,0.011013
9.918,42.4008,0.011013
9.934,42.4014,0.011013
9.951,42.4022,0.011013
9.966,42.4032,0.011013
9.982,42.4045,0.011013
9.999,42.4060,0.011013
10.015,42.4076,0.011013
10.031,42.4093,0.011013
10.047,42.4114,0.011013
10.063,42.4135,0.011013
10.078,42.4158,0.011013
10.095,42.4185,0.011013
10.111,42.4212,0.011013
10.127,42.4242,0.011013
10.143,42.4273,0.011013
10.158,42.4305,0.010957
10.174,42.4341,0.010957
10.191,42.4381,0.010957
10.206,42.4417,0.010957
10.222,42.4459,0.010957
10.238,42.4501,0.010957
10.254,42.4547,0.010957
10.271,42.4597,0.010957
10.286,42.4643,0.010957
10.304,42.4701,0.010957
10.333,42.4799,0.010957
10.351,42.4858,0.010957
10.367,42.4919,0.010957
10.382,42.4977,0.010957
10.398,42.5039,0.010957
10.427,42.5160,0.010835
10.451,42.5264,0.010835
10.473,42.5357,0.010835
10.491,42.5439,0.010835
10.506,42.5512,0.010835
10.522,42.5589,0.010835
10.539,42.5671,0.010835
10.554,42.5754,0.010835
10.570,42.5834,0.010835
10.587,42.5921,0.010835
10.602,42.6007,0.010835
10.619,42.6102,0.010835
10.635,42.6192,0.010835
10.651,42.6285,0.010825
10.667,42.6376,0.010825
10.683,42.6473,0.010825
10.698,42.6569,0.010825
10.714,42.6669,0.010825
10.730,42.6775,0.010825
10.746,42.6876,0.010825
10.762,42.6983,0.010825
10.779,42.7100,0.010825
10.794,42.7205,0.010825
10.810,42.7314,0.010825
10.826,42.7432,0.010825
10.842,42.7546,0.010825
10.858,42.7665,0.010825
10.874,42.7784,0.010825
10.890,42.7906,0.010825
10.906,42.8030,0.010825
10.922,42.8160,0.010825
10.938,42.8288,0.010825
10.968,42.8530,0.010628
10.983,42.8652,0.010628
11.000,42.8796,0.010628
11.015,42.8928,0.010628
11.032,42.9079,0.010628
11.047,42.9209,0.010628
11.063,42.9348,0.010628
11.079,42.9493,0.010628
11.095,42.9647,0.010628
11.111,42.9788,0.010628
11.127,42.9940,0.010628
11.143,43.0092,0.010628
11.159,43.0248,0.010628
11.175,43.0406,0.010628
11.191,43.0561,0.010383
11.207,43.0722,0.010383
11.223,43.0891,0.010383
11.239,43.1048,0.010383
11.256,43.1226,0.010383
11.280,43.1480,0.010383
11.296,43.1659,0.010383
11.326,43.1981,0.010383
11.358,43.2331,0.010383
11.388,43.2677,0.010383
11.419,43.3045,0.010383
11.450,43.3400,0.010053
11.482,43.3784,0.010053
11.512,43.4154,0.010053
11.543,43.4542,0.010053
11.559,43.4748,0.010053
11.575,43.4946,0.010053
11.592,43.5172,0.010053
11.622,43.5559,0.010053
11.639,43.5787,0.010053
11.655,43.6012,0.010053
11.671,43.6215,0.010053
11.687,43.6434,0.009705
11.703,43.6653,0.009705
11.719,43.6882,0.009705
11.735,43.7107,0.009705
11.752,43.7336,0.009705
11.767,43.7553,0.009705
11.783,43.7793,0.009705
11.799,43.8026,0.009705
11.815,43.8250,0.009705
11.831,43.8492,0.009705
11.847,43.8734,0.009705
11.863,43.8962,0.009705
11.879,43.9205,0.009705
11.895,43.9451,0.009705
11.911,43.9705,0.009705
11.927,43.9945,0.009291
11.943,44.0190,0.009291
11.959,44.0446,0.009291
11.975,44.0699,0.009291
11.991,44.0958,0.009291
12.007,44.1213,0.009291
12.023,44.1469,0.009291
12.039,44.1752,0.009291
12.055,44.2011,0.009291
12.071,44.2264,0.009291
12.097,44.2692,0.009291
12.113,44.2968,0.009291
12.129,44.3244,0.009291
12.144,44.3508,0.009291
12.161,44.3792,0.009291
12.177,44.4076,0.009291
12.193,44.4349,0.008801
12.209,44.4634,0.008801
12.228,44.4973,0.008801
12.254,44.5440,0.008801
12.273,44.5776,0.008801
12.289,44.6074,0.008801
12.304,44.6350,0.008801
12.320,44.6649,0.008801
12.336,44.6945,0.008801
12.353,44.7257,0.008801
12.368,44.7551,0.008801
12.385,44.7864,0.008801
12.400,44.8154,0.008801
12.418,44.8484,0.008801
12.433,44.8780,0.008801
12.449,44.9091,0.008237
12.464,44.9393,0.008237
12.483,44.9771,0.008237
12.502,45.0155,0.008237
12.533,45.0756,0.008237
12.549,45.1093,0.008237
12.565,45.1401,0.008237
12.581,45.1726,0.008237
12.611,45.2363,0.008237
12.627,45.2681,0.008237
12.643,45.3019,0.008237
12.674,45.3691,0.008237
12.705,45.4329,0.007540
12.721,45.4667,0.007540
12.752,45.5333,0.007540
12.768,45.5656,0.007540
12.784,45.5988,0.007540
12.800,45.6311,0.007540
12.817,45.6662,0.007540
12.834,45.7009,0.007540
12.860,45.7526,0.007540
12.880,45.7924,0.007540
12.896,45.8243,0.007540
12.914,45.8595,0.007540
12.937,45.9037,0.007088
12.968,45.9646,0.007088
12.998,46.0201,0.007088
13.013,46.0505,0.007088
13.029,46.0814,0.007088
13.044,46.1088,0.007088
13.076,46.1667,0.007088
13.092,46.1984,0.007088
13.123,46.2523,0.007088
13.143,46.2890,0.007088
13.160,46.3185,0.007088
13.176,46.3463,0.006721
13.192,46.3745,0.006721
13.208,46.4025,0.006721
13.223,46.4293,0.006721
13.239,46.4571,0.006721
13.255,46.4845,0.006721
13.272,46.5123,0.006721
13.287,46.5381,0.006721
13.303,46.5650,0.006721
13.319,46.5923,0.006721
13.336,46.6193,0.006721
13.351,46.6441,0.006721
13.368,46.6708,0.006721
13.383,46.6964,0.006721
13.400,46.7230,0.006721
13.416,46.7479,0.006166
13.431,46.7732,0.006166
13.450,46.8015,0.006166
13.478,46.8451,0.006166
13.495,46.8714,0.006166
13.512,46.8969,0.006166
13.528,46.9202,0.006166
13.543,46.9431,0.006166
13.559,46.9668,0.006166
13.579,46.9973,0.006166
13.602,47.0296,0.006166
13.623,47.0595,0.006166
13.640,47.0839,0.006166
13.656,47.1051,0.006166
13.671,47.1275,0.006166
13.696,47.1615,0.005723
13.712,47.1837,0.005723
13.728,47.2051,0.005723
13.744,47.2279,0.005723
13.766,47.2560,0.005723
13.788,47.2849,0.005723
13.808,47.3100,0.005723
13.824,47.3313,0.005723
13.840,47.3505,0.005723
13.856,47.3708,0.005723
13.872,47.3910,0.005723
13.889,47.4113,0.005723
13.905,47.4313,0.005723
13.920,47.4494,0.005450
13.936,47.4681,0.005450
13.952,47.4877,0.005450
13.968,47.5064,0.005450
13.984,47.5243,0.005450
14.000,47.5431,0.005450
14.016,47.5614,0.005450
14.032,47.5787,0.005450
14.048,47.5967,0.005450
14.064,47.6141,0.005450
14.080,47.6317,0.005450
14.096,47.6483,0.005450
14.112,47.6663,0.005450
14.128,47.6821,0.005450
14.144,47.6988,0.005450
14.160,47.7150,0.005215
14.176,47.7312,0.005215
14.195,47.7510,0.005215
14.223,47.7782,0.005215
14.238,47.7927,0.005215
14.254,47.8077,0.005215
14.271,47.8234,0.005215
14.286,47.8378,0.005215
14.302,47.8520,0.005215
14.319,47.8678,0.005215
14.347,47.8929,0.005215
14.366,47.9090,0.005215
14.382,47.9236,0.005215
14.398,47.9362,0.005215
14.414,47.9503,0.004989
14.430,47.9625,0.004989
14.446,47.9756,0.004989
14.462,47.9884,0.004989
14.478,48.0005,0.004989
14.494,48.0132,0.004989
14.510,48.0255,0.004989
14.526,48.0370,0.004989
14.542,48.0487,0.004989
14.558,48.0603,0.004989
14.574,48.0720,0.004989
14.590,48.0829,0.004989
14.606,48.0941,0.004989
14.622,48.1050,0.004989
14.638,48.1154,0.004989
14.654,48.1259,0.004660
14.670,48.1362,0.004660
14.686,48.1464,0.004660
14.702,48.1563,0.004660
14.718,48.1655,0.004660
14.748,48.1832,0.004660
14.764,48.1922,0.004660
14.780,48.2008,0.004660
14.796,48.2095,0.004660
14.813,48.2186,0.004660
14.828,48.2265,0.004660
14.843,48.2343,0.004660
14.860,48.2425,0.004660
14.882,48.2532,0.004660
14.906,48.2640,0.004660
14.924,48.2720,0.004660
14.940,48.2790,0.004038
14.956,48.2859,0.004038
14.972,48.2924,0.004038
14.988,48.2987,0.004038
15.004,48.3050,0.004038
15.021,48.3111,0.004038
15.036,48.3166,0.004038
15.052,48.3221,0.004038
15.068,48.3277,0.004038
15.083,48.3328,0.004038
15.100,48.3378,0.004038
15.117,48.3430,0.004038
15.132,48.3473,0.004038
15.147,48.3517,0.002777
15.164,48.3560,0.002777
15.179,48.3601,0.002777
15.196,48.3639,0.002777
15.212,48.3674,0.002777
15.228,48.3709,0.002777
15.245,48.3743,0.002777
15.273,48.3797,0.002777
15.306,48.3850,0.002777
15.336,48.3892,0.002777
15.353,48.3912,0.002777
15.369,48.3931,0.002777
15.385,48.3946,0.002777
15.400,48.3959,0.000838
15.417,48.3970,0.000838
15.432,48.3980,0.000838
15.449,48.3988,0.000838
15.465,48.3994,0.000838
15.481,48.3998,0.000838
15.498,48.4000,0.000838
15.520,48.4000,0.000838
15.551,48.4000,0.000838
15.568,48.4000,0.000838
15.599,48.4000,0.000838
15.629,48.4000,0.000838
15.660,48.4000,0.000386
15.690,48.4000,0.000386
15.720,48.4000,0.000386
15.737,48.4000,0.000386
15.752,48.4000,0.000386
15.768,48.4000,0.000386
15.784,48.4000,0.000386
15.802,48.4000,0.000386
15.829,48.4000,0.000386
15.848,48.4000,0.000386
15.865,48.4000,0.000386
15.881,48.4000,0.000386
15.897,48.4000,0.000386
15.912,48.4000,0.001534
15.928,48.4000,0.001534
15.944,48.4000,0.001534
15.961,48.4000,0.001534
15.977,48.4000,0.001534
15.992,48.4000,0.001534
16.008,48.4000,0.001534
16.025,48.4000,0.001534
16.041,48.4000,0.001534
16.056,48.4000,0.001534
16.072,48.4000,0.001534
16.089,48.4000,0.001534
16.104,48.4000,0.001534
16.121,48.4000,0.001534
16.136,48.4000,0.001534
16.154,48.4000,0.001534
16.183,48.4000,0.002570
16.200,48.4000,0.002570
16.216,48.4000,0.002570
16.233,48.4000,0.002570
16.248,48.4000,0.002570
16.264,48.4000,0.002570
16.288,48.4000,0.002570
16.307,48.4000,0.002570
16.328,48.4000,0.002570
16.344,48.4000,0.002570
16.360,48.4000,0.002570
16.376,48.4000,0.002570
16.399,48.4000,0.002570
16.415,48.4000,0.002570
16.431,48.4000,0.003248
16.447,48.4000,0.003248
16.465,48.4000,0.003248
16.492,48.4000,0.003248
16.512,48.4000,0.003248
16.530,48.4000,0.003248
16.545,48.4000,0.003248
16.570,48.4000,0.003248
16.591,48.4000,0.003248
16.607,48.4000,0.003248
16.623,48.4000,0.003248
16.639,48.4000,0.003248
16.655,48.4000,0.003248
16.671,48.4000,0.003248
16.687,48.4000,0.003624
16.703,48.4000,0.003624
16.719,48.4000,0.003624
16.735,48.4000,0.003624
16.751,48.4000,0.003624
16.767,48.4000,0.003624
16.784,48.4000,0.003624
16.799,48.4000,0.003624
16.815,48.4000,0.003624
16.831,48.4000,0.003624
16.847,48.4000,0.003624
16.863,48.4000,0.003624
16.879,48.4000,0.003624
16.897,48.4000,0.003624
16.923,48.4000,0.003624
16.943,48.4000,0.003831
16.959,48.4000,0.003831
16.975,48.4000,0.003831
16.991,48.4000,0.003831
17.007,48.4000,0.003831
17.023,48.4000,0.003831
17.039,48.4000,0.003831
17.055,48.4000,0.003831
17.071,48.4000,0.003831
17.087,48.4000,0.003831
17.103,48.4000,0.003831
17.119,48.4000,0.003831
17.136,48.4000,0.003831
17.155,48.4000,0.003831
17.185,48.4000,0.003963
17.217,48.4000,0.003963
17.232,48.4000,0.003963
17.262,48.4000,0.003963
17.279,48.4000,0.003963
17.295,48.4000,0.003963
17.311,48.4000,0.003963
17.331,48.4000,0.003963
17.355,48.4000,0.003963
17.375,48.4000,0.003963
17.391,48.4000,0.003963
17.407,48.4000,0.003963
17.423,48.4000,0.004057
17.439,48.4000,0.004057
17.456,48.4000,0.004057
17.480,48.4000,0.004057
17.495,48.4000,0.004057
17.527,48.4000,0.004057
17.557,48.4000,0.004057
17.588,48.4000,0.004057
17.604,48.4000,0.004057
17.620,48.4000,0.004057
17.651,48.4000,0.004057
17.682,48.4000,0.004085
17.713,48.4000,0.004085
17.728,48.4000,0.004085
17.744,48.4000,0.004085
17.761,48.4000,0.004085
17.790,48.4000,0.004085
17.807,48.4000,0.004085
17.824,48.4000,0.004085
17.851,48.4000,0.004085
17.871,48.4000,0.004085
17.888,48.4000,0.004085
17.903,48.4000,0.004085
17.919,48.4000,0.004123
17.935,48.4000,0.004123
17.951,48.4000,0.004123
17.970,48.4000,0.004123
17.990,48.4000,0.004123
18.021,48.4000,0.004123
18.038,48.4000,0.004123
18.067,48.4000,0.004123
18.098,48.4000,0.004123
18.128,48.4000,0.004123
18.144,48.4000,0.004123
18.160,48.4000,0.004161
18.190,48.4000,0.004161
18.213,48.4000,0.004161
18.237,48.4000,0.004161
18.255,48.4000,0.004161
18.271,48.4000,0.004161
18.287,48.4000,0.004161
18.302,48.4000,0.004161
18.320,48.4000,0.004161
18.345,48.4000,0.004161
18.375,48.4000,0.004161
18.409,48.4000,0.004161
18.431,48.4000,0.004161
18.447,48.4000,0.004161
18.462,48.4000,0.004161
18.479,48.4000,0.004161
18.495,48.4000,0.004161
18.511,48.4000,0.004161
18.526,48.4000,0.004161
18.543,48.4000,0.004161
18.558,48.4000,0.004161
18.575,48.4000,0.004161
18.591,48.4000,0.004161
18.606,48.4000,0.004161
18.630,48.4000,0.004161
18.653,48.4000,0.004161
18.670,48.4000,0.004189
18.687,48.4000,0.004189
18.702,48.4000,0.004189
18.719,48.4000,0.004189
18.734,48.4000,0.004189
18.751,48.4000,0.004189
18.766,48.4000,0.004189
18.784,48.4000,0.004189
18.809,48.4000,0.004189
18.832,48.4000,0.004189
18.856,48.4000,0.004189
18.872,48.4000,0.004189
18.902,48.4000,0.004189
18.918,48.4000,0.004217
18.934,48.4000,0.004217
18.949,48.4000,0.004217
18.980,48.4000,0.004217
19.014,48.4000,0.004217
19.041,48.4000,0.004217
19.072,48.4000,0.004217
19.088,48.4000,0.004217
19.117,48.4000,0.004217
19.133,48.4000,0.004217
19.149,48.4000,0.004245
19.165,48.4000,0.004245
19.181,48.4000,0.004245
19.197,48.4000,0.004245
19.213,48.4000,0.004245
19.229,48.4000,0.004245
19.245,48.4000,0.004245
19.261,48.4000,0.004245
19.277,48.4000,0.004245
19.293,48.4000,0.004245
19.310,48.4000,0.004245
19.326,48.4000,0.004245
19.341,48.4000,0.004245
19.358,48.4000,0.004245
19.374,48.4000,0.004245
19.389,48.4000,0.004245
19.405,48.4000,0.004217
19.421,48.4000,0.004217
19.439,48.4000,0.004217
19.461,48.4000,0.004217
19.476,48.4000,0.004217
19.508,48.4000,0.004217
19.537,48.4000,0.004217
19.569,48.4000,0.004217
19.600,48.4000,0.004217
19.629,48.4000,0.004217
19.645,48.4000,0.004217
19.662,48.4000,0.003991
19.677,48.4000,0.003991
19.693,48.4000,0.003991
19.709,48.4000,0.003991
19.726,48.4000,0.003991
19.741,48.4000,0.003991
19.757,48.4000,0.003991
19.773,48.4000,0.003991
19.790,48.4000,0.003991
19.805,48.4000,0.003991
19.821,48.4000,0.003991
19.837,48.4000,0.003991
19.855,48.4000,0.003991
19.875,48.4000,0.003991
19.906,48.4000,0.003991
19.922,48.4000,0.003991
19.953,48.4000,0.003746
19.968,48.3999,0.003746
19.998,48.3993,0.003746
20.013,48.3987,0.003746
20.031,48.3978,0.003746
20.060,48.3957,0.003746
20.077,48.3942,0.003746
20.093,48.3926,0.003746
20.109,48.3907,0.003746
20.125,48.3889,0.003746
20.154,48.3846,0.003746
20.171,48.3822,0.003746
20.186,48.3793,0.003596
20.202,48.3766,0.003596
20.218,48.3734,0.003596
20.234,48.3701,0.003596
20.250,48.3668,0.003596
20.266,48.3629,0.003596
20.282,48.3591,0.003596
20.298,48.3549,0.003596
20.314,48.3508,0.003596
20.330,48.3463,0.003596
20.351,48.3397,0.003596
20.376,48.3324,0.003596
20.394,48.3264,0.003596
20.410,48.3211,0.003596
20.426,48.3153,0.003596
20.442,48.3096,0.010044
20.458,48.3037,0.010044
20.474,48.2970,0.010044
20.490,48.2909,0.010044
20.506,48.2842,0.010044
20.522,48.2775,0.010044
20.538,48.2707,0.010044
20.554,48.2636,0.010044
20.570,48.2563,0.010044
20.586,48.2486,0.010044
20.603,48.2403,0.010044
20.618,48.2328,0.010044
20.634,48.2247,0.010044
20.650,48.2162,0.010044
20.676,48.2022,0.018459
20.693,48.1927,0.018459
20.715,48.1806,0.018459
20.746,48.1619,0.018459
20.777,48.1433,0.018459
20.808,48.1232,0.018459
20.839,48.1030,0.018459
20.869,48.0823,0.018459
20.885,48.0712,0.018459
20.901,48.0603,0.018459
20.916,48.0492,0.018459
20.932,48.0373,0.013574
20.948,48.0250,0.013574
20.965,48.0129,0.013574
20.995,47.9894,0.013574
21.012,47.9759,0.013574
21.028,47.9620,0.013574
21.056,47.9394,0.013574
21.076,47.9229,0.013574
21.092,47.9090,0.013574
21.109,47.8946,0.013574
21.124,47.8814,0.013574
21.140,47.8670,0.013574
21.156,47.8523,0.013574
21.172,47.8376,0.013574
21.188,47.8227,0.013574
21.211,47.8004,0.005968
21.228,47.7850,0.005968
21.243,47.7700,0.005968
21.260,47.7539,0.005968
21.275,47.7377,0.005968
21.291,47.7222,0.005968
21.307,47.7059,0.005968
21.324,47.6891,0.005968
21.340,47.6719,0.005968
21.356,47.6548,0.005968
21.372,47.6377,0.005968
21.387,47.6213,0.005968
21.404,47.6033,0.005968
21.419,47.5864,0.005968
21.435,47.5686,0.005187
21.452,47.5500,0.005187
21.468,47.5315,0.005187
21.484,47.5134,0.005187
21.499,47.4953,0.005187
21.516,47.4748,0.005187
21.535,47.4517,0.005187
21.551,47.4335,0.005187
21.567,47.4142,0.005187
21.583,47.3942,0.005187
21.614,47.3561,0.005187
21.645,47.3169,0.005187
21.661,47.2962,0.005187
21.692,47.2562,0.005318
21.709,47.2330,0.005318
21.724,47.2134,0.005318
21.739,47.1925,0.005318
21.769,47.1526,0.005318
21.785,47.1289,0.005318
21.800,47.1088,0.005318
21.816,47.0865,0.005318
21.832,47.0626,0.005318
21.849,47.0396,0.005318
21.878,46.9969,0.005318
21.900,46.9645,0.005318
21.925,46.9281,0.005563
21.944,46.8996,0.005563
21.960,46.8750,0.005563
21.976,46.8510,0.005563
21.993,46.8258,0.005563
22.008,46.8017,0.005563
22.025,46.7754,0.005563
22.040,46.7515,0.005563
22.057,46.7250,0.005563
22.072,46.7007,0.005563
22.089,46.6742,0.005563
22.104,46.6489,0.005563
22.120,46.6229,0.005563
22.136,46.5957,0.005563
22.153,46.5687,0.005563
22.169,46.5426,0.005563
22.184,46.5164,0.005761
22.200,46.4891,0.005761
22.216,46.4618,0.005761
22.232,46.4345,0.005761
22.248,46.4066,0.005761
22.264,46.3779,0.005761
22.281,46.3490,0.005761
22.297,46.3213,0.005761
22.327,46.2661,0.005761
22.343,46.2374,0.005761
22.359,46.2080,0.005761
22.375,46.1796,0.005761
22.396,46.1414,0.005761
22.421,46.0942,0.006072
22.439,46.0604,0.006072
22.455,46.0304,0.006072
22.471,46.0004,0.006072
22.487,45.9700,0.006072
22.503,45.9388,0.006072
22.520,45.9070,0.006072
22.536,45.8756,0.006072
22.551,45.8449,0.006072
22.567,45.8143,0.006072
22.583,45.7814,0.006072
22.599,45.7491,0.006072
22.615,45.7186,0.006072
22.631,45.6861,0.006072
22.648,45.6518,0.006072
22.669,45.6084,0.006072
22.699,45.5436,0.006580
22.720,45.5031,0.006580
22.747,45.4457,0.006580
22.777,45.3796,0.006580
22.808,45.3163,0.006580
22.824,45.2821,0.006580
22.854,45.2196,0.006580
22.883,45.1588,0.006580
22.899,45.1262,0.006580
22.915,45.0924,0.007003
22.931,45.0603,0.007003
22.951,45.0214,0.007003
22.979,44.9646,0.007003
22.995,44.9328,0.007003
23.012,44.8987,0.007003
23.041,44.8423,0.007003
23.059,44.8077,0.007003
23.076,44.7748,0.007003
23.092,44.7453,0.007003
23.107,44.7159,0.007003
23.123,44.6854,0.007003
23.139,44.6555,0.007003
23.155,44.6257,0.007003
23.172,44.5951,0.007418
23.196,44.5507,0.007418
23.212,44.5204,0.007418
23.243,44.4666,0.007418
23.258,44.4386,0.007418
23.274,44.4088,0.007418
23.306,44.3546,0.007418
23.338,44.2979,0.007418
23.367,44.2507,0.007418
23.399,44.1962,0.007418
23.429,44.1466,0.008001
23.444,44.1198,0.008001
23.459,44.0948,0.008001
23.475,44.0706,0.008001
23.491,44.0452,0.008001
23.507,44.0188,0.008001
23.523,43.9950,0.008001
23.539,43.9698,0.008001
23.559,43.9377,0.008001
23.583,43.9008,0.008001
23.603,43.8711,0.008001
23.622,43.8403,0.008001
23.644,43.8082,0.008001
23.660,43.7860,0.008622
23.691,43.7393,0.008622
23.722,43.6946,0.008622
23.753,43.6513,0.008622
23.783,43.6101,0.008622
23.799,43.5878,0.008622
23.815,43.5657,0.008622
23.845,43.5248,0.008622
23.861,43.5041,0.008622
23.891,43.4643,0.008622
23.907,43.4445,0.008622
23.922,43.4243,0.009197
23.939,43.4030,0.009197
23.954,43.3843,0.009197
23.971,43.3637,0.009197
23.987,43.3440,0.009197
24.003,43.3245,0.009197
24.018,43.3055,0.009197
24.034,43.2864,0.009197
24.052,43.2658,0.009197
24.067,43.2481,0.009197
24.082,43.2299,0.009197
24.098,43.2117,0.009197
24.114,43.1936,0.009197
24.130,43.1757,0.009197
24.146,43.1579,0.009197
24.162,43.1398,0.009677
24.179,43.1221,0.009677
24.194,43.1056,0.009677
24.211,43.0881,0.009677
24.226,43.0717,0.009677
24.242,43.0551,0.009677
24.258,43.0387,0.009677
24.275,43.0210,0.009677
24.292,43.0048,0.009677
24.307,42.9894,0.009677
24.322,42.9751,0.009677
24.347,42.9511,0.009677
24.370,42.9291,0.009677
24.387,42.9137,0.009677
24.403,42.8991,0.009677
24.419,42.8847,0.009677
24.434,42.8707,0.009677
24.458,42.8498,0.010025
24.474,42.8355,0.010025
24.490,42.8224,0.010025
24.507,42.8081,0.010025
24.522,42.7950,0.010025
24.539,42.7820,0.010025
24.554,42.7697,0.010025
24.570,42.7573,0.010025
24.588,42.7431,0.010025
24.615,42.7225,0.010025
24.634,42.7083,0.010025
24.657,42.6915,0.010025
24.672,42.6806,0.010025
24.694,42.6658,0.010336
24.714,42.6518,0.010336
24.730,42.6411,0.010336
24.746,42.6306,0.010336
24.762,42.6203,0.010336
24.778,42.6101,0.010336
24.794,42.6003,0.010336
24.810,42.5905,0.010336
24.826,42.5810,0.010336
24.845,42.5699,0.010336
24.864,42.5586,0.010336
24.895,42.5420,0.010336
24.925,42.5258,0.010336
24.956,42.5106,0.010609
24.972,42.5028,0.010609
25.001,42.4891,0.010609
25.018,42.4814,0.010609
25.034,42.4743,0.010609
25.051,42.4674,0.010609
25.066,42.4609,0.010609
25.083,42.4541,0.010609
25.099,42.4479,0.010609
25.115,42.4418,0.010609
25.130,42.4362,0.010609
25.148,42.4299,0.010609
25.170,42.4223,0.010609
25.201,42.4123,0.010806
25.216,42.4080,0.010806
25.247,42.3991,0.010806
25.278,42.3910,0.010806
25.308,42.3839,0.010806
25.325,42.3802,0.010806
25.356,42.3738,0.010806
25.372,42.3710,0.010806
25.402,42.3659,0.010806
25.418,42.3636,0.010882
25.434,42.3614,0.010882
25.451,42.3593,0.010882
25.466,42.3576,0.010882
25.482,42.3560,0.010882
25.498,42.3545,0.010882
25.515,42.3533,0.010882
25.531,42.3523,0.010882
25.546,42.3514,0.010882
25.570,42.3505,0.010882
25.586,42.3502,0.010882
25.602,42.3500,0.010882
25.618,42.3500,0.010882
25.641,42.3500,0.010882
25.657,42.3500,0.010882
25.679,42.3500,0.010938
25.698,42.3500,0.010938
25.714,42.3500,0.010938
25.730,42.3500,0.010938
25.746,42.3500,0.010938
25.762,42.3500,0.010938
25.778,42.3500,0.010938
25.795,42.3500,0.010938
25.811,42.3500,0.010938
25.826,42.3500,0.010938
25.842,42.3500,0.010938
25.858,42.3500,0.010938
25.874,42.3500,0.010938
25.890,42.3500,0.010938
25.906,42.3500,0.011051
25.922,42.3500,0.011051
25.939,42.3500,0.011051
25.970,42.3500,0.011051
25.986,42.3500,0.011051
26.002,42.3500,0.011051
26.018,42.3500,0.011051
26.034,42.3500,0.011051
26.050,42.3500,0.011051
26.066,42.3500,0.011051
26.082,42.3500,0.011051
26.098,42.3500,0.011051
26.124,42.3500,0.011051
26.140,42.3500,0.011051
26.156,42.3500,0.011089
26.172,42.3500,0.011089
26.188,42.3500,0.011089
26.204,42.3500,0.011089
26.220,42.3500,0.011089
26.237,42.3500,0.011089
26.253,42.3500,0.011089
26.268,42.3500,0.011089
26.284,42.3500,0.011089
26.300,42.3500,0.011089
26.316,42.3500,0.011089
26.332,42.3503,0.011089
26.348,42.3508,0.011089
26.365,42.3514,0.011089
26.380,42.3521,0.011089
26.396,42.3531,0.011089
26.412,42.3544,0.011089
26.429,42.3559,0.011089
26.449,42.3580,0.011089
26.480,42.3616,0.011089
26.510,42.3660,0.011089
26.541,42.3711,0.011089
26.572,42.3769,0.011089
26.589,42.3805,0.011089
26.618,42.3872,0.011089
26.648,42.3946,0.011089
26.664,42.3989,0.011089
26.680,42.4032,0.011023
26.696,42.4080,0.011023
26.713,42.4130,0.011023
26.742,42.4223,0.011023
26.760,42.4283,0.011023
26.781,42.4359,0.011023
26.806,42.4450,0.011023
26.824,42.4520,0.011023
26.840,42.4586,0.011023
26.856,42.4651,0.011023
26.872,42.4717,0.011023
26.888,42.4785,0.011023
26.904,42.4860,0.011023
26.920,42.4930,0.011023
26.936,42.5005,0.010891
26.952,42.5085,0.010891
26.968,42.5164,0.010891
26.984,42.5243,0.010891
27.000,42.5326,0.010891
27.016,42.5414,0.010891
27.032,42.5498,0.010891
27.048,42.5588,0.010891
27.064,42.5678,0.010891
27.080,42.5779,0.010891
27.096,42.5865,0.010891
27.112,42.5966,0.010891
27.128,42.6064,0.010891
27.146,42.6182,0.010891
27.175,42.6369,0.010891
27.206,42.6574,0.010788
27.237,42.6786,0.010788
27.253,42.6900,0.010788
27.268,42.7014,0.010788
27.285,42.7137,0.010788
27.300,42.7252,0.010788
27.317,42.7376,0.010788
27.333,42.7499,0.010788
27.348,42.7622,0.010788
27.366,42.7757,0.010788
27.381,42.7878,0.010788
27.399,42.8032,0.010788
27.415,42.8159,0.010788
27.437,42.8352,0.010788
27.468,42.8620,0.010637
27.499,42.8899,0.010637
27.529,42.9169,0.010637
27.560,42.9467,0.010637
27.591,42.9759,0.010637
27.622,43.0066,0.010637
27.652,43.0374,0.010637
27.668,43.0535,0.010355
27.684,43.0700,0.010355
27.702,43.0901,0.010355
27.729,43.1174,0.010355
27.749,43.1386,0.010355
27.765,43.1568,0.010355
27.780,43.1740,0.010355
27.797,43.1922,0.010355
27.812,43.2098,0.010355
27.829,43.2291,0.010355
27.845,43.2476,0.010355
27.860,43.2655,0.010355
27.876,43.2843,0.010355
27.893,43.3043,0.010355
27.908,43.3229,0.010025
27.924,43.3423,0.010025
27.940,43.3629,0.010025
27.956,43.3819,0.010025
27.973,43.4027,0.010025
27.989,43.4236,0.010025
28.004,43.4429,0.010025
28.021,43.4640,0.010025
28.036,43.4846,0.010025
28.053,43.5066,0.010025
28.072,43.5325,0.010025
28.098,43.5665,0.010025
28.117,43.5921,0.010025
28.133,43.6145,0.010025
28.148,43.6358,0.010025
28.165,43.6597,0.009780
28.181,43.6827,0.009780
28.197,43.7044,0.009780
28.212,43.7274,0.009780
28.229,43.7509,0.009780
28.244,43.7731,0.009780
28.272,43.8138,0.009780
28.287,43.8370,0.009780
28.303,43.8609,0.009780
28.320,43.8863,0.009780
28.336,43.9114,0.009780
28.351,43.9347,0.009780
28.367,43.9599,0.009780
28.384,43.9854,0.009780
28.399,44.0097,0.009780
28.415,44.0351,0.009385
28.431,44.0613,0.009385
28.447,44.0869,0.009385
28.463,44.1129,0.009385
28.479,44.1394,0.009385
28.495,44.1659,0.009385
28.512,44.1929,0.009385
28.527,44.2187,0.009385
28.543,44.2456,0.009385
28.560,44.2740,0.009385
28.575,44.3004,0.009385
28.591,44.3282,0.009385
28.607,44.3559,0.009385
28.625,44.3876,0.009385
28.652,44.4349,0.008773
28.671,44.4689,0.008773
28.688,44.4984,0.008773
28.703,44.5264,0.008773
28.719,44.5559,0.008773
28.735,44.5847,0.008773
28.751,44.6152,0.008773
28.767,44.6443,0.008773
28.783,44.6742,0.008773
28.809,44.7231,0.008773
28.825,44.7537,0.008773
28.841,44.7839,0.008773
28.857,44.8149,0.008773
28.873,44.8458,0.008773
28.889,44.8785,0.008773
28.906,44.9101,0.008114
28.921,44.9409,0.008114
28.938,44.9736,0.008114
28.953,45.0036,0.008114
28.969,45.0359,0.008114
28.985,45.0681,0.008114
29.001,45.1011,0.008114
29.017,45.1339,0.008114
29.033,45.1666,0.008114
29.049,45.1996,0.008114
29.065,45.2348,0.008114
29.081,45.2667,0.008114
29.097,45.3010,0.008114
29.113,45.3340,0.008114
29.129,45.3688,0.008114
29.145,45.4029,0.008114
29.161,45.4364,0.007436
29.181,45.4788,0.007436
29.209,45.5369,0.007436
29.225,45.5692,0.007436
29.241,45.6029,0.007436
29.257,45.6344,0.007436
29.273,45.6662,0.007436
29.290,45.7011,0.007436
29.306,45.7315,0.007436
29.321,45.7620,0.007436
29.337,45.7937,0.007436
29.363,45.8445,0.007436
29.379,45.8756,0.007436
29.395,45.9069,0.007436
29.411,45.9372,0.007003
29.427,45.9684,0.007003
29.443,45.9982,0.007003
29.459,46.0281,0.007003
29.475,46.0576,0.007003
29.491,46.0872,0.007003
29.507,46.1171,0.007003
29.523,46.1465,0.007003
29.539,46.1757,0.007003
29.555,46.2058,0.007003
29.571,46.2331,0.007003
29.587,46.2615,0.007003
29.603,46.2905,0.007003
29.619,46.3195,0.007003
29.635,46.3459,0.007003
29.651,46.3737,0.006655
29.667,46.4016,0.006655
29.683,46.4294,0.006655
29.699,46.4569,0.006655
29.715,46.4827,0.006655
29.731,46.5106,0.006655
29.747,46.5361,0.006655
29.764,46.5647,0.006655
29.779,46.5900,0.006655
29.796,46.6172,0.006655
29.824,46.6625,0.006655
29.844,46.6935,0.006655
29.872,46.7372,0.006655
29.902,46.7846,0.006655
29.918,46.8093,0.006655
29.934,46.8332,0.006147
29.950,46.8574,0.006147
29.966,46.8815,0.006147
29.982,46.9055,0.006147
29.998,46.9281,0.006147
30.014,46.9516,0.006147
30.035,46.9848,0.006147
30.050,47.0045,0.006147
30.073,47.0364,0.006147
30.095,47.0670,0.006147
30.110,47.0881,0.006147
30.126,47.1102,0.006147
30.142,47.1320,0.006147
30.158,47.1543,0.006147
30.173,47.1744,0.006147
30.189,47.1959,0.005667
30.206,47.2172,0.005667
30.222,47.2388,0.005667
30.237,47.2584,0.005667
30.254,47.2790,0.005667
30.270,47.2992,0.005667
30.286,47.3199,0.005667
30.302,47.3392,0.005667
30.318,47.3592,0.005667
30.333,47.3783,0.005667
30.350,47.3978,0.005667
30.366,47.4173,0.005667
30.382,47.4362,0.005667
30.399,47.4563,0.005667
30.429,47.4918,0.005667
30.457,47.5222,0.005403
30.473,47.5403,0.005403
30.488,47.5572,0.005403
30.505,47.5749,0.005403
30.520,47.5925,0.005403
30.537,47.6095,0.005403
30.552,47.6257,0.005403
30.569,47.6432,0.005403
30.587,47.6618,0.005403
30.615,47.6901,0.005403
30.633,47.7076,0.005403
30.650,47.7242,0.005403
30.665,47.7385,0.005403
30.680,47.7536,0.005234
30.696,47.7686,0.005234
30.712,47.7840,0.005234
30.729,47.7988,0.005234
30.745,47.8130,0.005234
30.761,47.8275,0.005234
30.777,47.8423,0.005234
30.792,47.8552,0.005234
30.808,47.8688,0.005234
30.824,47.8826,0.005234
30.841,47.8966,0.005234
30.857,47.9096,0.005234
30.872,47.9219,0.005234
30.888,47.9347,0.005234
30.904,47.9473,0.005234
30.920,47.9599,0.004933
30.936,47.9720,0.004933
30.952,47.9840,0.004933
30.968,47.9957,0.004933
30.985,48.0079,0.004933
31.014,48.0282,0.004933
31.029,48.0390,0.004933
31.045,48.0498,0.004933
31.062,48.0613,0.004933
31.078,48.0719,0.004933
31.096,48.0836,0.004933
31.126,48.1016,0.004933
31.141,48.1110,0.004933
31.157,48.1205,0.004933
31.173,48.1299,0.004933
31.189,48.1390,0.004509
31.205,48.1479,0.004509
31.221,48.1571,0.004509
31.238,48.1659,0.004509
31.262,48.1781,0.004509
31.293,48.1936,0.004509
31.324,48.2082,0.004509
31.355,48.2222,0.004509
31.385,48.2351,0.004509
31.418,48.2482,0.004509
31.447,48.2594,0.003775
31.465,48.2661,0.003775
31.494,48.2762,0.003775
31.510,48.2815,0.003775
31.526,48.2869,0.003775
31.549,48.2934,0.003775
31.565,48.2981,0.003775
31.581,48.3024,0.003775
31.597,48.3066,0.003775
31.613,48.3106,0.003775
31.629,48.3144,0.003775
31.645,48.3180,0.003775
31.661,48.3214,0.002222
31.677,48.3247,0.002222
31.693,48.3277,0.002222
31.709,48.3307,0.002222
31.725,48.3333,0.002222
31.741,48.3358,0.002222
31.757,48.3379,0.002222
31.773,48.3400,0.002222
31.795,48.3427,0.002222
31.820,48.3450,0.002222
31.837,48.3463,0.002222
31.853,48.3476,0.002222
31.869,48.3484,0.002222
31.885,48.3490,0.002222
31.901,48.3495,0.000377
31.918,48.3499,0.000377
31.945,48.3500,0.000377
31.965,48.3500,0.000377
31.981,48.3500,0.000377
31.997,48.3500,0.000377
32.014,48.3500,0.000377
32.029,48.3500,0.000377
32.050,48.3500,0.000377
32.069,48.3500,0.000377
32.099,48.3500,0.000377
32.114,48.3500,0.000377
32.145,48.3500,0.000377
32.176,48.3500,0.000461
32.192,48.3500,0.000461
32.222,48.3500,0.000461
32.238,48.3500,0.000461
32.270,48.3500,0.000461
32.285,48.3500,0.000461
32.301,48.3500,0.000461
32.317,48.3500,0.000461
32.333,48.3500,0.000461
32.349,48.3500,0.000461
32.365,48.3500,0.000461
32.381,48.3500,0.000461
32.397,48.3500,0.000461
32.413,48.3500,0.000461
32.429,48.3500,0.001930
32.445,48.3500,0.001930
32.461,48.3500,0.001930
32.477,48.3500,0.001930
32.493,48.3500,0.001930
32.509,48.3500,0.001930
32.525,48.3500,0.001930
32.541,48.3500,0.001930
32.557,48.3500,0.001930
32.573,48.3500,0.001930
32.589,48.3500,0.001930
32.604,48.3500,0.001930
32.621,48.3500,0.001930
32.637,48.3500,0.001930
32.653,48.3500,0.001930
32.669,48.3500,0.002946
32.685,48.3500,0.002946
32.701,48.3500,0.002946
32.717,48.3500,0.002946
32.733,48.3500,0.002946
32.749,48.3500,0.002946
32.765,48.3500,0.002946
32.781,48.3500,0.002946
32.797,48.3500,0.002946
32.813,48.3500,0.002946
32.835,48.3500,0.002946
32.857,48.3500,0.002946
32.877,48.3500,0.002946
32.893,48.3500,0.002946
32.909,48.3500,0.002946
32.925,48.3500,0.003511
32.941,48.3500,0.003511
32.958,48.3500,0.003511
32.973,48.3500,0.003511
32.989,48.3500,0.003511
33.005,48.3500,0.003511
33.021,48.3500,0.003511
33.036,48.3500,0.003511
33.053,48.3500,0.003511
33.069,48.3500,0.003511
33.085,48.3500,0.003511
33.101,48.3500,0.003511
33.117,48.3500,0.003511
33.133,48.3500,0.003511
33.149,48.3500,0.003511
33.165,48.3500,0.003511
33.195,48.3500,0.003746
33.212,48.3500,0.003746
33.242,48.3500,0.003746
33.259,48.3500,0.003746
33.276,48.3500,0.003746
33.304,48.3500,0.003746
33.323,48.3500,0.003746
33.339,48.3500,0.003746
33.354,48.3500,0.003746
33.370,48.3500,0.003746
33.392,48.3500,0.003746
33.412,48.3500,0.003746
33.444,48.3500,0.003746
33.475,48.3500,0.003746
33.491,48.3500,0.003859
33.521,48.3500,0.003859
33.537,48.3500,0.003859
33.568,48.3500,0.003859
33.599,48.3500,0.003859
33.629,48.3500,0.003859
33.660,48.3500,0.004001
33.676,48.3500,0.004001
33.691,48.3500,0.004001
33.707,48.3500,0.004001
33.722,48.3500,0.004001
33.753,48.3500,0.004001
33.771,48.3500,0.004001
33.799,48.3500,0.004001
33.817,48.3500,0.004001
33.833,48.3500,0.004001
33.848,48.3500,0.004001
33.864,48.3500,0.004001
33.880,48.3500,0.004001
33.897,48.3500,0.004001
33.913,48.3500,0.004076
33.928,48.3500,0.004076
33.944,48.3500,0.004076
33.960,48.3500,0.004076
33.976,48.3500,0.004076
33.992,48.3500,0.004076
34.009,48.3500,0.004076
34.024,48.3500,0.004076
34.040,48.3500,0.004076
34.056,48.3500,0.004076
34.072,48.3500,0.004076
34.089,48.3500,0.004076
34.104,48.3500,0.004076
34.120,48.3500,0.004076
34.136,48.3500,0.004076
34.152,48.3500,0.004057
34.168,48.3500,0.004057
34.185,48.3500,0.004057
34.200,48.3500,0.004057
34.217,48.3500,0.004057
34.232,48.3500,0.004057
34.248,48.3500,0.004057
34.264,48.3500,0.004057
34.281,48.3500,0.004057
34.307,48.3500,0.004057
34.329,48.3500,0.004057
34.353,48.3500,0.004057
34.370,48.3500,0.004057
34.387,48.3500,0.004057
34.402,48.3500,0.004057
34.418,48.3500,0.004104
34.437,48.3500,0.004104
34.461,48.3500,0.004104
34.482,48.3500,0.004104
34.498,48.3500,0.004104
34.514,48.3500,0.004104
34.531,48.3500,0.004104
34.546,48.3500,0.004104
34.564,48.3500,0.004104
34.581,48.3500,0.004104
34.600,48.3500,0.004104
34.631,48.3500,0.004104
34.661,48.3500,0.004217
34.692,48.3500,0.004217
34.708,48.3500,0.004217
34.724,48.3500,0.004217
34.739,48.3500,0.004217
34.754,48.3500,0.004217
34.770,48.3500,0.004217
34.786,48.3500,0.004217
34.802,48.3500,0.004217
34.818,48.3500,0.004217
34.834,48.3500,0.004217
34.862,48.3500,0.004217
34.878,48.3500,0.004217
34.894,48.3500,0.004217
34.910,48.3500,0.004236
34.926,48.3500,0.004236
34.943,48.3500,0.004236
34.958,48.3500,0.004236
34.976,48.3500,0.004236
35.002,48.3500,0.004236
35.022,48.3500,0.004236
35.038,48.3500,0.004236
35.055,48.3500,0.004236
35.079,48.3500,0.004236
35.110,48.3500,0.004236
35.126,48.3500,0.004236
35.157,48.3500,0.004236
35.189,48.3500,0.004236
35.219,48.3500,0.004255
35.242,48.3500,0.004255
35.262,48.3500,0.004255
35.278,48.3500,0.004255
35.295,48.3500,0.004255
35.310,48.3500,0.004255
35.326,48.3500,0.004255
35.342,48.3500,0.004255
35.359,48.3500,0.004255
35.374,48.3500,0.004255
35.390,48.3500,0.004255
35.406,48.3500,0.004255
35.423,48.3500,0.004255
35.450,48.3500,0.004245
35.470,48.3500,0.004245
35.486,48.3500,0.004245
35.502,48.3500,0.004245
35.518,48.3500,0.004245
35.534,48.3500,0.004245
35.550,48.3500,0.004245
35.566,48.3500,0.004245
35.582,48.3500,0.004245
35.598,48.3500,0.004245
35.614,48.3500,0.004245
35.630,48.3500,0.004245
35.646,48.3500,0.004245
35.663,48.3500,0.004245
35.682,48.3500,0.004208
35.712,48.3500,0.004208
35.728,48.3500,0.004208
35.744,48.3500,0.004208
35.775,48.3500,0.004208
35.790,48.3500,0.004208
35.806,48.3500,0.004208
35.822,48.3500,0.004208
35.839,48.3500,0.004208
35.868,48.3500,0.004208
35.886,48.3500,0.004208
35.903,48.3500,0.004208
35.931,48.3500,0.004208
35.950,48.3500,0.004161
35.967,48.3500,0.004161
35.992,48.3500,0.004161
36.015,48.3500,0.004161
36.039,48.3500,0.004161
36.055,48.3500,0.004161
36.086,48.3500,0.004161
36.101,48.3500,0.004161
36.117,48.3500,0.004161
36.148,48.3500,0.004161
36.164,48.3500,0.003944
36.179,48.3500,0.003944
36.210,48.3500,0.003944
36.241,48.3500,0.003944
36.272,48.3500,0.003944
36.302,48.3500,0.003944
36.320,48.3500,0.003944
36.349,48.3500,0.003944
36.365,48.3500,0.003944
36.383,48.3499,0.003944
36.410,48.3494,0.003699
36.429,48.3487,0.003699
36.451,48.3474,0.003699
36.476,48.3457,0.003699
36.497,48.3438,0.003699
36.519,48.3415,0.003699
36.539,48.3391,0.003699
36.555,48.3370,0.003699
36.571,48.3347,0.003699
36.586,48.3322,0.003699
36.602,48.3293,0.003699
36.618,48.3266,0.003699
36.635,48.3233,0.003699
36.650,48.3202,0.003699
36.667,48.3164,0.003699
36.683,48.3130,0.003699
36.698,48.3091,0.003972
36.715,48.3049,0.003972
36.731,48.3004,0.003972
36.746,48.2962,0.003972
36.762,48.2916,0.003972
36.778,48.2867,0.003972
36.794,48.2816,0.003972
36.811,48.2764,0.003972
36.826,48.2710,0.003972
36.842,48.2653,0.003972
36.858,48.2593,0.003972
36.875,48.2534,0.003972
36.890,48.2472,0.003972
36.907,48.2405,0.003972
36.922,48.2343,0.003972
36.938,48.2275,0.013169
36.954,48.2206,0.013169
36.971,48.2127,0.013169
36.987,48.2056,0.013169
37.002,48.1985,0.013169
37.029,48.1851,0.013169
37.046,48.1765,0.013169
37.061,48.1690,0.013169
37.077,48.1602,0.013169
37.094,48.1514,0.013169
37.110,48.1424,0.013169
37.125,48.1337,0.013169
37.142,48.1241,0.013169
37.157,48.1145,0.013169
37.173,48.1056,0.013169
37.190,48.0952,0.018826
37.205,48.0856,0.018826
37.224,48.0731,0.018826
37.247,48.0583,0.018826
37.278,48.0373,0.018826
37.309,48.0158,0.018826
37.340,47.9931,0.018826
37.371,47.9704,0.018826
37.401,47.9472,0.018826
37.432,47.9225,0.010562
37.448,47.9098,0.010562
37.479,47.8830,0.010562
37.510,47.8577,0.010562
37.527,47.8428,0.010562
37.556,47.8165,0.010562
37.585,47.7902,0.010562
37.602,47.7753,0.010562
37.617,47.7606,0.010562
37.634,47.7447,0.010562
37.652,47.7260,0.010562
37.670,47.7098,0.010562
37.696,47.6840,0.010562
37.713,47.6667,0.005328
37.729,47.6504,0.005328
37.745,47.6333,0.005328
37.761,47.6167,0.005328
37.779,47.5981,0.005328
37.805,47.5692,0.005328
37.825,47.5481,0.005328
37.841,47.5304,0.005328
37.857,47.5116,0.005328
37.874,47.4929,0.005328
37.898,47.4660,0.005328
37.913,47.4475,0.005328
37.944,47.4116,0.005243
37.959,47.3931,0.005243
37.975,47.3736,0.005243
38.006,47.3366,0.005243
38.021,47.3168,0.005243
38.040,47.2930,0.005243
38.057,47.2720,0.005243
38.084,47.2377,0.005243
38.099,47.2175,0.005243
38.115,47.1966,0.005243
38.145,47.1564,0.005243
38.162,47.1340,0.005243
38.177,47.1135,0.005243
38.193,47.0915,0.005394
38.209,47.0689,0.005394
38.225,47.0463,0.005394
38.241,47.0244,0.005394
38.257,47.0015,0.005394
38.273,46.9767,0.005394
38.289,46.9549,0.005394
38.305,46.9315,0.005394
38.321,46.9079,0.005394
38.337,46.8845,0.005394
38.353,46.8609,0.005394
38.369,46.8367,0.005394
38.385,46.8120,0.005394
38.402,46.7862,0.005394
38.423,46.7534,0.005394
38.456,46.7024,0.005601
38.485,46.6551,0.005601
38.516,46.6042,0.005601
38.533,46.5784,0.005601
38.564,46.5269,0.005601
38.580,46.4989,0.005601
38.611,46.4473,0.005601
38.640,46.3983,0.005601
38.656,46.3703,0.005601
38.672,46.3437,0.005921
38.688,46.3147,0.005921
38.704,46.2870,0.005921
38.720,46.2586,0.005921
38.736,46.2294,0.005921
38.752,46.2002,0.005921
38.768,46.1713,0.005921
38.784,46.1437,0.005921
38.800,46.1139,0.005921
38.817,46.0823,0.005921
38.837,46.0446,0.005921
38.860,45.9997,0.005921
38.880,45.9647,0.005921
38.897,45.9326,0.005921
38.912,45.9021,0.005921
38.928,45.8711,0.006354
38.944,45.8417,0.006354
38.960,45.8100,0.006354
38.976,45.7782,0.006354
38.992,45.7475,0.006354
39.008,45.7144,0.006354
39.024,45.6818,0.006354
39.040,45.6509,0.006354
39.056,45.6184,0.006354
39.072,45.5858,0.006354
39.089,45.5507,0.006354
39.107,45.5121,0.006354
39.138,45.4469,0.006354
39.154,45.4140,0.006354
39.185,45.3498,0.006354
39.200,45.3169,0.006778
39.217,45.2822,0.006778
39.232,45.2492,0.006778
39.248,45.2155,0.006778
39.264,45.1806,0.006778
39.280,45.1486,0.006778
39.296,45.1161,0.006778
39.312,45.0835,0.006778
39.329,45.0472,0.006778
39.356,44.9937,0.006778
39.376,44.9529,0.006778
39.392,44.9204,0.006778
39.408,44.8885,0.006778
39.424,44.8570,0.007211
39.440,44.8272,0.007211
39.457,44.7929,0.007211
39.481,44.7470,0.007211
39.496,44.7169,0.007211
39.530,44.6528,0.007211
39.557,44.6025,0.007211
39.587,44.5464,0.007211
39.602,44.5188,0.007211
39.618,44.4894,0.007211
39.634,44.4604,0.007211
39.663,44.4085,0.007681
39.680,44.3791,0.007681
39.695,44.3512,0.007681
39.712,44.3225,0.007681
39.727,44.2950,0.007681
39.755,44.2485,0.007681
39.771,44.2197,0.007681
39.787,44.1934,0.007681
39.803,44.1669,0.007681
39.819,44.1396,0.007681
39.834,44.1135,0.007681
39.850,44.0874,0.007681
39.868,44.0587,0.007681
39.888,44.0255,0.007681
39.912,43.9875,0.007681
39.930,43.9582,0.007681
39.946,43.9331,0.008293
39.962,43.9080,0.008293
39.978,43.8831,0.008293
39.994,43.8582,0.008293
40.011,43.8332,0.008293
40.026,43.8098,0.008293
40.042,43.7856,0.008293
40.059,43.7609,0.008293
40.075,43.7369,0.008293
40.090,43.7144,0.008293
40.106,43.6912,0.008293
40.123,43.6663,0.008293
40.138,43.6447,0.008293
40.154,43.6218,0.008943
40.171,43.5992,0.008943
40.187,43.5761,0.008943
40.203,43.5543,0.008943
40.218,43.5333,0.008943
40.234,43.5116,0.008943
40.251,43.4883,0.008943
40.281,43.4494,0.008943
40.311,43.4094,0.008943
40.328,43.3881,0.008943
40.343,43.3686,0.008943
40.360,43.3478,0.008943
40.375,43.3282,0.008943
40.392,43.3072,0.008943
40.408,43.2879,0.009489
40.423,43.2692,0.009489
40.441,43.2481,0.009489
40.465,43.2192,0.009489
40.496,43.1832,0.009489
40.526,43.1484,0.009489
40.557,43.1145,0.009489
40.572,43.0974,0.009489
40.587,43.0805,0.009489
40.603,43.0624,0.009489
40.634,43.0302,0.009489
40.665,42.9986,0.009884
40.682,42.9814,0.009884
40.711,42.9520,0.009884
40.727,42.9355,0.009884
40.744,42.9193,0.009884
40.761,42.9034,0.009884
40.789,42.8768,0.009884
40.808,42.8593,0.009884
40.824,42.8449,0.009884
40.840,42.8306,0.009884
40.865,42.8077,0.009884
40.882,42.7935,0.009884
40.898,42.7797,0.010185
40.913,42.7666,0.010185
40.929,42.7529,0.010185
40.946,42.7397,0.010185
40.961,42.7271,0.010185
40.977,42.7145,0.010185
40.993,42.7016,0.010185
41.009,42.6892,0.010185
41.025,42.6775,0.010185
41.041,42.6652,0.010185
41.059,42.6525,0.010185
41.085,42.6333,0.010185
41.105,42.6194,0.010185
41.123,42.6071,0.010185
41.147,42.5904,0.010505
41.169,42.5764,0.010505
41.185,42.5660,0.010505
41.201,42.5562,0.010505
41.217,42.5464,0.010505
41.233,42.5366,0.010505
41.249,42.5268,0.010505
41.265,42.5175,0.010505
41.281,42.5088,0.010505
41.298,42.4992,0.010505
41.319,42.4882,0.010505
41.347,42.4731,0.010505
41.363,42.4648,0.010505
41.378,42.4577,0.010505
41.394,42.4497,0.010505
41.423,42.4364,0.010722
41.439,42.4293,0.010722
41.455,42.4223,0.010722
41.471,42.4156,0.010722
41.488,42.4087,0.010722
41.504,42.4024,0.010722
41.519,42.3964,0.010722
41.536,42.3900,0.010722
41.551,42.3845,0.010722
41.567,42.3791,0.010722
41.583,42.3734,0.010722
41.599,42.3683,0.010722
41.619,42.3619,0.010722
41.634,42.3572,0.010722
41.655,42.3514,0.010722
41.686,42.3431,0.010882
41.716,42.3358,0.010882
41.732,42.3322,0.010882
41.763,42.3256,0.010882
41.794,42.3199,0.010882
41.810,42.3174,0.010882
41.840,42.3127,0.010882
41.855,42.3107,0.010882
41.871,42.3089,0.010882
41.887,42.3071,0.010882
41.903,42.3055,0.011032
41.919,42.3041,0.011032
41.935,42.3030,0.011032
41.951,42.3020,0.011032
41.975,42.3009,0.011032
41.991,42.3004,0.011032
42.007,42.3002,0.011032
42.022,42.3001,0.011032
42.039,42.3001,0.011032
42.055,42.3001,0.011032
42.071,42.3001,0.011032
42.087,42.3001,0.011032
42.105,42.3001,0.011032
42.133,42.3001,0.011032
42.151,42.3001,0.011108
42.167,42.3001,0.011108
42.183,42.3001,0.011108
42.199,42.3001,0.011108
42.215,42.3001,0.011108
42.234,42.3001,0.011108
42.258,42.3001,0.011108
42.279,42.3001,0.011108
42.295,42.3001,0.011108
42.311,42.3001,0.011108
42.327,42.3001,0.011108
42.343,42.3001,0.011108
42.359,42.3001,0.011108
42.375,42.3001,0.011108
42.391,42.3001,0.011108
42.407,42.3001,0.011183
42.423,42.3001,0.011183
42.439,42.3001,0.011183
42.454,42.3001,0.011183
42.471,42.3001,0.011183
42.498,42.3001,0.011183
42.513,42.3001,0.011183
42.529,42.3001,0.011183
42.546,42.3001,0.011183
42.562,42.3001,0.011183
42.577,42.3001,0.011183
42.594,42.3001,0.011183
42.610,42.3001,0.011183
42.626,42.3001,0.011183
42.642,42.3001,0.011183
42.658,42.3001,0.011183
42.673,42.3001,0.011183
42.689,42.3001,0.011211
42.705,42.3001,0.011211
42.722,42.3001,0.011211
42.738,42.3001,0.011211
42.754,42.3001,0.011211
42.769,42.3001,0.011211
42.789,42.3002,0.011211
42.816,42.3008,0.011211
42.834,42.3014,0.011211
42.849,42.3023,0.011211
42.865,42.3033,0.011211
42.881,42.3045,0.011211
42.898,42.3060,0.011211
42.914,42.3076,0.011211
42.929,42.3094,0.011211
42.945,42.3113,0.011164
42.961,42.3134,0.011164
42.978,42.3161,0.011164
42.993,42.3184,0.011164
43.009,42.3211,0.011164
43.033,42.3257,0.011164
43.050,42.3291,0.011164
43.066,42.3324,0.011164
43.082,42.3361,0.011164
43.098,42.3401,0.011164
43.113,42.3438,0.011164
43.130,42.3483,0.011164
43.145,42.3525,0.011164
43.164,42.3580,0.011164
43.186,42.3648,0.011164
43.217,42.3748,0.011070
43.233,42.3803,0.011070
43.264,42.3917,0.011070
43.280,42.3974,0.011070
43.295,42.4035,0.011070
43.327,42.4165,0.011070
43.357,42.4297,0.011070
43.373,42.4365,0.011070
43.389,42.4440,0.011070
43.420,42.4586,0.011070
43.436,42.4664,0.010985
43.466,42.4824,0.010985
43.482,42.4902,0.010985
43.497,42.4987,0.010985
43.514,42.5079,0.010985
43.532,42.5187,0.010985
43.558,42.5335,0.010985
43.577,42.5448,0.010985
43.593,42.5549,0.010985
43.610,42.5648,0.010985
43.626,42.5753,0.010985
43.641,42.5856,0.010985
43.659,42.5970,0.010985
43.683,42.6135,0.010985
43.714,42.6354,0.010863
43.745,42.6575,0.010863
43.760,42.6688,0.010863
43.792,42.6933,0.010863
43.822,42.7164,0.010863
43.839,42.7303,0.010863
43.868,42.7541,0.010863
43.902,42.7829,0.010863
43.929,42.8064,0.010863
43.945,42.8198,0.010656
43.961,42.8346,0.010656
43.977,42.8490,0.010656
43.993,42.8635,0.010656
44.009,42.8785,0.010656
44.025,42.8938,0.010656
44.041,42.9086,0.010656
44.057,42.9241,0.010656
44.074,42.9404,0.010656
44.091,42.9591,0.010656
44.114,42.9807,0.010656
44.130,42.9974,0.010656
44.146,43.0136,0.010656
44.168,43.0366,0.010656
44.191,43.0611,0.010411
44.211,43.0826,0.010411
44.238,43.1127,0.010411
44.258,43.1351,0.010411
44.274,43.1531,0.010411
44.290,43.1711,0.010411
44.306,43.1899,0.010411
44.322,43.2082,0.010411
44.338,43.2277,0.010411
44.354,43.2467,0.010411
44.370,43.2655,0.010411
44.386,43.2847,0.010411
44.402,43.3054,0.010411
44.419,43.3255,0.010411
44.440,43.3515,0.010110
44.455,43.3715,0.010110
44.471,43.3925,0.010110
44.487,43.4114,0.010110
44.502,43.4318,0.010110
44.533,43.4733,0.010110
44.548,43.4930,0.010110
44.564,43.5139,0.010110
44.595,43.5564,0.010110
44.610,43.5781,0.010110
44.626,43.5993,0.010110
44.648,43.6319,0.010110
44.664,43.6543,0.010110
44.680,43.6771,0.009696
44.696,43.6998,0.009696
44.712,43.7238,0.009696
44.728,43.7463,0.009696
44.744,43.7701,0.009696
44.760,43.7942,0.009696
44.776,43.8185,0.009696
44.792,43.8424,0.009696
44.808,43.8677,0.009696
44.824,43.8926,0.009696
44.840,43.9172,0.009696
44.857,43.9434,0.009696
44.872,43.9672,0.009696
44.890,43.9960,0.009696
44.918,44.0427,0.009253
44.936,44.0711,0.009253
44.952,44.0988,0.009253
44.968,44.1237,0.009253
44.984,44.1497,0.009253
45.000,44.1768,0.009253
45.018,44.2098,0.009253
45.042,44.2492,0.009253
45.064,44.2862,0.009253
45.083,44.3189,0.009253
45.104,44.3565,0.009253
45.134,44.4098,0.009253
45.149,44.4383,0.009253
45.180,44.4924,0.009253
45.201,44.5309,0.008735
45.217,44.5611,0.008735
45.233,44.5897,0.008735
45.249,44.6205,0.008735
45.265,44.6515,0.008735
45.281,44.6814,0.008735
45.297,44.7112,0.008735
45.313,44.7412,0.008735
45.329,44.7738,0.008735
45.345,44.8031,0.008735
45.361,44.8350,0.008735
45.376,44.8659,0.008735
45.393,44.8986,0.008735
45.409,44.9295,0.008095
45.425,44.9633,0.008095
45.441,44.9937,0.008095
45.457,45.0273,0.008095
45.472,45.0583,0.008095
45.489,45.0919,0.008095
45.505,45.1264,0.008095
45.521,45.1592,0.008095
45.536,45.1907,0.008095
45.552,45.2243,0.008095
45.570,45.2619,0.008095
45.585,45.2935,0.008095
45.610,45.3466,0.008095
45.627,45.3809,0.008095
45.642,45.4150,0.008095
45.665,45.4610,0.007436
45.681,45.4942,0.007436
45.696,45.5266,0.007436
45.713,45.5595,0.007436
45.728,45.5911,0.007436
45.752,45.6395,0.007436
45.767,45.6698,0.007436
45.784,45.7024,0.007436
45.800,45.7350,0.007436
45.816,45.7653,0.007436
45.831,45.7958,0.007436
45.848,45.8275,0.007436
45.864,45.8597,0.007436
45.879,45.8883,0.007436
45.896,45.9199,0.007436
45.912,45.9497,0.007003
45.927,45.9790,0.007003
45.944,46.0103,0.007003
45.959,46.0386,0.007003
45.975,46.0681,0.007003
45.991,46.0980,0.007003
46.007,46.1270,0.007003
46.023,46.1554,0.007003
46.040,46.1850,0.007003
46.056,46.2135,0.007003
46.071,46.2416,0.007003
46.087,46.2694,0.007003
46.104,46.2982,0.007003
46.119,46.3251,0.007003
46.136,46.3541,0.007003
46.152,46.3809,0.006617
46.167,46.4086,0.006617
46.184,46.4361,0.006617
46.199,46.4610,0.006617
46.215,46.4875,0.006617
46.231,46.5139,0.006617
46.248,46.5415,0.006617
46.263,46.5667,0.006617
46.280,46.5923,0.006617
46.308,46.6381,0.006617
46.324,46.6638,0.006617
46.341,46.6890,0.006617
46.357,46.7142,0.006617
46.373,46.7393,0.006617
46.389,46.7642,0.006617
46.405,46.7875,0.006081
46.420,46.8110,0.006081
46.437,46.8360,0.006081
46.453,46.8597,0.006081
46.469,46.8832,0.006081
46.484,46.9058,0.006081
46.501,46.9297,0.006081
46.517,46.9524,0.006081
46.532,46.9742,0.006081
46.548,46.9969,0.006081
46.565,47.0200,0.006081
46.580,47.0415,0.006081
46.596,47.0633,0.006081
46.612,47.0862,0.006081
46.629,47.1075,0.006081
46.645,47.1292,0.006081
46.660,47.1494,0.005686
46.676,47.1705,0.005686
46.692,47.1914,0.005686
46.709,47.2126,0.005686
46.724,47.2333,0.005686
46.749,47.2638,0.005686
46.773,47.2931,0.005686
46.789,47.3127,0.005686
46.805,47.3322,0.005686
46.829,47.3629,0.005686
46.846,47.3818,0.005686
46.864,47.4027,0.005686
46.894,47.4382,0.005686
46.925,47.4721,0.005413
46.941,47.4909,0.005413
46.957,47.5083,0.005413
46.973,47.5254,0.005413
46.989,47.5430,0.005413
47.005,47.5598,0.005413
47.021,47.5766,0.005413
47.037,47.5931,0.005413
47.056,47.6132,0.005413
47.072,47.6286,0.005413
47.095,47.6515,0.005413
47.126,47.6824,0.005413
47.157,47.7118,0.005158
47.187,47.7398,0.005158
47.203,47.7544,0.005158
47.234,47.7826,0.005158
47.265,47.8093,0.005158
47.281,47.8238,0.005158
47.311,47.8484,0.005158
47.327,47.8615,0.005158
47.359,47.8871,0.005158
47.389,47.9103,0.005158
47.405,47.9225,0.004838
47.421,47.9349,0.004838
47.437,47.9468,0.004838
47.453,47.9579,0.004838
47.469,47.9695,0.004838
47.485,47.9808,0.004838
47.501,47.9917,0.004838
47.517,48.0025,0.004838
47.533,48.0136,0.004838
47.549,48.0237,0.004838
47.566,48.0344,0.004838
47.581,48.0440,0.004838
47.597,48.0539,0.004838
47.613,48.0635,0.004838
47.629,48.0727,0.004838
47.645,48.0822,0.004838
47.661,48.0913,0.004838
47.677,48.1003,0.004443
47.693,48.1088,0.004443
47.709,48.1176,0.004443
47.725,48.1259,0.004443
47.741,48.1337,0.004443
47.757,48.1416,0.004443
47.780,48.1536,0.004443
47.802,48.1634,0.004443
47.821,48.1714,0.004443
47.837,48.1784,0.004443
47.853,48.1855,0.004443
47.869,48.1917,0.004443
47.898,48.2032,0.004443
47.914,48.2094,0.004443
47.930,48.2151,0.003718
47.946,48.2208,0.003718
47.962,48.2263,0.003718
47.978,48.2315,0.003718
47.994,48.2367,0.003718
48.010,48.2416,0.003718
48.026,48.2461,0.003718
48.042,48.2505,0.003718
48.058,48.2547,0.003718
48.074,48.2589,0.003718
48.090,48.2629,0.003718
48.106,48.2664,0.003718
48.122,48.2699,0.003718
48.138,48.2735,0.003718
48.154,48.2764,0.003718
48.169,48.2793,0.001967
48.186,48.2821,0.001967
48.202,48.2847,0.001967
48.218,48.2870,0.001967
48.234,48.2891,0.001967
48.250,48.2910,0.001967
48.266,48.2930,0.001967
48.282,48.2945,0.001967
48.298,48.2958,0.001967
48.314,48.2970,0.001967
48.330,48.2980,0.001967
48.346,48.2988,0.001967
48.362,48.2994,0.001967
48.378,48.2998,0.001967
48.399,48.3001,0.001967
48.423,48.3001,0.001967
48.440,48.3001,0.001967
48.467,48.3001,0.000132
48.486,48.3001,0.000132
48.502,48.3001,0.000132
48.517,48.3001,0.000132
48.534,48.3001,0.000132
48.550,48.3001,0.000132
48.565,48.3001,0.000132
48.582,48.3001,0.000132
48.598,48.3001,0.000132
48.614,48.3001,0.000132
48.629,48.3001,0.000132
48.645,48.3001,0.000132
48.664,48.3001,0.000132
48.685,48.3001,0.000132
48.716,48.3001,0.000489
48.732,48.3001,0.000489
48.762,48.3001,0.000489
48.778,48.3001,0.000489
48.794,48.3001,0.000489
48.824,48.3001,0.000489
48.855,48.3001,0.000489
48.870,48.3001,0.000489
48.886,48.3001,0.000489
48.901,48.3001,0.000489
48.917,48.3001,0.000489
48.933,48.3001,0.000489
48.963,48.3001,0.002174
48.979,48.3001,0.002174
48.994,48.3001,0.002174
49.010,48.3001,0.002174
49.027,48.3001,0.002174
49.042,48.3001,0.002174
49.059,48.3001,0.002174
49.074,48.3001,0.002174
49.091,48.3001,0.002174
49.107,48.3001,0.002174
49.122,48.3001,0.002174
49.139,48.3001,0.002174
49.155,48.3001,0.002174
49.170,48.3001,0.002174
49.186,48.3001,0.003116
49.202,48.3001,0.003116
49.219,48.3001,0.003116
49.234,48.3001,0.003116
49.250,48.3001,0.003116
49.267,48.3001,0.003116
49.291,48.3001,0.003116
49.317,48.3001,0.003116
49.347,48.3001,0.003116
49.362,48.3001,0.003116
49.378,48.3001,0.003116
49.394,48.3001,0.003116
49.410,48.3001,0.003116
49.426,48.3001,0.003530
49.442,48.3001,0.003530
49.458,48.3001,0.003530
49.474,48.3001,0.003530
49.491,48.3001,0.003530
49.515,48.3001,0.003530
49.531,48.3001,0.003530
49.547,48.3001,0.003530
49.563,48.3001,0.003530
49.580,48.3001,0.003530
49.595,48.3001,0.003530
49.611,48.3001,0.003530
49.627,48.3001,0.003530
49.647,48.3001,0.003530
49.670,48.3001,0.003775
49.691,48.3001,0.003775
49.707,48.3001,0.003775
49.724,48.3001,0.003775
49.741,48.3001,0.003775
49.762,48.3001,0.003775
49.793,48.3001,0.003775
49.824,48.3001,0.003775
49.844,48.3001,0.003775
49.869,48.3001,0.003775
49.900,48.3001,0.003775
49.931,48.3001,0.003954
49.947,48.3001,0.003954
49.964,48.3001,0.003954
49.979,48.3001,0.003954
49.995,48.3001,0.003954
50.012,48.3001,0.003954
50.040,48.3001,0.003954
50.059,48.3001,0.003954
50.075,48.3001,0.003954
50.091,48.3001,0.003954
50.107,48.3001,0.003954
50.123,48.3001,0.003954
50.139,48.3001,0.003954
50.155,48.3001,0.004076
50.171,48.3001,0.004076
50.188,48.3001,0.004076
50.203,48.3001,0.004076
50.219,48.3001,0.004076
50.235,48.3001,0.004076
50.251,48.3001,0.004076
50.267,48.3001,0.004076
50.283,48.3001,0.004076
50.299,48.3001,0.004076
50.315,48.3001,0.004076
50.331,48.3001,0.004076
50.347,48.3001,0.004076
50.363,48.3001,0.004076
50.379,48.3001,0.004076
50.395,48.3001,0.004076
50.411,48.3001,0.004142
50.427,48.3001,0.004142
50.443,48.3001,0.004142
50.459,48.3001,0.004142
50.475,48.3001,0.004142
50.491,48.3001,0.004142
50.507,48.3001,0.004142
50.523,48.3001,0.004142
50.539,48.3001,0.004142
50.556,48.3001,0.004142
50.580,48.3001,0.004142
50.595,48.3001,0.004142
50.616,48.3001,0.004142
50.632,48.3001,0.004142
50.648,48.3001,0.004151
50.664,48.3001,0.004151
50.680,48.3001,0.004151
50.696,48.3001,0.004151
50.712,48.3001,0.004151
50.728,48.3001,0.004151
50.744,48.3001,0.004151
50.760,48.3001,0.004151
50.776,48.3001,0.004151
50.792,48.3001,0.004151
50.808,48.3001,0.004151
50.824,48.3001,0.004151
50.840,48.3001,0.004151
50.856,48.3001,0.004151
50.872,48.3001,0.004151
50.888,48.3001,0.004151
50.904,48.3001,0.004179
50.920,48.3001,0.004179
50.936,48.3001,0.004179
50.951,48.3001,0.004179
50.968,48.3001,0.004179
50.984,48.3001,0.004179
51.000,48.3001,0.004179
51.016,48.3001,0.004179
51.033,48.3001,0.004179
51.048,48.3001,0.004179
51.064,48.3001,0.004179
51.080,48.3001,0.004179
51.097,48.3001,0.004179
51.122,48.3001,0.004179
51.145,48.3001,0.004179
51.167,48.3001,0.004179
51.184,48.3001,0.004179
51.200,48.3001,0.004255
51.231,48.3001,0.004255
51.246,48.3001,0.004255
51.277,48.3001,0.004255
51.307,48.3001,0.004255
51.338,48.3001,0.004255
51.368,48.3001,0.004255
51.386,48.3001,0.004255
51.414,48.3001,0.004274
51.432,48.3001,0.004274
51.449,48.3001,0.004274
51.464,48.3001,0.004274
51.480,48.3001,0.004274
51.496,48.3001,0.004274
51.512,48.3001,0.004274
51.528,48.3001,0.004274
51.544,48.3001,0.004274
51.560,48.3001,0.004274
51.576,48.3001,0.004274
51.592,48.3001,0.004274
51.607,48.3001,0.004274
51.623,48.3001,0.004274
51.641,48.3001,0.004274
51.661,48.3001,0.004274
51.678,48.3001,0.004274
51.702,48.3001,0.004292
51.720,48.3001,0.004292
51.737,48.3001,0.004292
51.754,48.3001,0.004292
51.786,48.3001,0.004292
51.816,48.3001,0.004292
51.832,48.3001,0.004292
51.863,48.3001,0.004292
51.878,48.3001,0.004292
51.894,48.3001,0.004292
51.924,48.3001,0.004330
51.942,48.3001,0.004330
51.958,48.3001,0.004330
51.973,48.3001,0.004330
51.989,48.3001,0.004330
52.007,48.3001,0.004330
52.022,48.3001,0.004330
52.037,48.3001,0.004330
52.054,48.3001,0.004330
52.079,48.3001,0.004330
52.094,48.3001,0.004330
52.110,48.3001,0.004330
52.142,48.3001,0.004330
52.173,48.3001,0.004330
52.188,48.3001,0.004330
52.220,48.3001,0.004330
52.236,48.3001,0.004330
52.267,48.3001,0.004330
52.298,48.3001,0.004330
52.329,48.3001,0.004330
52.360,48.3001,0.004330
52.391,48.3001,0.004330
52.407,48.3001,0.004330
52.423,48.3001,0.004142
52.438,48.3001,0.004142
52.453,48.3001,0.004142
52.470,48.3001,0.004142
52.485,48.3001,0.004142
52.501,48.3001,0.004142
52.521,48.3001,0.004142
52.546,48.3001,0.004142
52.566,48.3001,0.004142
52.582,48.3001,0.004142
52.607,48.3001,0.004142
52.637,48.3001,0.004142
52.652,48.3001,0.004142
52.683,48.3001,0.003831
52.713,48.3001,0.003831
52.729,48.3001,0.003831
52.759,48.3001,0.003831
52.775,48.3001,0.003831
52.805,48.3001,0.003831
52.822,48.2999,0.003831
52.838,48.2997,0.003831
52.867,48.2986,0.003831
52.886,48.2976,0.003831
52.913,48.2956,0.003615
52.933,48.2937,0.003615
52.950,48.2920,0.003615
52.965,48.2903,0.003615
52.982,48.2882,0.003615
52.997,48.2860,0.003615
53.013,48.2836,0.003615
53.030,48.2808,0.003615
53.045,48.2781,0.003615
53.062,48.2749,0.003615
53.083,48.2707,0.003615
53.114,48.2637,0.003615
53.145,48.2560,0.003615
53.161,48.2518,0.006175
53.177,48.2476,0.006175
53.207,48.2385,0.006175
53.222,48.2337,0.006175
53.238,48.2289,0.006175
53.254,48.2234,0.006175
53.269,48.2181,0.006175
53.285,48.2125,0.006175
53.315,48.2012,0.006175
53.331,48.1951,0.006175
53.347,48.1886,0.006175
53.363,48.1820,0.006175
53.379,48.1749,0.006175
53.395,48.1679,0.006175
53.411,48.1608,0.015767
53.427,48.1533,0.015767
53.448,48.1424,0.015767
53.474,48.1304,0.015767
53.492,48.1212,0.015767
53.518,48.1072,0.015767
53.539,48.0958,0.015767
53.555,48.0869,0.015767
53.572,48.0771,0.015767
53.587,48.0680,0.015767
53.603,48.0588,0.015767
53.619,48.0487,0.015767
53.635,48.0387,0.015767
53.651,48.0286,0.015767
53.667,48.0187,0.017480
53.683,48.0077,0.017480
53.699,47.9971,0.017480
53.715,47.9863,0.017480
53.731,47.9749,0.017480
53.747,47.9637,0.017480
53.763,47.9522,0.017480
53.779,47.9400,0.017480
53.795,47.9286,0.017480
53.811,47.9163,0.017480
53.827,47.9039,0.017480
53.843,47.8918,0.017480
53.870,47.8704,0.017480
53.886,47.8573,0.017480
53.902,47.8440,0.008811
53.918,47.8309,0.008811
53.934,47.8170,0.008811
53.950,47.8032,0.008811
53.966,47.7890,0.008811
53.982,47.7748,0.008811
53.998,47.7606,0.008811
54.015,47.7458,0.008811
54.030,47.7315,0.008811
54.046,47.7160,0.008811
54.068,47.6943,0.008811
54.092,47.6723,0.008811
54.111,47.6543,0.008811
54.136,47.6290,0.008811
54.158,47.6068,0.005337
54.174,47.5901,0.005337
54.190,47.5733,0.005337
54.207,47.5560,0.005337
54.222,47.5399,0.005337
54.238,47.5226,0.005337
54.254,47.5051,0.005337
54.270,47.4870,0.005337
54.286,47.4692,0.005337
54.301,47.4515,0.005337
54.318,47.4324,0.005337
54.334,47.4143,0.005337
54.350,47.3961,0.005337
54.367,47.3765,0.005337
54.383,47.3575,0.005337
54.411,47.3230,0.005300
54.430,47.2996,0.005300
54.446,47.2806,0.005300
54.462,47.2605,0.005300
54.477,47.2405,0.005300
54.494,47.2191,0.005300
54.510,47.1991,0.005300
54.526,47.1786,0.005300
54.542,47.1576,0.005300
54.559,47.1344,0.005300
54.582,47.1035,0.005300
54.613,47.0613,0.005300
54.644,47.0195,0.005300
54.675,46.9757,0.005460
54.705,46.9315,0.005460
54.722,46.9076,0.005460
54.752,46.8631,0.005460
54.782,46.8190,0.005460
54.799,46.7938,0.005460
54.829,46.7484,0.005460
54.846,46.7231,0.005460
54.862,46.6974,0.005460
54.877,46.6736,0.005460
54.893,46.6481,0.005460
54.909,46.6229,0.005695
54.935,46.5812,0.005695
54.951,46.5554,0.005695
54.969,46.5268,0.005695
54.985,46.5001,0.005695
55.015,46.4505,0.005695
55.032,46.4214,0.005695
55.062,46.3709,0.005695
55.078,46.3430,0.005695
55.096,46.3136,0.005695
55.111,46.2868,0.005695
55.127,46.2591,0.005695
55.144,46.2287,0.005695
55.159,46.2017,0.005695
55.174,46.1744,0.005695
55.190,46.1445,0.005987
55.207,46.1156,0.005987
55.223,46.0861,0.005987
55.239,46.0566,0.005987
55.255,46.0277,0.005987
55.271,45.9964,0.005987
55.287,45.9676,0.005987
55.303,45.9373,0.005987
55.318,45.9084,0.005987
55.334,45.8761,0.005987
55.354,45.8391,0.005987
55.371,45.8057,0.005987
55.403,45.7446,0.005987
55.433,45.6842,0.005987
55.463,45.6239,0.006429
55.479,45.5929,0.006429
55.494,45.5614,0.006429
55.510,45.5283,0.006429
55.528,45.4913,0.006429
55.557,45.4318,0.006429
55.574,45.3958,0.006429
55.591,45.3603,0.006429
55.607,45.3281,0.006429
55.622,45.2945,0.006429
55.638,45.2610,0.006429
55.655,45.2256,0.006429
55.682,45.1676,0.006956
55.702,45.1257,0.006956
55.719,45.0912,0.006956
55.735,45.0582,0.006956
55.751,45.0240,0.006956
55.766,44.9931,0.006956
55.783,44.9596,0.006956
55.798,44.9291,0.006956
55.814,44.8970,0.006956
55.830,44.8642,0.006956
55.847,44.8317,0.006956
55.862,44.8015,0.006956
55.878,44.7700,0.006956
55.894,44.7386,0.006956
55.911,44.7071,0.006956
55.926,44.6775,0.007361
55.942,44.6469,0.007361
55.959,44.6141,0.007361
55.977,44.5803,0.007361
55.992,44.5521,0.007361
56.008,44.5234,0.007361
56.024,44.4937,0.007361
56.040,44.4628,0.007361
56.070,44.4093,0.007361
56.087,44.3787,0.007361
56.103,44.3504,0.007361
56.118,44.3235,0.007361
56.134,44.2955,0.007361
56.150,44.2662,0.007361
56.166,44.2378,0.007361
56.182,44.2118,0.007813
56.198,44.1833,0.007813
56.215,44.1563,0.007813
56.230,44.1294,0.007813
56.246,44.1024,0.007813
56.263,44.0741,0.007813
56.281,44.0435,0.007813
56.297,44.0195,0.007813
56.319,43.9831,0.007813
56.335,43.9566,0.007813
56.365,43.9091,0.007813
56.395,43.8604,0.007813
56.415,43.8294,0.007813
56.443,43.7880,0.008510
56.472,43.7429,0.008510
56.503,43.6979,0.008510
56.518,43.6755,0.008510
56.534,43.6520,0.008510
56.550,43.6290,0.008510
56.579,43.5869,0.008510
56.596,43.5632,0.008510
56.625,43.5228,0.008510
56.643,43.4964,0.008510
56.659,43.4758,0.008510
56.675,43.4541,0.009150
56.692,43.4311,0.009150
56.718,43.3967,0.009150
56.740,43.3683,0.009150
56.755,43.3483,0.009150
56.771,43.3280,0.009150
56.787,43.3079,0.009150
56.803,43.2879,0.009150
56.819,43.2672,0.009150
56.835,43.2471,0.009150
56.851,43.2286,0.009150
56.867,43.2093,0.009150
56.884,43.1884,0.009150
56.900,43.1701,0.009150
56.915,43.1520,0.009583
56.931,43.1331,0.009583
56.947,43.1150,0.009583
56.963,43.0965,0.009583
56.979,43.0790,0.009583
56.995,43.0609,0.009583
57.010,43.0437,0.009583
57.027,43.0256,0.009583
57.043,43.0085,0.009583
57.059,42.9914,0.009583
57.075,42.9741,0.009583
57.091,42.9575,0.009583
57.107,42.9419,0.009583
57.134,42.9138,0.009583
57.150,42.8983,0.009583
57.166,42.8828,0.009987
57.182,42.8668,0.009987
57.198,42.8518,0.009987
57.214,42.8360,0.009987
57.230,42.8214,0.009987
57.246,42.8069,0.009987
57.262,42.7917,0.009987
57.278,42.7780,0.009987
57.294,42.7634,0.009987
57.310,42.7496,0.009987
57.326,42.7351,0.009987
57.342,42.7217,0.009987
57.358,42.7088,0.009987
57.373,42.6957,0.009987
57.390,42.6820,0.009987
57.406,42.6698,0.010392
57.422,42.6571,0.010392
57.438,42.6446,0.010392
57.454,42.6319,0.010392
57.469,42.6202,0.010392
57.486,42.6081,0.010392
57.502,42.5966,0.010392
57.517,42.5852,0.010392
57.534,42.5739,0.010392
57.550,42.5626,0.010392
57.566,42.5518,0.010392
57.582,42.5408,0.010392
57.597,42.5306,0.010392
57.614,42.5198,0.010392
57.634,42.5074,0.010392
57.657,42.4930,0.010392
57.674,42.4827,0.010392
57.689,42.4739,0.010628
57.707,42.4636,0.010628
57.737,42.4469,0.010628
57.754,42.4377,0.010628
57.770,42.4297,0.010628
57.785,42.4215,0.010628
57.801,42.4135,0.010628
57.819,42.4046,0.010628
57.846,42.3923,0.010628
57.866,42.3831,0.010628
57.882,42.3758,0.010628
57.908,42.3645,0.010797
57.929,42.3561,0.010797
57.946,42.3495,0.010797
57.962,42.3435,0.010797
57.977,42.3378,0.010797
57.993,42.3319,0.010797
58.010,42.3261,0.010797
58.026,42.3208,0.010797
58.048,42.3139,0.010797
58.078,42.3045,0.010797
58.109,42.2962,0.010797
58.126,42.2917,0.010797
58.157,42.2846,0.010797
58.173,42.2810,0.010797
58.190,42.2774,0.010966
58.219,42.2718,0.010966
58.250,42.2666,0.010966
58.265,42.2641,0.010966
58.282,42.2620,0.010966
58.298,42.2599,0.010966
58.313,42.2580,0.010966
58.329,42.2564,0.010966
58.345,42.2549,0.010966
58.361,42.2537,0.010966
58.380,42.2524,0.010966
58.404,42.2512,0.011032
58.425,42.2504,0.011032
58.446,42.2501,0.011032
58.469,42.2501,0.011032
58.489,42.2501,0.011032
58.505,42.2501,0.011032
58.522,42.2501,0.011032
58.537,42.2501,0.011032
58.553,42.2501,0.011032
58.570,42.2501,0.011032
58.585,42.2501,0.011032
58.601,42.2501,0.011032
58.617,42.2501,0.011032
58.633,42.2501,0.011032
58.649,42.2501,0.011183
58.665,42.2501,0.011183
58.681,42.2501,0.011183
58.711,42.2501,0.011183
58.728,42.2501,0.011183
58.743,42.2501,0.011183
58.759,42.2501,0.011183
58.776,42.2501,0.011183
58.791,42.2501,0.011183
58.807,42.2501,0.011183
58.827,42.2501,0.011183
58.843,42.2501,0.011183
58.868,42.2501,0.011183
58.888,42.2501,0.011183
58.903,42.2501,0.011268
58.919,42.2501,0.011268
58.936,42.2501,0.011268
58.961,42.2501,0.011268
58.992,42.2501,0.011268
59.008,42.2501,0.011268
59.039,42.2501,0.011268
59.070,42.2501,0.011268
59.100,42.2501,0.011268
59.116,42.2501,0.011268
59.147,42.2501,0.011268
59.163,42.2501,0.011192
59.179,42.2501,0.011192
59.194,42.2501,0.011192
59.210,42.2501,0.011192
59.225,42.2501,0.011192
59.246,42.2501,0.011192
59.262,42.2501,0.011192
59.278,42.2503,0.011192
59.294,42.2508,0.011192
59.310,42.2514,0.011192
59.326,42.2523,0.011192
59.342,42.2533,0.011192
59.358,42.2545,0.011192
59.379,42.2564,0.011192
59.396,42.2581,0.011192
59.427,42.2619,0.011164
59.443,42.2641,0.011164
59.459,42.2667,0.011164
59.489,42.2717,0.011164
59.519,42.2775,0.011164
59.550,42.2842,0.011164
59.567,42.2879,0.011164
59.582,42.2917,0.011164
59.598,42.2958,0.011164
59.615,42.3003,0.011164
59.630,42.3048,0.011164
59.646,42.3092,0.011164
59.663,42.3146,0.011164
59.690,42.3234,0.011164
59.710,42.3301,0.011164
59.727,42.3359,0.011164
59.752,42.3454,0.011164
59.774,42.3536,0.011164
59.790,42.3602,0.011164
59.806,42.3669,0.011164
59.822,42.3736,0.011164
59.838,42.3808,0.011164
59.854,42.3879,0.011164
59.870,42.3952,0.011164
59.886,42.4029,0.011164
59.902,42.4107,0.011164
59.918,42.4186,0.011108
59.934,42.4268,0.011108
59.950,42.4352,0.011108
59.966,42.4437,0.011108
59.982,42.4527,0.011108
59.998,42.4617,0.011108
60.015,42.4716,0.011108
60.030,42.4801,0.011108
60.046,42.4894,0.011108
60.062,42.4991,0.011108
60.081,42.5111,0.011108
60.107,42.5275,0.011108
60.126,42.5402,0.011108
60.142,42.5512,0.011108
60.158,42.5616,0.011108
60.175,42.5733,0.010985
60.190,42.5839,0.010985
60.206,42.5957,0.010985
60.222,42.6070,0.010985
60.238,42.6192,0.010985
60.254,42.6308,0.010985
60.270,42.6431,0.010985
60.286,42.6555,0.010985
60.301,42.6691,0.010985
60.325,42.6871,0.010985
60.341,42.7000,0.010985
60.357,42.7131,0.010985
60.373,42.7269,0.010985
60.389,42.7411,0.010985
60.405,42.7541,0.010985
60.421,42.7690,0.010693
60.437,42.7826,0.010693
60.453,42.7978,0.010693
60.469,42.8124,0.010693
60.485,42.8268,0.010693
60.501,42.8422,0.010693
60.517,42.8577,0.010693
60.533,42.8725,0.010693
60.548,42.8877,0.010693
60.565,42.9040,0.010693
60.581,42.9203,0.010693
60.597,42.9363,0.010693
60.612,42.9522,0.010693
60.629,42.9690,0.010693
60.645,42.9865,0.010693
60.661,43.0025,0.010420
60.677,43.0201,0.010420
60.693,43.0372,0.010420
60.709,43.0549,0.010420
60.724,43.0722,0.010420
60.741,43.0903,0.010420
60.757,43.1086,0.010420
60.773,43.1269,0.010420
60.789,43.1463,0.010420
60.804,43.1639,0.010420
60.822,43.1853,0.010420
60.851,43.2201,0.010420
60.881,43.2570,0.010420
60.898,43.2779,0.010420
60.913,43.2966,0.010166
60.930,43.3175,0.010166
60.946,43.3384,0.010166
60.962,43.3586,0.010166
60.977,43.3787,0.010166
60.994,43.4004,0.010166
61.010,43.4223,0.010166
61.026,43.4438,0.010166
61.042,43.4648,0.010166
61.057,43.4856,0.010166
61.074,43.5085,0.010166
61.091,43.5316,0.010166
61.106,43.5537,0.010166
61.121,43.5746,0.010166
61.137,43.5978,0.010166
61.154,43.6209,0.010166
61.169,43.6435,0.009809
61.185,43.6672,0.009809
61.202,43.6916,0.009809
61.217,43.7144,0.009809
61.234,43.7387,0.009809
61.250,43.7630,0.009809
61.265,43.7868,0.009809
61.281,43.8114,0.009809
61.298,43.8362,0.009809
61.314,43.8624,0.009809
61.331,43.8884,0.009809
61.361,43.9367,0.009809
61.379,43.9649,0.009809
61.409,44.0136,0.009809
61.438,44.0618,0.009291
61.455,44.0893,0.009291
61.470,44.1150,0.009291
61.487,44.1428,0.009291
61.503,44.1711,0.009291
61.519,44.1979,0.009291
61.534,44.2243,0.009291
61.550,44.2521,0.009291
61.568,44.2843,0.009291
61.587,44.3159,0.009291
61.612,44.3619,0.009291
61.630,44.3937,0.009291
61.646,44.4225,0.009291
61.662,44.4516,0.008660
61.679,44.4814,0.008660
61.695,44.5109,0.008660
61.711,44.5414,0.008660
61.727,44.5722,0.008660
61.742,44.5998,0.008660
61.761,44.6372,0.008660
61.781,44.6734,0.008660
61.812,44.7353,0.008660
61.843,44.7944,0.008660
61.873,44.8548,0.008660
61.905,44.9169,0.008039
61.921,44.9489,0.008039
61.952,45.0121,0.008039
61.968,45.0451,0.008039
61.984,45.0789,0.008039
62.015,45.1434,0.008039
62.030,45.1749,0.008039
62.046,45.2089,0.008039
62.063,45.2445,0.008039
62.078,45.2757,0.008039
62.094,45.3101,0.008039
62.110,45.3435,0.008039
62.126,45.3768,0.008039
62.142,45.4107,0.008039
62.158,45.4445,0.007474
62.174,45.4760,0.007474
62.190,45.5095,0.007474
62.207,45.5424,0.007474
62.222,45.5741,0.007474
62.239,45.6084,0.007474
62.257,45.6435,0.007474
62.278,45.6856,0.007474
62.309,45.7455,0.007474
62.339,45.8038,0.007474
62.355,45.8365,0.007474
62.371,45.8660,0.007474
62.401,45.9228,0.007050
62.417,45.9522,0.007050
62.433,45.9808,0.007050
62.449,46.0110,0.007050
62.479,46.0661,0.007050
62.510,46.1226,0.007050
62.526,46.1505,0.007050
62.542,46.1801,0.007050
62.561,46.2145,0.007050
62.588,46.2593,0.007050
62.606,46.2913,0.007050
62.622,46.3187,0.007050
62.638,46.3463,0.007050
62.654,46.3724,0.006655
62.670,46.3999,0.006655
62.687,46.4276,0.006655
62.712,46.4700,0.006655
62.734,46.5048,0.006655
62.750,46.5310,0.006655
62.766,46.5569,0.006655
62.783,46.5832,0.006655
62.798,46.6073,0.006655
62.814,46.6328,0.006655
62.830,46.6570,0.006655
62.846,46.6818,0.006655
62.862,46.7077,0.006655
62.878,46.7313,0.006655
62.894,46.7552,0.006655
62.910,46.7790,0.006156
62.926,46.8030,0.006156
62.942,46.8265,0.006156
62.958,46.8510,0.006156
62.974,46.8738,0.006156
62.992,46.8990,0.006156
63.021,46.9404,0.006156
63.051,46.9831,0.006156
63.067,47.0049,0.006156
63.083,47.0260,0.006156
63.099,47.0478,0.006156
63.115,47.0701,0.006156
63.131,47.0906,0.006156
63.147,47.1113,0.006156
63.163,47.1321,0.005742
63.182,47.1568,0.005742
63.206,47.1882,0.005742
63.227,47.2144,0.005742
63.243,47.2349,0.005742
63.259,47.2540,0.005742
63.275,47.2730,0.005742
63.291,47.2924,0.005742
63.307,47.3132,0.005742
63.323,47.3312,0.005742
63.339,47.3493,0.005742
63.355,47.3684,0.005742
63.371,47.3872,0.005742
63.387,47.4046,0.005742
63.403,47.4227,0.005460
63.420,47.4421,0.005460
63.435,47.4583,0.005460
63.452,47.4764,0.005460
63.467,47.4937,0.005460
63.483,47.5099,0.005460
63.499,47.5264,0.005460
63.515,47.5431,0.005460
63.531,47.5600,0.005460
63.547,47.5763,0.005460
63.563,47.5920,0.005460
63.591,47.6205,0.005460
63.607,47.6354,0.005460
63.623,47.6507,0.005460
63.639,47.6658,0.005460
63.655,47.6814,0.005460
63.683,47.7070,0.005224
63.703,47.7242,0.005224
63.720,47.7397,0.005224
63.745,47.7619,0.005224
63.767,47.7800,0.005224
63.783,47.7934,0.005224
63.799,47.8064,0.005224
63.816,47.8202,0.005224
63.831,47.8325,0.005224
63.848,47.8458,0.005224
63.863,47.8575,0.005224
63.878,47.8693,0.005224
63.895,47.8816,0.005224
63.911,47.8941,0.005224
63.926,47.9049,0.004980
63.942,47.9165,0.004980
63.958,47.9277,0.004980
63.974,47.9389,0.004980
63.990,47.9497,0.004980
64.007,47.9607,0.004980
64.023,47.9711,0.004980
64.039,47.9816,0.004980
64.054,47.9912,0.004980
64.071,48.0015,0.004980
64.088,48.0120,0.004980
64.119,48.0302,0.004980
64.146,48.0457,0.004980
64.163,48.0547,0.004980
64.179,48.0633,0.004490
64.194,48.0715,0.004490
64.210,48.0800,0.004490
64.226,48.0877,0.004490
64.243,48.0958,0.004490
64.259,48.1034,0.004490
64.275,48.1110,0.004490
64.291,48.1180,0.004490
64.306,48.1249,0.004490
64.322,48.1318,0.004490
64.339,48.1387,0.004490
64.354,48.1449,0.004490
64.371,48.1514,0.004490
64.386,48.1573,0.004490
64.403,48.1634,0.004490
64.418,48.1688,0.004490
64.434,48.1744,0.003615
64.450,48.1798,0.003615
64.467,48.1850,0.003615
64.482,48.1898,0.003615
64.498,48.1945,0.003615
64.515,48.1994,0.003615
64.530,48.2034,0.003615
64.546,48.2075,0.003615
64.562,48.2115,0.003615
64.579,48.2156,0.003615
64.597,48.2197,0.003615
64.626,48.2255,0.003615
64.642,48.2284,0.003615
64.669,48.2331,0.003615
64.686,48.2356,0.003615
64.702,48.2379,0.001789
64.718,48.2399,0.001789
64.734,48.2418,0.001789
64.749,48.2435,0.001789
64.766,48.2451,0.001789
64.782,48.2464,0.001789
64.797,48.2473,0.001789
64.813,48.2483,0.001789
64.831,48.2491,0.001789
64.849,48.2497,0.001789
64.874,48.2501,0.001789
64.894,48.2501,0.001789
64.910,48.2501,0.001789
64.925,48.2501,0.000009
64.941,48.2501,0.000009
64.958,48.2501,0.000009
64.974,48.2501,0.000009
64.990,48.2501,0.000009
65.005,48.2501,0.000009
65.021,48.2501,0.000009
65.037,48.2501,0.000009
65.053,48.2501,0.000009
65.069,48.2501,0.000009
65.085,48.2501,0.000009
65.101,48.2501,0.000009
65.117,48.2501,0.000009
65.134,48.2501,0.000009
65.158,48.2501,0.000009
65.184,48.2501,0.000009
65.200,48.2501,0.000009
65.224,48.2501,0.000574
65.241,48.2501,0.000574
65.256,48.2501,0.000574
65.272,48.2501,0.000574
65.288,48.2501,0.000574
65.304,48.2501,0.000574
65.320,48.2501,0.000574
65.336,48.2501,0.000574
65.352,48.2501,0.000574
65.368,48.2501,0.000574
65.384,48.2501,0.000574
65.400,48.2501,0.000574
65.417,48.2501,0.000574
65.432,48.2501,0.002278
65.448,48.2501,0.002278
65.464,48.2501,0.002278
65.480,48.2501,0.002278
65.496,48.2501,0.002278
65.512,48.2501,0.002278
65.531,48.2501,0.002278
65.554,48.2501,0.002278
65.584,48.2501,0.002278
65.615,48.2501,0.002278
65.645,48.2501,0.002278
65.676,48.2501,0.003219
65.692,48.2501,0.003219
65.708,48.2501,0.003219
65.725,48.2501,0.003219
65.755,48.2501,0.003219
65.770,48.2501,0.003219
65.801,48.2501,0.003219
65.817,48.2501,0.003219
65.833,48.2501,0.003219
65.863,48.2501,0.003219
65.880,48.2501,0.003219
65.896,48.2501,0.003219
65.913,48.2501,0.003219
65.940,48.2501,0.003690
65.960,48.2501,0.003690
65.976,48.2501,0.003690
65.992,48.2501,0.003690
66.008,48.2501,0.003690
66.024,48.2501,0.003690
66.040,48.2501,0.003690
66.056,48.2501,0.003690
66.072,48.2501,0.003690
66.089,48.2501,0.003690
66.104,48.2501,0.003690
66.120,48.2501,0.003690
66.136,48.2501,0.003690
66.152,48.2501,0.003690
66.168,48.2501,0.003925
66.184,48.2501,0.003925
66.200,48.2501,0.003925
66.216,48.2501,0.003925
66.232,48.2501,0.003925
66.248,48.2501,0.003925
66.271,48.2501,0.003925
66.294,48.2501,0.003925
66.312,48.2501,0.003925
66.328,48.2501,0.003925
66.344,48.2501,0.003925
66.360,48.2501,0.003925
66.375,48.2501,0.003925
66.392,48.2501,0.003925
66.407,48.2501,0.003925
66.424,48.2501,0.004019
66.440,48.2501,0.004019
66.456,48.2501,0.004019
66.471,48.2501,0.004019
66.487,48.2501,0.004019
66.504,48.2501,0.004019
66.520,48.2501,0.004019
66.536,48.2501,0.004019
66.551,48.2501,0.004019
66.567,48.2501,0.004019
66.584,48.2501,0.004019
66.604,48.2501,0.004019
66.635,48.2501,0.004019
66.651,48.2501,0.004019
66.667,48.2501,0.004123
66.683,48.2501,0.004123
66.714,48.2501,0.004123
66.744,48.2501,0.004123
66.761,48.2501,0.004123
66.790,48.2501,0.004123
66.821,48.2501,0.004123
66.851,48.2501,0.004123
66.869,48.2501,0.004123
66.885,48.2501,0.004123
66.900,48.2501,0.004123
66.916,48.2501,0.004189
66.932,48.2501,0.004189
66.949,48.2501,0.004189
66.975,48.2501,0.004189
66.997,48.2501,0.004189
67.015,48.2501,0.004189
67.030,48.2501,0.004189
67.053,48.2501,0.004189
67.084,48.2501,0.004189
67.115,48.2501,0.004189
67.145,48.2501,0.004189
67.161,48.2501,0.004189
67.193,48.2501,0.004255
67.208,48.2501,0.004255
67.239,48.2501,0.004255
67.270,48.2501,0.004255
67.300,48.2501,0.004255
67.317,48.2501,0.004255
67.333,48.2501,0.004255
67.363,48.2501,0.004255
67.381,48.2501,0.004255
67.397,48.2501,0.004255
67.413,48.2501,0.004302
67.428,48.2501,0.004302
67.450,48.2501,0.004302
67.471,48.2501,0.004302
67.492,48.2501,0.004302
67.509,48.2501,0.004302
67.525,48.2501,0.004302
67.540,48.2501,0.004302
67.557,48.2501,0.004302
67.573,48.2501,0.004302
67.589,48.2501,0.004302
67.604,48.2501,0.004302
67.620,48.2501,0.004302
67.637,48.2501,0.004302
67.652,48.2501,0.004302
67.668,48.2501,0.004302
67.684,48.2501,0.004302
67.701,48.2501,0.004302
67.720,48.2501,0.004302
67.751,48.2501,0.004302
67.767,48.2501,0.004302
67.797,48.2501,0.004302
67.814,48.2501,0.004302
67.843,48.2501,0.004302
67.860,48.2501,0.004302
67.876,48.2501,0.004302
67.899,48.2501,0.004302
67.916,48.2501,0.004302
67.931,48.2501,0.004283
67.947,48.2501,0.004283
67.964,48.2501,0.004283
67.979,48.2501,0.004283
67.996,48.2501,0.004283
68.011,48.2501,0.004283
68.028,48.2501,0.004283
68.043,48.2501,0.004283
68.062,48.2501,0.004283
68.091,48.2501,0.004283
68.107,48.2501,0.004283
68.123,48.2501,0.004283
68.139,48.2501,0.004283
68.155,48.2501,0.004292
68.171,48.2501,0.004292
68.188,48.2501,0.004292
68.203,48.2501,0.004292
68.219,48.2501,0.004292
68.235,48.2501,0.004292
68.252,48.2501,0.004292
68.267,48.2501,0.004292
68.283,48.2501,0.004292
68.299,48.2501,0.004292
68.315,48.2501,0.004292
68.332,48.2501,0.004292
68.354,48.2501,0.004292
68.385,48.2501,0.004292
68.416,48.2501,0.004292
68.438,48.2501,0.004349
68.464,48.2501,0.004349
68.494,48.2501,0.004349
68.510,48.2501,0.004349
68.526,48.2501,0.004349
68.558,48.2501,0.004349
68.588,48.2501,0.004349
68.619,48.2501,0.004349
68.635,48.2501,0.004349
68.650,48.2501,0.004349
68.666,48.2501,0.004349
68.682,48.2501,0.004349
68.711,48.2501,0.004349
68.727,48.2501,0.004349
68.758,48.2501,0.004349
68.773,48.2501,0.004349
68.789,48.2501,0.004349
68.806,48.2501,0.004349
68.822,48.2501,0.004349
68.851,48.2501,0.004349
68.875,48.2501,0.004349
68.897,48.2501,0.004349
68.917,48.2501,0.004104
68.933,48.2501,0.004104
68.949,48.2501,0.004104
68.965,48.2501,0.004104
68.989,48.2501,0.004104
69.005,48.2501,0.004104
69.021,48.2501,0.004104
69.037,48.2501,0.004104
69.057,48.2501,0.004104
69.083,48.2501,0.004104
69.101,48.2501,0.004104
69.117,48.2501,0.004104
69.133,48.2501,0.004104
69.149,48.2501,0.003784
69.165,48.2501,0.003784
69.186,48.2501,0.003784
69.207,48.2501,0.003784
69.238,48.2501,0.003784
69.253,48.2501,0.003784
69.284,48.2501,0.003784
69.314,48.2497,0.003784
69.330,48.2492,0.003784
69.361,48.2477,0.003784
69.376,48.2467,0.003784
69.392,48.2455,0.003784
69.409,48.2440,0.003681
69.440,48.2407,0.003681
69.456,48.2387,0.003681
69.471,48.2366,0.003681
69.487,48.2341,0.003681
69.503,48.2316,0.003681
69.534,48.2261,0.003681
69.565,48.2196,0.003681
69.580,48.2163,0.003681
69.596,48.2127,0.003681
69.620,48.2068,0.003681
69.645,48.2002,0.003681
69.661,48.1958,0.003681
69.676,48.1913,0.007521
69.692,48.1863,0.007521
69.708,48.1814,0.007521
69.725,48.1759,0.007521
69.740,48.1706,0.007521
69.757,48.1649,0.007521
69.772,48.1592,0.007521
69.788,48.1531,0.007521
69.804,48.1465,0.007521
69.821,48.1404,0.007521
69.837,48.1337,0.007521
69.852,48.1269,0.007521
69.869,48.1197,0.007521
69.884,48.1128,0.007521
69.901,48.1052,0.016868
69.917,48.0974,0.016868
69.935,48.0886,0.016868
69.967,48.0722,0.016868
69.983,48.0640,0.016868
70.014,48.0474,0.016868
70.030,48.0384,0.016868
70.061,48.0206,0.016868
70.092,48.0019,0.016868
70.108,47.9921,0.016868
70.123,47.9823,0.016868
70.139,47.9720,0.016868
70.156,47.9606,0.016868
70.172,47.9498,0.016868
70.188,47.9393,0.016868
70.203,47.9290,0.016520
70.220,47.9172,0.016520
70.236,47.9058,0.016520
70.251,47.8948,0.016520
70.268,47.8825,0.016520
70.284,47.8701,0.016520
70.306,47.8528,0.016520
70.321,47.8408,0.016520
70.352,47.8161,0.016520
70.382,47.7914,0.016520
70.398,47.7789,0.016520
70.414,47.7649,0.016520
70.444,47.7390,0.008020
70.475,47.7114,0.008020
70.491,47.6969,0.008020
70.507,47.6822,0.008020
70.523,47.6670,0.008020
70.540,47.6517,0.008020
70.555,47.6369,0.008020
70.571,47.6213,0.008020
70.588,47.6047,0.008020
70.603,47.5894,0.008020
70.620,47.5729,0.008020
70.644,47.5471,0.008020
70.660,47.5315,0.008020
70.676,47.5147,0.005366
70.692,47.4976,0.005366
70.709,47.4791,0.005366
70.737,47.4495,0.005366
70.756,47.4274,0.005366
70.773,47.4091,0.005366
70.788,47.3916,0.005366
70.805,47.3724,0.005366
70.820,47.3550,0.005366
70.837,47.3345,0.005366
70.853,47.3162,0.005366
70.874,47.2905,0.005366
70.905,47.2528,0.005366
70.921,47.2336,0.005403
70.952,47.1935,0.005403
70.982,47.1554,0.005403
71.013,47.1159,0.005403
71.028,47.0957,0.005403
71.044,47.0748,0.005403
71.060,47.0533,0.005403
71.076,47.0312,0.005403
71.092,47.0105,0.005403
71.108,46.9884,0.005403
71.124,46.9663,0.005403
71.141,46.9419,0.005403
71.156,46.9205,0.005403
71.172,46.8983,0.005403
71.199,46.8592,0.005554
71.215,46.8355,0.005554
71.231,46.8120,0.005554
71.247,46.7887,0.005554
71.263,46.7645,0.005554
71.279,46.7411,0.005554
71.295,46.7168,0.005554
71.311,46.6922,0.005554
71.327,46.6661,0.005554
71.343,46.6429,0.005554
71.360,46.6164,0.005554
71.375,46.5920,0.005554
71.391,46.5668,0.005554
71.407,46.5410,0.005554
71.423,46.5157,0.005789
71.440,46.4873,0.005789
71.455,46.4625,0.005789
71.471,46.4371,0.005789
71.487,46.4106,0.005789
71.503,46.3840,0.005789
71.519,46.3569,0.005789
71.535,46.3296,0.005789
71.551,46.3014,0.005789
71.567,46.2744,0.005789
71.583,46.2469,0.005789
71.598,46.2189,0.005789
71.615,46.1903,0.005789
71.631,46.1615,0.005789
71.647,46.1321,0.005789
71.663,46.1050,0.006090
71.679,46.0758,0.006090
71.695,46.0461,0.006090
71.711,46.0180,0.006090
71.727,45.9881,0.006090
71.755,45.9362,0.006090
71.771,45.9048,0.006090
71.787,45.8759,0.006090
71.803,45.8448,0.006090
71.818,45.8136,0.006090
71.835,45.7840,0.006090
71.851,45.7530,0.006090
71.867,45.7220,0.006090
71.883,45.6894,0.006090
71.899,45.6579,0.006090
71.915,45.6270,0.006514
71.931,45.5945,0.006514
71.947,45.5612,0.006514
71.964,45.5289,0.006514
71.979,45.4971,0.006514
71.995,45.4656,0.006514
72.011,45.4308,0.006514
72.026,45.3996,0.006514
72.043,45.3662,0.006514
72.059,45.3316,0.006514
72.075,45.2970,0.006514
72.090,45.2650,0.006514
72.107,45.2309,0.006514
72.123,45.1956,0.006514
72.139,45.1615,0.006514
72.154,45.1289,0.007069
72.171,45.0945,0.007069
72.187,45.0616,0.007069
72.203,45.0283,0.007069
72.219,44.9945,0.007069
72.235,44.9609,0.007069
72.254,44.9212,0.007069
72.283,44.8642,0.007069
72.300,44.8294,0.007069
72.328,44.7742,0.007069
72.346,44.7393,0.007069
72.362,44.7080,0.007069
72.378,44.6778,0.007069
72.394,44.6469,0.007069
72.411,44.6127,0.007069
72.436,44.5655,0.007465
72.458,44.5250,0.007465
72.474,44.4948,0.007465
72.489,44.4662,0.007465
72.506,44.4359,0.007465
72.522,44.4066,0.007465
72.538,44.3768,0.007465
72.553,44.3495,0.007465
72.569,44.3208,0.007465
72.585,44.2920,0.007465
72.602,44.2627,0.007465
72.617,44.2353,0.007465
72.634,44.2068,0.007465
72.649,44.1794,0.007465
72.666,44.1511,0.007465
72.681,44.1242,0.008020
72.697,44.0975,0.008020
72.714,44.0683,0.008020
72.732,44.0395,0.008020
72.762,43.9893,0.008020
72.785,43.9501,0.008020
72.807,43.9153,0.008020
72.824,43.8898,0.008020
72.839,43.8642,0.008020
72.856,43.8378,0.008020
72.885,43.7918,0.008020
72.904,43.7633,0.008020
72.919,43.7398,0.008020
72.935,43.7155,0.008679
72.952,43.6909,0.008679
72.968,43.6672,0.008679
72.984,43.6431,0.008679
73.000,43.6187,0.008679
73.015,43.5963,0.008679
73.032,43.5722,0.008679
73.048,43.5503,0.008679
73.063,43.5281,0.008679
73.079,43.5052,0.008679
73.095,43.4830,0.008679
73.112,43.4598,0.008679
73.127,43.4390,0.008679
73.143,43.4168,0.008679
73.160,43.3946,0.008679
73.176,43.3737,0.009216
73.191,43.3528,0.009216
73.208,43.3312,0.009216
73.223,43.3108,0.009216
73.239,43.2904,0.009216
73.255,43.2692,0.009216
73.271,43.2496,0.009216
73.287,43.2295,0.009216
73.304,43.2088,0.009216
73.319,43.1902,0.009216
73.336,43.1696,0.009216
73.352,43.1505,0.009216
73.368,43.1318,0.009216
73.383,43.1123,0.009216
73.406,43.0851,0.009216
73.428,43.0606,0.009216
73.448,43.0390,0.009714
73.463,43.0212,0.009714
73.480,43.0034,0.009714
73.495,42.9860,0.009714
73.512,42.9674,0.009714
73.530,42.9468,0.009714
73.545,42.9321,0.009714
73.568,42.9088,0.009714
73.599,42.8766,0.009714
73.614,42.8614,0.009714
73.630,42.8460,0.009714
73.662,42.8146,0.009714
73.692,42.7860,0.010100
73.708,42.7715,0.010100
73.724,42.7560,0.010100
73.740,42.7419,0.010100
73.755,42.7283,0.010100
73.772,42.7131,0.010100
73.801,42.6878,0.010100
73.817,42.6744,0.010100
73.833,42.6606,0.010100
73.848,42.6471,0.010100
73.879,42.6234,0.010100
73.896,42.6096,0.010100
73.911,42.5978,0.010100
73.927,42.5856,0.010420
73.943,42.5736,0.010420
73.961,42.5599,0.010420
73.988,42.5407,0.010420
74.007,42.5268,0.010420
74.024,42.5152,0.010420
74.050,42.4973,0.010420
74.071,42.4836,0.010420
74.087,42.4726,0.010420
74.104,42.4625,0.010420
74.119,42.4530,0.010420
74.135,42.4431,0.010420
74.151,42.4333,0.010420
74.167,42.4242,0.010420
74.182,42.4150,0.010703
74.199,42.4057,0.010703
74.215,42.3970,0.010703
74.231,42.3885,0.010703
74.247,42.3800,0.010703
74.264,42.3712,0.010703
74.286,42.3602,0.010703
74.311,42.3483,0.010703
74.327,42.3406,0.010703
74.343,42.3333,0.010703
74.359,42.3261,0.010703
74.375,42.3194,0.010703
74.391,42.3126,0.010703
74.414,42.3033,0.010938
74.431,42.2967,0.010938
74.451,42.2893,0.010938
74.482,42.2781,0.010938
74.498,42.2729,0.010938
74.528,42.2633,0.010938
74.543,42.2584,0.010938
74.559,42.2540,0.010938
74.575,42.2496,0.010938
74.605,42.2414,0.010938
74.621,42.2377,0.010938
74.637,42.2341,0.010938
74.653,42.2305,0.010938
74.669,42.2271,0.010938
74.686,42.2239,0.011061
74.701,42.2211,0.011061
74.718,42.2182,0.011061
74.743,42.2142,0.011061
74.759,42.2120,0.011061
74.781,42.2093,0.011061
74.798,42.2074,0.011061
74.821,42.2051,0.011061
74.852,42.2028,0.011061
74.883,42.2012,0.011061
74.914,42.2003,0.011061
74.944,42.2001,0.011061
74.964,42.2001,0.011117
74.980,42.2001,0.011117
74.996,42.2001,0.011117
75.012,42.2001,0.011117
75.028,42.2001,0.011117
75.044,42.2001,0.011117
75.059,42.2001,0.011117
75.076,42.2001,0.011117
75.092,42.2001,0.011117
75.108,42.2001,0.011117
75.124,42.2001,0.011117
75.140,42.2001,0.011117
75.156,42.2001,0.011117
75.171,42.2001,0.011164
75.188,42.2001,0.011164
75.204,42.2001,0.011164
75.226,42.2001,0.011164
75.252,42.2001,0.011164
75.270,42.2001,0.011164
75.299,42.2001,0.011164
75.316,42.2001,0.011164
75.333,42.2001,0.011164
75.361,42.2001,0.011164
75.380,42.2001,0.011164
75.396,42.2001,0.011164
75.412,42.2001,0.011164
75.428,42.2001,0.011258
75.444,42.2001,0.011258
75.459,42.2001,0.011258
75.477,42.2001,0.011258
75.492,42.2001,0.011258
75.516,42.2001,0.011258
75.532,42.2001,0.011258
75.547,42.2001,0.011258
75.564,42.2001,0.011258
75.592,42.2003,0.011258
75.611,42.2008,0.011258
75.628,42.2015,0.011258
75.643,42.2022,0.011258
75.660,42.2033,0.011324
75.675,42.2044,0.011324
75.693,42.2060,0.011324
75.715,42.2083,0.011324
75.730,42.2101,0.011324
75.763,42.2144,0.011324
75.792,42.2191,0.011324
75.824,42.2249,0.011324
75.855,42.2312,0.011324
75.872,42.2351,0.011324
75.902,42.2424,0.011192
75.918,42.2464,0.011192
75.948,42.2545,0.011192
75.963,42.2594,0.011192
75.979,42.2640,0.011192
75.995,42.2690,0.011192
76.011,42.2744,0.011192
76.027,42.2797,0.011192
76.056,42.2904,0.011192
76.073,42.2963,0.011192
76.088,42.3023,0.011192
76.103,42.3084,0.011192
76.120,42.3153,0.011192
76.136,42.3219,0.011192
76.151,42.3287,0.011061
76.167,42.3359,0.011061
76.186,42.3443,0.011061
76.210,42.3564,0.011061
76.231,42.3665,0.011061
76.247,42.3745,0.011061
76.264,42.3831,0.011061
76.280,42.3915,0.011061
76.295,42.4000,0.011061
76.314,42.4106,0.011061
76.334,42.4221,0.011061
76.364,42.4401,0.011061
76.398,42.4608,0.011061
76.425,42.4775,0.011004
76.456,42.4985,0.011004
76.471,42.5089,0.011004
76.488,42.5201,0.011004
76.503,42.5312,0.011004
76.519,42.5421,0.011004
76.536,42.5544,0.011004
76.552,42.5668,0.011004
76.567,42.5780,0.011004
76.583,42.5898,0.011004
76.611,42.6121,0.011004
76.634,42.6305,0.011004
76.658,42.6498,0.011004
76.674,42.6631,0.010844
76.690,42.6763,0.010844
76.706,42.6904,0.010844
76.722,42.7041,0.010844
76.738,42.7180,0.010844
76.754,42.7326,0.010844
76.770,42.7472,0.010844
76.786,42.7612,0.010844
76.806,42.7801,0.010844
76.827,42.7997,0.010844
76.843,42.8154,0.010844
76.858,42.8296,0.010844
76.874,42.8453,0.010844
76.890,42.8616,0.010844
76.905,42.8774,0.010844
76.921,42.8929,0.010599
76.952,42.9248,0.010599
76.982,42.9571,0.010599
76.998,42.9741,0.010599
77.029,43.0079,0.010599
77.059,43.0418,0.010599
77.090,43.0768,0.010599
77.107,43.0955,0.010599
77.122,43.1138,0.010599
77.138,43.1339,0.010599
77.161,43.1599,0.010599
77.177,43.1800,0.010599
77.193,43.1989,0.010289
77.209,43.2187,0.010289
77.225,43.2393,0.010289
77.241,43.2593,0.010289
77.257,43.2790,0.010289
77.273,43.3004,0.010289
77.293,43.3254,0.010289
77.320,43.3623,0.010289
77.338,43.3854,0.010289
77.354,43.4078,0.010289
77.382,43.4445,0.010289
77.405,43.4783,0.010289
77.430,43.5130,0.010289
77.449,43.5390,0.010289
77.465,43.5612,0.009884
77.481,43.5857,0.009884
77.497,43.6081,0.009884
77.513,43.6311,0.009884
77.529,43.6545,0.009884
77.545,43.6791,0.009884
77.561,43.7024,0.009884
77.577,43.7266,0.009884
77.593,43.7515,0.009884
77.609,43.7759,0.009884
77.625,43.8004,0.009884
77.640,43.8254,0.009884
77.658,43.8523,0.009884
77.673,43.8769,0.009884
77.689,43.9016,0.009884
77.705,43.9275,0.009884
77.721,43.9540,0.009423
77.737,43.9797,0.009423
77.753,44.0059,0.009423
77.769,44.0324,0.009423
77.785,44.0602,0.009423
77.801,44.0864,0.009423
77.817,44.1130,0.009423
77.833,44.1412,0.009423
77.850,44.1695,0.009423
77.865,44.1965,0.009423
77.881,44.2254,0.009423
77.896,44.2516,0.009423
77.913,44.2817,0.009423
77.929,44.3090,0.008961
77.945,44.3370,0.008961
77.961,44.3662,0.008961
77.977,44.3952,0.008961
77.993,44.4248,0.008961
78.008,44.4537,0.008961
78.025,44.4851,0.008961
78.041,44.5151,0.008961
78.057,44.5444,0.008961
78.073,44.5743,0.008961
78.089,44.6081,0.008961
78.104,44.6348,0.008961
78.120,44.6652,0.008961
78.137,44.6964,0.008961
78.153,44.7293,0.008961
78.169,44.7599,0.008961
78.184,44.7906,0.008359
78.201,44.8222,0.008359
78.218,44.8572,0.008359
78.233,44.8879,0.008359
78.248,44.9184,0.008359
78.278,44.9798,0.008359
78.294,45.0132,0.008359
78.310,45.0457,0.008359
78.327,45.0807,0.008359
78.343,45.1141,0.008359
78.359,45.1476,0.008359
78.375,45.1816,0.008359
78.391,45.2152,0.008359
78.407,45.2496,0.008359
78.422,45.2818,0.008359
78.438,45.3151,0.007625
78.454,45.3487,0.007625
78.470,45.3818,0.007625
78.486,45.4148,0.007625
78.502,45.4478,0.007625
78.519,45.4825,0.007625
78.534,45.5129,0.007625
78.550,45.5444,0.007625
78.566,45.5766,0.007625
78.582,45.6083,0.007625
78.598,45.6400,0.007625
78.614,45.6711,0.007625
78.630,45.7024,0.007625
78.649,45.7392,0.007625
78.676,45.7924,0.007625
78.695,45.8268,0.007145
78.710,45.8556,0.007145
78.727,45.8867,0.007145
78.742,45.9155,0.007145
78.758,45.9457,0.007145
78.775,45.9757,0.007145
78.790,46.0048,0.007145
78.807,46.0349,0.007145
78.831,46.0778,0.007145
78.848,46.1073,0.007145
78.863,46.1347,0.007145
78.879,46.1636,0.007145
78.896,46.1922,0.007145
78.911,46.2191,0.007145
78.928,46.2472,0.006815
78.943,46.2738,0.006815
78.959,46.3015,0.006815
78.976,46.3291,0.006815
78.992,46.3566,0.006815
79.015,46.3952,0.006815
79.031,46.4214,0.006815
79.062,46.4720,0.006815
79.093,46.5222,0.006815
79.124,46.5701,0.006815
79.141,46.5967,0.006815
79.171,46.6441,0.006288
79.187,46.6672,0.006288
79.217,46.7143,0.006288
79.249,46.7602,0.006288
79.264,46.7829,0.006288
79.280,46.8063,0.006288
79.297,46.8324,0.006288
79.326,46.8719,0.006288
79.354,46.9119,0.006288
79.370,46.9347,0.006288
79.386,46.9560,0.006288
79.402,46.9786,0.006288
79.419,47.0007,0.006288
79.450,47.0426,0.005817
79.466,47.0632,0.005817
79.482,47.0843,0.005817
79.498,47.1056,0.005817
79.515,47.1267,0.005817
79.531,47.1465,0.005817
79.558,47.1807,0.005817
79.578,47.2059,0.005817
79.594,47.2250,0.005817
79.610,47.2450,0.005817
79.626,47.2633,0.005817
79.642,47.2828,0.005817
79.658,47.3025,0.005817
79.674,47.3195,0.005535
79.690,47.3385,0.005535
79.707,47.3572,0.005535
79.728,47.3812,0.005535
79.759,47.4156,0.005535
79.791,47.4490,0.005535
79.806,47.4654,0.005535
79.836,47.4980,0.005535
79.852,47.5130,0.005535
79.868,47.5290,0.005535
79.889,47.5513,0.005535
79.915,47.5764,0.005535
79.944,47.6043,0.005535
79.960,47.6190,0.005309
79.990,47.6470,0.005309
80.006,47.6618,0.005309
80.036,47.6886,0.005309
80.067,47.7149,0.005309
80.098,47.7413,0.005309
80.129,47.7661,0.005309
80.145,47.7793,0.005309
80.161,47.7919,0.005055
80.177,47.8045,0.005055
80.199,47.8219,0.005055
80.224,47.8406,0.005055
80.242,47.8531,0.005055
80.269,47.8727,0.005055
80.289,47.8864,0.005055
80.305,47.8972,0.005055
80.321,47.9085,0.005055
80.337,47.9187,0.005055
80.353,47.9294,0.005055
80.369,47.9390,0.005055
80.385,47.9491,0.005055
80.401,47.9587,0.005055
80.417,47.9683,0.005055
80.440,47.9819,0.004707
80.456,47.9911,0.004707
80.472,48.0000,0.004707
80.488,48.0089,0.004707
80.504,48.0175,0.004707
80.520,48.0253,0.004707
80.536,48.0335,0.004707
80.552,48.0415,0.004707
80.569,48.0495,0.004707
80.585,48.0572,0.004707
80.600,48.0643,0.004707
80.616,48.0716,0.004707
80.633,48.0787,0.004707
80.651,48.0866,0.004707
80.670,48.0942,0.004707
80.700,48.1057,0.003991
80.730,48.1169,0.003991
80.747,48.1228,0.003991
80.777,48.1326,0.003991
80.808,48.1421,0.003991
80.823,48.1468,0.003991
80.839,48.1511,0.003991
80.856,48.1554,0.003991
80.872,48.1594,0.003991
80.888,48.1635,0.003991
80.918,48.1701,0.002391
80.937,48.1741,0.002391
80.964,48.1793,0.002391
80.983,48.1825,0.002391
81.000,48.1851,0.002391
81.016,48.1873,0.002391
81.032,48.1894,0.002391
81.048,48.1915,0.002391
81.064,48.1932,0.002391
81.079,48.1946,0.002391
81.095,48.1960,0.002391
81.111,48.1972,0.002391
81.127,48.1981,0.002391
81.143,48.1989,0.002391
81.159,48.1995,0.000292
81.175,48.1998,0.000292
81.191,48.2001,0.000292
81.207,48.2001,0.000292
81.223,48.2001,0.000292
81.240,48.2001,0.000292
81.255,48.2001,0.000292
81.271,48.2001,0.000292
81.288,48.2001,0.000292
81.305,48.2001,0.000292
81.321,48.2001,0.000292
81.336,48.2001,0.000292
81.351,48.2001,0.000292
81.369,48.2001,0.000292
81.398,48.2001,0.000273
81.416,48.2001,0.000273
81.446,48.2001,0.000273
81.463,48.2001,0.000273
81.480,48.2001,0.000273
81.495,48.2001,0.000273
81.512,48.2001,0.000273
81.537,48.2001,0.000273
81.553,48.2001,0.000273
81.569,48.2001,0.000273
81.584,48.2001,0.000273
81.607,48.2001,0.000273
81.630,48.2001,0.000273
81.648,48.2001,0.000273
81.664,48.2001,0.000273
81.681,48.2001,0.000273
81.696,48.2001,0.002014
81.712,48.2001,0.002014
81.728,48.2001,0.002014
81.745,48.2001,0.002014
81.761,48.2001,0.002014
81.776,48.2001,0.002014
81.792,48.2001,0.002014
81.808,48.2001,0.002014
81.824,48.2001,0.002014
81.841,48.2001,0.002014
81.857,48.2001,0.002014
81.873,48.2001,0.002014
81.888,48.2001,0.002014
81.904,48.2001,0.002014
81.920,48.2001,0.002014
81.937,48.2001,0.003125
81.952,48.2001,0.003125
81.972,48.2001,0.003125
81.999,48.2001,0.003125
82.016,48.2001,0.003125
82.032,48.2001,0.003125
82.049,48.2001,0.003125
82.064,48.2001,0.003125
82.091,48.2001,0.003125
82.107,48.2001,0.003125
82.123,48.2001,0.003125
82.139,48.2001,0.003125
82.156,48.2001,0.003125
82.186,48.2001,0.003652
82.203,48.2001,0.003652
82.220,48.2001,0.003652
82.248,48.2001,0.003652
82.267,48.2001,0.003652
82.285,48.2001,0.003652
82.310,48.2001,0.003652
82.325,48.2001,0.003652
82.363,48.2001,0.003652
82.380,48.2001,0.003652
82.395,48.2001,0.003652
82.411,48.2001,0.003652
82.427,48.2001,0.003859
82.444,48.2001,0.003859
82.459,48.2001,0.003859
82.476,48.2001,0.003859
82.491,48.2001,0.003859
82.507,48.2001,0.003859
82.523,48.2001,0.003859
82.539,48.2001,0.003859
82.556,48.2001,0.003859
82.571,48.2001,0.003859
82.588,48.2001,0.003859
82.604,48.2001,0.003859
82.633,48.2001,0.003859
82.651,48.2001,0.003859
82.667,48.2001,0.003859
82.683,48.2001,0.004010
82.699,48.2001,0.004010
82.715,48.2001,0.004010
82.731,48.2001,0.004010
82.748,48.2001,0.004010
82.764,48.2001,0.004010
82.782,48.2001,0.004010
82.797,48.2001,0.004010
82.819,48.2001,0.004010
82.835,48.2001,0.004010
82.865,48.2001,0.004010
82.897,48.2001,0.004010
82.912,48.2001,0.004010
82.944,48.2001,0.004132
82.980,48.2001,0.004132
83.006,48.2001,0.004132
83.037,48.2001,0.004132
83.067,48.2001,0.004132
83.084,48.2001,0.004132
83.114,48.2001,0.004132
83.131,48.2001,0.004132
83.149,48.2001,0.004132
83.174,48.2001,0.004132
83.192,48.2001,0.004132
83.207,48.2001,0.004132
83.239,48.2001,0.004208
83.269,48.2001,0.004208
83.285,48.2001,0.004208
83.301,48.2001,0.004208
83.317,48.2001,0.004208
83.333,48.2001,0.004208
83.349,48.2001,0.004208
83.365,48.2001,0.004208
83.381,48.2001,0.004208
83.397,48.2001,0.004208
83.413,48.2001,0.004208
83.429,48.2001,0.004208
83.445,48.2001,0.004274
83.461,48.2001,0.004274
83.478,48.2001,0.004274
83.493,48.2001,0.004274
83.509,48.2001,0.004274
83.525,48.2001,0.004274
83.541,48.2001,0.004274
83.557,48.2001,0.004274
83.573,48.2001,0.004274
83.589,48.2001,0.004274
83.606,48.2001,0.004274
83.626,48.2001,0.004274
83.642,48.2001,0.004274
83.672,48.2001,0.004274
83.688,48.2001,0.004274
83.704,48.2001,0.004274
83.720,48.2001,0.004330
83.751,48.2001,0.004330
83.782,48.2001,0.004330
83.797,48.2001,0.004330
83.813,48.2001,0.004330
83.829,48.2001,0.004330
83.852,48.2001,0.004330
83.876,48.2001,0.004330
83.893,48.2001,0.004330
83.909,48.2001,0.004330
83.925,48.2001,0.004330
83.941,48.2001,0.004330
83.957,48.2001,0.004330
83.973,48.2001,0.004330
83.988,48.2001,0.004330
84.005,48.2001,0.004330
84.021,48.2001,0.004330
84.037,48.2001,0.004330
84.053,48.2001,0.004330
84.068,48.2001,0.004330
84.085,48.2001,0.004330
84.101,48.2001,0.004330
84.116,48.2001,0.004330
84.133,48.2001,0.004330
84.149,48.2001,0.004330
84.165,48.2001,0.004330
84.181,48.2001,0.004330
84.197,48.2001,0.004330
84.213,48.2001,0.004330
84.238,48.2001,0.004330
84.253,48.2001,0.004330
84.269,48.2001,0.004330
84.286,48.2001,0.004330
84.301,48.2001,0.004330
84.317,48.2001,0.004330
84.334,48.2001,0.004330
84.350,48.2001,0.004330
84.369,48.2001,0.004330
84.385,48.2001,0.004330
84.415,48.2001,0.004330
84.430,48.2001,0.004330
84.445,48.2001,0.004377
84.463,48.2001,0.004377
84.492,48.2001,0.004377
84.510,48.2001,0.004377
84.526,48.2001,0.004377
84.542,48.2001,0.004377
84.558,48.2001,0.004377
84.574,48.2001,0.004377
84.590,48.2001,0.004377
84.605,48.2001,0.004377
84.621,48.2001,0.004377
84.639,48.2001,0.004377
84.662,48.2001,0.004377
84.693,48.2001,0.004368
84.724,48.2001,0.004368
84.755,48.2001,0.004368
84.776,48.2001,0.004368
84.801,48.2001,0.004368
84.832,48.2001,0.004368
84.848,48.2001,0.004368
84.863,48.2001,0.004368
84.879,48.2001,0.004368
84.895,48.2001,0.004368
84.913,48.2001,0.004368
84.941,48.2001,0.004292
84.972,48.2001,0.004292
84.987,48.2001,0.004292
85.019,48.2001,0.004292
85.049,48.2001,0.004292
85.065,48.2001,0.004292
85.080,48.2001,0.004292
85.096,48.2001,0.004292
85.111,48.2001,0.004292
85.127,48.2001,0.004292
85.144,48.2001,0.004292
85.160,48.2001,0.004292
85.175,48.2001,0.004085
85.191,48.2001,0.004085
85.208,48.2001,0.004085
85.223,48.2001,0.004085
85.239,48.2001,0.004085
85.256,48.2001,0.004085
85.275,48.2001,0.004085
85.296,48.2001,0.004085
85.328,48.2001,0.004085
85.348,48.2001,0.004085
85.365,48.2001,0.004085
85.381,48.2001,0.004085
85.396,48.2001,0.004085
85.413,48.2001,0.004085
85.428,48.2001,0.004085
85.445,48.2001,0.003803
85.460,48.2001,0.003803
85.476,48.1998,0.003803
85.492,48.1995,0.003803
85.508,48.1990,0.003803
85.525,48.1981,0.003803
85.546,48.1967,0.003803
85.575,48.1945,0.003803
85.606,48.1912,0.003803
85.636,48.1874,0.003803
85.654,48.1848,0.003803
85.684,48.1799,0.003737
85.700,48.1769,0.003737
85.716,48.1738,0.003737
85.733,48.1705,0.003737
85.748,48.1671,0.003737
85.764,48.1635,0.003737
85.780,48.1595,0.003737
85.796,48.1554,0.003737
85.812,48.1511,0.003737
85.828,48.1469,0.003737
85.847,48.1413,0.003737
85.869,48.1344,0.003737
85.901,48.1242,0.003737
85.932,48.1134,0.011013
85.962,48.1016,0.011013
85.993,48.0898,0.011013
86.010,48.0828,0.011013
86.038,48.0702,0.011013
86.069,48.0564,0.011013
86.100,48.0413,0.011013
86.116,48.0337,0.011013
86.133,48.0247,0.011013
86.163,48.0093,0.018713
86.180,47.9999,0.018713
86.197,47.9906,0.018713
86.212,47.9818,0.018713
86.228,47.9728,0.018713
86.244,47.9633,0.018713
86.260,47.9537,0.018713
86.276,47.9439,0.018713
86.292,47.9334,0.018713
86.308,47.9233,0.018713
86.324,47.9125,0.018713
86.340,47.9023,0.018713
86.356,47.8910,0.018713
86.372,47.8805,0.018713
86.390,47.8672,0.018713
86.412,47.8522,0.018713
86.427,47.8407,0.018713
86.451,47.8224,0.012849
86.469,47.8092,0.012849
86.489,47.7940,0.012849
86.505,47.7811,0.012849
86.535,47.7567,0.012849
86.551,47.7439,0.012849
86.566,47.7312,0.012849
86.597,47.7045,0.012849
86.613,47.6911,0.012849
86.628,47.6771,0.012849
86.644,47.6633,0.012849
86.664,47.6443,0.012849
86.690,47.6213,0.005902
86.707,47.6050,0.005902
86.723,47.5892,0.005902
86.739,47.5744,0.005902
86.755,47.5582,0.005902
86.771,47.5425,0.005902
86.787,47.5266,0.005902
86.804,47.5098,0.005902
86.819,47.4932,0.005902
86.836,47.4765,0.005902
86.859,47.4520,0.005902
86.890,47.4187,0.005902
86.920,47.3849,0.005375
86.951,47.3504,0.005375
86.975,47.3234,0.005375
86.992,47.3035,0.005375
87.007,47.2863,0.005375
87.023,47.2671,0.005375
87.039,47.2478,0.005375
87.055,47.2291,0.005375
87.071,47.2096,0.005375
87.087,47.1899,0.005375
87.103,47.1702,0.005375
87.119,47.1500,0.005375
87.135,47.1295,0.005375
87.151,47.1086,0.005375
87.166,47.0888,0.005431
87.183,47.0675,0.005431
87.198,47.0459,0.005431
87.215,47.0249,0.005431
87.231,47.0038,0.005431
87.247,46.9826,0.005431
87.268,46.9507,0.005431
87.293,46.9170,0.005431
87.311,46.8931,0.005431
87.326,46.8712,0.005431
87.343,46.8481,0.005431
87.358,46.8258,0.005431
87.374,46.8027,0.005431
87.392,46.7766,0.005431
87.415,46.7426,0.005431
87.446,46.6953,0.005591
87.477,46.6491,0.005591
87.493,46.6254,0.005591
87.517,46.5872,0.005591
87.533,46.5627,0.005591
87.549,46.5376,0.005591
87.565,46.5114,0.005591
87.587,46.4756,0.005591
87.616,46.4292,0.005591
87.646,46.3778,0.005591
87.677,46.3275,0.005883
87.694,46.2983,0.005883
87.723,46.2485,0.005883
87.741,46.2192,0.005883
87.757,46.1902,0.005883
87.772,46.1643,0.005883
87.788,46.1359,0.005883
87.804,46.1074,0.005883
87.820,46.0781,0.005883
87.837,46.0493,0.005883
87.852,46.0214,0.005883
87.869,45.9912,0.005883
87.884,45.9623,0.005883
87.900,45.9327,0.005883
87.916,45.9036,0.006297
87.932,45.8734,0.006297
87.949,45.8417,0.006297
87.965,45.8124,0.006297
87.981,45.7819,0.006297
87.997,45.7510,0.006297
88.013,45.7199,0.006297
88.029,45.6892,0.006297
88.044,45.6584,0.006297
88.066,45.6150,0.006297
88.082,45.5822,0.006297
88.098,45.5515,0.006297
88.114,45.5191,0.006297
88.131,45.4853,0.006297
88.146,45.4545,0.006297
88.163,45.4210,0.006806
88.178,45.3889,0.006806
88.195,45.3535,0.006806
88.211,45.3220,0.006806
88.226,45.2894,0.006806
88.242,45.2553,0.006806
88.258,45.2215,0.006806
88.274,45.1873,0.006806
88.290,45.1525,0.006806
88.306,45.1174,0.006806
88.323,45.0844,0.006806
88.338,45.0523,0.006806
88.354,45.0186,0.006806
88.370,44.9854,0.006806
88.387,44.9501,0.006806
88.418,44.8874,0.007258
88.435,44.8536,0.007258
88.451,44.8211,0.007258
88.467,44.7888,0.007258
88.483,44.7563,0.007258
88.498,44.7258,0.007258
88.515,44.6941,0.007258
88.530,44.6632,0.007258
88.546,44.6324,0.007258
88.562,44.6012,0.007258
88.578,44.5708,0.007258
88.594,44.5400,0.007258
88.619,44.4922,0.007258
88.648,44.4387,0.007691
88.666,44.4047,0.007691
88.683,44.3751,0.007691
88.698,44.3467,0.007691
88.714,44.3177,0.007691
88.730,44.2888,0.007691
88.747,44.2591,0.007691
88.762,44.2313,0.007691
88.778,44.2029,0.007691
88.794,44.1753,0.007691
88.810,44.1464,0.007691
88.826,44.1186,0.007691
88.842,44.0913,0.007691
88.858,44.0648,0.007691
88.874,44.0363,0.007691
88.890,44.0107,0.007691
88.906,43.9833,0.008265
88.922,43.9569,0.008265
88.938,43.9308,0.008265
88.954,43.9049,0.008265
88.970,43.8789,0.008265
88.989,43.8480,0.008265
89.018,43.8010,0.008265
89.034,43.7763,0.008265
89.051,43.7488,0.008265
89.081,43.7030,0.008265
89.098,43.6777,0.008265
89.114,43.6531,0.008265
89.130,43.6291,0.008265
89.146,43.6048,0.008265
89.175,43.5630,0.008924
89.191,43.5398,0.008924
89.207,43.5168,0.008924
89.223,43.4937,0.008924
89.239,43.4708,0.008924
89.255,43.4483,0.008924
89.271,43.4262,0.008924
89.287,43.4042,0.008924
89.307,43.3753,0.008924
89.330,43.3447,0.008924
89.351,43.3174,0.008924
89.367,43.2958,0.008924
89.383,43.2754,0.008924
89.399,43.2547,0.009460
89.416,43.2328,0.009460
89.431,43.2130,0.009460
89.447,43.1935,0.009460
89.463,43.1736,0.009460
89.479,43.1528,0.009460
89.495,43.1339,0.009460
89.511,43.1143,0.009460
89.527,43.0949,0.009460
89.543,43.0753,0.009460
89.559,43.0575,0.009460
89.575,43.0390,0.009460
89.591,43.0190,0.009460
89.608,43.0000,0.009460
89.625,42.9816,0.009460
89.656,42.9458,0.009460
89.686,42.9140,0.009460
89.717,42.8814,0.009931
89.733,42.8645,0.009931
89.749,42.8482,0.009931
89.765,42.8321,0.009931
89.781,42.8148,0.009931
89.797,42.8000,0.009931
89.813,42.7842,0.009931
89.829,42.7689,0.009931
89.850,42.7474,0.009931
89.873,42.7260,0.009931
89.893,42.7077,0.009931
89.910,42.6922,0.009931
89.925,42.6787,0.009931
89.941,42.6648,0.010317
89.957,42.6512,0.010317
89.974,42.6360,0.010317
89.989,42.6234,0.010317
90.004,42.6105,0.010317
90.021,42.5965,0.010317
90.037,42.5834,0.010317
90.052,42.5709,0.010317
90.069,42.5580,0.010317
90.085,42.5456,0.010317
90.101,42.5336,0.010317
90.116,42.5216,0.010317
90.133,42.5097,0.010317
90.149,42.4971,0.010317
90.164,42.4865,0.010317
90.181,42.4746,0.010562
90.212,42.4536,0.010562
90.230,42.4413,0.010562
90.258,42.4228,0.010562
90.276,42.4112,0.010562
90.293,42.4011,0.010562
90.308,42.3915,0.010562
90.324,42.3820,0.010562
90.341,42.3722,0.010562
90.356,42.3634,0.010562
90.372,42.3543,0.010562
90.388,42.3456,0.010562
90.405,42.3370,0.010562
90.421,42.3282,0.010562
90.436,42.3203,0.010788
90.453,42.3121,0.010788
90.469,42.3041,0.010788
90.484,42.2968,0.010788
90.500,42.2895,0.010788
90.516,42.2823,0.010788
90.533,42.2750,0.010788
90.548,42.2683,0.010788
90.564,42.2617,0.010788
90.581,42.2549,0.010788
90.596,42.2488,0.010788
90.613,42.2425,0.010788
90.628,42.2368,0.010788
90.644,42.2311,0.010788
90.661,42.2254,0.010788
90.676,42.2204,0.010966
90.693,42.2151,0.010966
90.710,42.2100,0.010966
90.739,42.2015,0.010966
90.757,42.1966,0.010966
90.773,42.1924,0.010966
90.796,42.1866,0.010966
90.812,42.1831,0.010966
90.827,42.1798,0.010966
90.844,42.1763,0.010966
90.860,42.1733,0.010966
90.875,42.1704,0.010966
90.892,42.1677,0.010966
90.908,42.1650,0.010966
90.924,42.1628,0.011089
90.955,42.1588,0.011089
90.976,42.1566,0.011089
91.002,42.1543,0.011089
91.019,42.1531,0.011089
91.035,42.1521,0.011089
91.051,42.1513,0.011089
91.067,42.1507,0.011089
91.084,42.1504,0.011089
91.100,42.1501,0.011089
91.116,42.1501,0.011089
91.131,42.1501,0.011089
91.151,42.1501,0.011089
91.174,42.1501,0.011089
91.204,42.1501,0.011183
91.235,42.1501,0.011183
91.265,42.1501,0.011183
91.296,42.1501,0.011183
91.328,42.1501,0.011183
91.358,42.1501,0.011183
91.389,42.1501,0.011183
91.420,42.1501,0.011239
91.435,42.1501,0.011239
91.453,42.1501,0.011239
91.482,42.1501,0.011239
91.499,42.1501,0.011239
91.515,42.1501,0.011239
91.531,42.1501,0.011239
91.547,42.1501,0.011239
91.563,42.1501,0.011239
91.580,42.1501,0.011239
91.595,42.1501,0.011239
91.611,42.1501,0.011239
91.627,42.1501,0.011239
91.643,42.1501,0.011239
91.659,42.1501,0.011239
91.675,42.1501,0.011305
91.691,42.1501,0.011305
91.708,42.1501,0.011305
91.723,42.1501,0.011305
91.739,42.1501,0.011305
91.755,42.1501,0.011305
91.771,42.1501,0.011305
91.787,42.1501,0.011305
91.803,42.1501,0.011305
91.819,42.1501,0.011305
91.846,42.1501,0.011305
91.862,42.1502,0.011305
91.878,42.1504,0.011305
91.894,42.1509,0.011305
91.910,42.1515,0.011305
91.926,42.1523,0.011352
91.943,42.1535,0.011352
91.963,42.1549,0.011352
91.979,42.1564,0.011352
91.994,42.1580,0.011352
92.010,42.1599,0.011352
92.042,42.1641,0.011352
92.057,42.1665,0.011352
92.088,42.1717,0.011352
92.119,42.1775,0.011352
92.136,42.1811,0.011352
92.166,42.1881,0.011268
92.182,42.1919,0.011268
92.198,42.1960,0.011268
92.214,42.2005,0.011268
92.230,42.2048,0.011268
92.246,42.2096,0.011268
92.263,42.2147,0.011268
92.290,42.2237,0.011268
92.310,42.2304,0.011268
92.326,42.2362,0.011268
92.342,42.2420,0.011268
92.358,42.2480,0.011268
92.382,42.2573,0.011268
92.398,42.2641,0.011268
92.414,42.2707,0.011145
92.430,42.2775,0.011145
92.446,42.2847,0.011145
92.462,42.2920,0.011145
92.478,42.2994,0.011145
92.495,42.3076,0.011145
92.512,42.3161,0.011145
92.538,42.3291,0.011145
92.558,42.3400,0.011145
92.574,42.3489,0.011145
92.590,42.3576,0.011145
92.606,42.3663,0.011145
92.622,42.3758,0.011145
92.638,42.3856,0.011145
92.654,42.3947,0.011145
92.670,42.4045,0.011051
92.686,42.4145,0.011051
92.702,42.4252,0.011051
92.718,42.4355,0.011051
92.734,42.4457,0.011051
92.751,42.4574,0.011051
92.768,42.4695,0.011051
92.799,42.4910,0.011051
92.814,42.5018,0.011051
92.830,42.5140,0.011051
92.846,42.5257,0.011051
92.862,42.5377,0.011051
92.878,42.5507,0.011051
92.894,42.5629,0.011051
92.910,42.5754,0.011051
92.936,42.5963,0.010844
92.952,42.6097,0.010844
92.967,42.6230,0.010844
92.984,42.6374,0.010844
92.999,42.6512,0.010844
93.016,42.6647,0.010844
93.031,42.6786,0.010844
93.048,42.6931,0.010844
93.070,42.7148,0.010844
93.094,42.7371,0.010844
93.112,42.7530,0.010844
93.127,42.7680,0.010844
93.144,42.7840,0.010844
93.160,42.7997,0.010609
93.176,42.8154,0.010609
93.192,42.8330,0.010609
93.215,42.8559,0.010609
93.230,42.8714,0.010609
93.262,42.9053,0.010609
93.293,42.9380,0.010609
93.323,42.9723,0.010609
93.354,43.0064,0.010609
93.385,43.0422,0.010609
93.415,43.0773,0.010364
93.433,43.0991,0.010364
93.461,43.1340,0.010364
93.492,43.1713,0.010364
93.508,43.1914,0.010364
93.525,43.2121,0.010364
93.541,43.2331,0.010364
93.557,43.2538,0.010364
93.573,43.2735,0.010364
93.588,43.2942,0.010364
93.604,43.3152,0.010364
93.622,43.3409,0.010364
93.645,43.3714,0.010364
93.661,43.3912,0.010053
93.677,43.4132,0.010053
93.693,43.4364,0.010053
93.724,43.4798,0.010053
93.740,43.5022,0.010053
93.756,43.5258,0.010053
93.771,43.5475,0.010053
93.803,43.5936,0.010053
93.833,43.6390,0.010053
93.849,43.6637,0.010053
93.880,43.7108,0.010053
93.911,43.7581,0.009601
93.928,43.7849,0.009601
93.957,43.8321,0.009601
93.972,43.8554,0.009601
93.990,43.8843,0.009601
94.019,43.9321,0.009601
94.050,43.9828,0.009601
94.067,44.0102,0.009601
94.082,44.0366,0.009601
94.098,44.0634,0.009601
94.122,44.1041,0.009601
94.143,44.1419,0.009601
94.163,44.1748,0.009084
94.179,44.2036,0.009084
94.195,44.2321,0.009084
94.211,44.2606,0.009084
94.226,44.2874,0.009084
94.245,44.3232,0.009084
94.267,44.3617,0.009084
94.298,44.4191,0.009084
94.331,44.4801,0.009084
94.361,44.5372,0.009084
94.377,44.5671,0.009084
94.407,44.6260,0.008519
94.439,44.6887,0.008519
94.455,44.7186,0.008519
94.485,44.7793,0.008519
94.502,44.8130,0.008519
94.531,44.8703,0.008519
94.546,44.9027,0.008519
94.572,44.9564,0.008519
94.588,44.9889,0.008519
94.604,45.0213,0.008519
94.620,45.0566,0.008519
94.636,45.0883,0.008519
94.652,45.1222,0.007832
94.669,45.1576,0.007832
94.685,45.1919,0.007832
94.700,45.2244,0.007832
94.718,45.2610,0.007832
94.747,45.3219,0.007832
94.764,45.3574,0.007832
94.780,45.3920,0.007832
94.796,45.4230,0.007832
94.812,45.4546,0.007832
94.828,45.4868,0.007832
94.848,45.5273,0.007832
94.870,45.5717,0.007832
94.892,45.6143,0.007832
94.908,45.6462,0.007832
94.924,45.6761,0.007276
94.940,45.7071,0.007276
94.956,45.7382,0.007276
94.972,45.7696,0.007276
94.988,45.7986,0.007276
95.004,45.8293,0.007276
95.020,45.8588,0.007276
95.036,45.8884,0.007276
95.052,45.9178,0.007276
95.068,45.9470,0.007276
95.085,45.9785,0.007276
95.110,46.0242,0.007276
95.132,46.0619,0.007276
95.162,46.1161,0.006872
95.193,46.1697,0.006872
95.223,46.2216,0.006872
95.238,46.2483,0.006872
95.254,46.2748,0.006872
95.270,46.3013,0.006872
95.286,46.3291,0.006872
95.301,46.3523,0.006872
95.317,46.3791,0.006872
95.333,46.4055,0.006872
95.350,46.4325,0.006872
95.365,46.4565,0.006872
95.381,46.4820,0.006872
95.397,46.5068,0.006872
95.421,46.5455,0.006872
95.443,46.5782,0.006872
95.461,46.6059,0.006401
95.477,46.6307,0.006401
95.493,46.6544,0.006401
95.509,46.6788,0.006401
95.525,46.7038,0.006401
95.545,46.7334,0.006401
95.565,46.7607,0.006401
95.580,46.7833,0.006401
95.612,46.8290,0.006401
95.643,46.8719,0.006401
95.664,46.9007,0.005930
95.680,46.9236,0.005930
95.696,46.9442,0.005930
95.712,46.9659,0.005930
95.728,46.9885,0.005930
95.744,47.0090,0.005930
95.760,47.0291,0.005930
95.776,47.0502,0.005930
95.792,47.0711,0.005930
95.808,47.0912,0.005930
95.824,47.1110,0.005930
95.840,47.1314,0.005930
95.856,47.1509,0.005930
95.872,47.1706,0.005930
95.888,47.1903,0.005930
95.904,47.2093,0.005930
95.920,47.2287,0.005930
95.936,47.2467,0.005620
95.952,47.2657,0.005620
95.967,47.2837,0.005620
95.983,47.3022,0.005620
96.000,47.3206,0.005620
96.015,47.3378,0.005620
96.033,47.3576,0.005620
96.048,47.3734,0.005620
96.064,47.3902,0.005620
96.080,47.4075,0.005620
96.095,47.4242,0.005620
96.112,47.4413,0.005620
96.127,47.4574,0.005620
96.144,47.4734,0.005620
96.165,47.4953,0.005620
96.189,47.5186,0.005394
96.204,47.5338,0.005394
96.221,47.5495,0.005394
96.237,47.5651,0.005394
96.253,47.5796,0.005394
96.268,47.5940,0.005394
96.285,47.6088,0.005394
96.301,47.6236,0.005394
96.317,47.6380,0.005394
96.333,47.6515,0.005394
96.349,47.6653,0.005394
96.364,47.6788,0.005394
96.380,47.6918,0.005394
96.396,47.7051,0.005394
96.413,47.7191,0.005045
96.433,47.7348,0.005045
96.449,47.7477,0.005045
96.465,47.7598,0.005045
96.496,47.7833,0.005045
96.526,47.8055,0.005045
96.542,47.8169,0.005045
96.557,47.8278,0.005045
96.573,47.8384,0.005045
96.588,47.8487,0.005045
96.604,47.8594,0.005045
96.621,47.8703,0.005045
96.636,47.8802,0.005045
96.653,47.8907,0.004725
96.669,47.9012,0.004725
96.684,47.9101,0.004725
96.701,47.9201,0.004725
96.726,47.9344,0.004725
96.742,47.9436,0.004725
96.757,47.9524,0.004725
96.773,47.9609,0.004725
96.792,47.9707,0.004725
96.819,47.9845,0.004725
96.837,47.9936,0.004725
96.854,48.0018,0.004725
96.870,48.0089,0.004725
96.885,48.0159,0.004725
96.901,48.0230,0.004725
96.919,48.0311,0.004142
96.934,48.0371,0.004142
96.960,48.0474,0.004142
96.991,48.0593,0.004142
97.007,48.0652,0.004142
97.038,48.0761,0.004142
97.068,48.0857,0.004142
97.100,48.0954,0.004142
97.131,48.1037,0.004142
97.161,48.1115,0.004142
97.178,48.1154,0.004142
97.207,48.1218,0.002673
97.223,48.1249,0.002673
97.239,48.1279,0.002673
97.269,48.1332,0.002673
97.285,48.1357,0.002673
97.302,48.1380,0.002673
97.317,48.1399,0.002673
97.333,48.1418,0.002673
97.349,48.1437,0.002673
97.365,48.1450,0.002673
97.381,48.1464,0.002673
97.398,48.1475,0.002673
97.419,48.1488,0.002673
97.440,48.1495,0.002673
97.461,48.1500,0.000461
97.477,48.1501,0.000461
97.493,48.1501,0.000461
97.509,48.1501,0.000461
97.525,48.1501,0.000461
97.541,48.1501,0.000461
97.557,48.1501,0.000461
97.573,48.1501,0.000461
97.589,48.1501,0.000461
97.605,48.1501,0.000461
97.621,48.1501,0.000461
97.637,48.1501,0.000461
97.653,48.1501,0.000461
97.669,48.1501,0.000461
