Elapsed Time (s),Position (mm),Force (N)
-0.016,62.9501,0.000537
0.001,62.9501,0.000537
0.016,62.9501,0.000537
0.033,62.9501,0.000537
0.048,62.9501,0.000537
0.064,62.9501,0.000537
0.080,62.9501,0.000537
0.096,62.9501,0.000537
0.112,62.9501,0.000574
0.128,62.9501,0.000574
0.146,62.9501,0.000574
0.171,62.9501,0.000574
0.192,62.9501,0.000574
0.210,62.9501,0.000574
0.234,62.9501,0.000574
0.249,62.9501,0.000574
0.270,62.9501,0.000574
0.286,62.9501,0.000574
0.302,62.9501,0.000574
0.318,62.9501,0.000574
0.335,62.9501,0.000574
0.351,62.9501,0.000574
0.374,62.9501,0.000631
0.389,62.9501,0.000631
0.420,62.9501,0.000631
0.451,62.9501,0.000631
0.467,62.9501,0.000631
0.498,62.9501,0.000631
0.529,62.9501,0.000631
0.560,62.9501,0.000631
0.576,62.9501,0.000631
0.592,62.9501,0.000631
0.622,62.9501,0.000631
0.639,62.9501,0.000631
0.669,62.9501,0.000631
0.686,62.9501,0.000631
0.702,62.9501,0.000631
0.718,62.9501,0.000631
0.734,62.9501,0.000631
0.750,62.9501,0.000631
0.766,62.9501,0.000631
0.782,62.9501,0.000631
0.798,62.9501,0.000631
0.823,62.9501,0.000631
0.839,62.9501,0.000631
0.855,62.9501,0.000593
0.870,62.9501,0.000593
0.890,62.9501,0.000593
0.917,62.9501,0.000593
0.935,62.9501,0.000593
0.952,62.9501,0.000593
0.967,62.9501,0.000593
0.983,62.9501,0.000593
0.999,62.9501,0.000593
1.018,62.9501,0.000593
1.044,62.9501,0.000593
1.063,62.9501,0.000593
1.079,62.9501,0.000593
1.095,62.9501,0.000593
1.111,62.9501,0.000574
1.127,62.9501,0.000574
1.144,62.9501,0.000574
1.164,62.9501,0.000574
1.180,62.9501,0.000574
1.213,62.9501,0.000574
1.241,62.9501,0.000574
1.258,62.9501,0.000574
1.289,62.9501,0.000574
1.319,62.9501,0.000574
1.349,62.9501,0.000574
1.365,62.9501,0.000574
1.381,62.9501,0.000584
1.397,62.9501,0.000584
1.413,62.9501,0.000584
1.429,62.9501,0.000584
1.446,62.9501,0.000584
1.473,62.9501,0.000584
1.493,62.9501,0.000584
1.509,62.9501,0.000584
1.524,62.9501,0.000584
1.541,62.9501,0.000584
1.557,62.9501,0.000584
1.573,62.9501,0.000584
1.590,62.9501,0.000584
1.613,62.9501,0.000621
1.628,62.9501,0.000621
1.661,62.9501,0.000621
1.691,62.9501,0.000621
1.721,62.9501,0.000621
1.751,62.9501,0.000621
1.767,62.9501,0.000621
1.783,62.9501,0.000621
1.813,62.9501,0.000621
1.829,62.9501,0.000621
1.845,62.9501,0.000621
1.874,62.9501,0.000631
1.890,62.9501,0.000631
1.905,62.9501,0.000631
1.921,62.9501,0.000631
1.944,62.9501,0.000631
1.966,62.9501,0.000631
1.984,62.9501,0.000631
2.001,62.9501,0.000631
2.028,62.9501,0.000631
2.048,62.9501,0.000631
2.064,62.9501,0.000631
2.080,62.9501,0.000631
2.097,62.9501,0.000631
2.113,62.9501,0.000602
2.128,62.9501,0.000602
2.144,62.9501,0.000602
2.160,62.9501,0.000602
2.177,62.9501,0.000602
2.193,62.9501,0.000602
2.208,62.9501,0.000602
2.224,62.9501,0.000602
2.241,62.9501,0.000602
2.256,62.9501,0.000602
2.272,62.9501,0.000602
2.288,62.9501,0.000602
2.305,62.9501,0.000602
2.320,62.9501,0.000602
2.336,62.9501,0.000602
2.360,62.9501,0.000602
2.385,62.9501,0.000602
2.400,62.9501,0.000602
2.416,62.9501,0.000602
2.440,62.9501,0.000574
2.456,62.9501,0.000574
2.472,62.9501,0.000574
2.487,62.9501,0.000574
2.503,62.9501,0.000574
2.519,62.9501,0.000574
2.535,62.9501,0.000574
2.551,62.9501,0.000574
2.568,62.9501,0.000574
2.583,62.9501,0.000574
2.599,62.9501,0.000574
2.618,62.9501,0.000574
2.645,62.9501,0.000574
2.663,62.9501,0.000574
2.680,62.9501,0.000574
2.695,62.9501,0.000574
2.712,62.9501,0.000574
2.727,62.9501,0.000574
2.744,62.9501,0.000574
2.759,62.9501,0.000574
2.775,62.9501,0.000574
2.791,62.9501,0.000574
2.810,62.9501,0.000574
2.832,62.9501,0.000574
2.861,62.9501,0.000574
2.892,62.9501,0.000574
2.907,62.9501,0.000602
2.938,62.9501,0.000602
2.953,62.9501,0.000602
2.981,62.9501,0.000602
2.996,62.9501,0.000602
3.013,62.9501,0.000602
3.028,62.9501,0.000602
3.044,62.9501,0.000602
3.060,62.9501,0.000602
3.076,62.9501,0.000602
3.092,62.9501,0.000602
3.110,62.9501,0.000602
3.139,62.9501,0.000602
3.156,62.9501,0.000602
3.172,62.9501,0.000602
3.188,62.9501,0.000602
3.204,62.9501,0.000602
3.220,62.9501,0.000602
3.240,62.9501,0.000602
3.263,62.9501,0.000602
3.284,62.9501,0.000602
3.300,62.9501,0.000602
3.316,62.9501,0.000602
3.332,62.9501,0.000602
3.348,62.9501,0.000602
3.364,62.9501,0.000602
3.380,62.9501,0.000602
3.396,62.9501,0.000602
3.412,62.9501,0.000602
3.428,62.9501,0.000602
3.444,62.9501,0.000602
3.460,62.9501,0.000602
3.476,62.9501,0.000602
3.492,62.9501,0.000602
3.508,62.9501,0.000602
3.539,62.9501,0.000602
3.554,62.9501,0.000602
3.570,62.9501,0.000602
3.586,62.9501,0.000602
3.606,62.9501,0.000602
3.625,62.9501,0.000602
3.648,62.9501,0.000621
3.666,62.9501,0.000621
3.682,62.9501,0.000621
3.698,62.9501,0.000621
3.714,62.9501,0.000621
3.730,62.9501,0.000621
3.746,62.9501,0.000621
3.763,62.9501,0.000621
3.778,62.9501,0.000621
3.794,62.9501,0.000621
3.810,62.9501,0.000621
3.826,62.9501,0.000621
3.842,62.9501,0.000621
3.858,62.9501,0.000621
3.874,62.9501,0.000537
3.890,62.9501,0.000537
3.906,62.9501,0.000537
3.922,62.9501,0.000537
3.938,62.9501,0.000537
3.954,62.9501,0.000537
3.970,62.9501,0.000537
3.986,62.9501,0.000537
4.002,62.9501,0.000537
4.018,62.9501,0.000537
4.034,62.9501,0.000537
4.050,62.9501,0.000537
4.066,62.9501,0.000537
4.082,62.9501,0.000537
4.098,62.9501,0.000537
4.114,62.9501,0.000537
4.130,62.9501,0.000461
4.146,62.9501,0.000461
4.163,62.9498,0.000461
4.189,62.9492,0.000461
4.210,62.9482,0.000461
4.226,62.9474,0.000461
4.242,62.9461,0.000461
4.257,62.9449,0.000461
4.274,62.9433,0.000461
4.290,62.9415,0.000461
4.305,62.9398,0.000461
4.322,62.9377,0.000461
4.337,62.9353,0.000461
4.356,62.9323,0.000461
4.376,62.9290,0.000461
4.392,62.9261,0.000659
4.422,62.9199,0.000659
4.437,62.9167,0.000659
4.468,62.9093,0.000659
4.484,62.9054,0.000659
4.500,62.9010,0.000659
4.531,62.8924,0.000659
4.547,62.8876,0.000659
4.577,62.8775,0.000659
4.595,62.8716,0.000659
4.624,62.8612,0.000659
4.652,62.8511,0.002137
4.667,62.8449,0.002137
4.683,62.8383,0.002137
4.699,62.8318,0.002137
4.716,62.8247,0.002137
4.732,62.8176,0.002137
4.748,62.8103,0.002137
4.764,62.8029,0.002137
4.781,62.7942,0.002137
4.809,62.7805,0.002137
4.827,62.7714,0.002137
4.843,62.7631,0.002137
4.860,62.7538,0.002137
4.876,62.7452,0.003295
4.891,62.7366,0.003295
4.907,62.7270,0.003295
4.924,62.7177,0.003295
4.939,62.7085,0.003295
4.955,62.6987,0.003295
4.971,62.6885,0.003295
4.987,62.6785,0.003295
5.003,62.6682,0.003295
5.019,62.6576,0.003295
5.035,62.6468,0.003295
5.051,62.6359,0.003295
5.068,62.6245,0.003295
5.084,62.6132,0.003295
5.099,62.6018,0.003295
5.115,62.5902,0.002024
5.131,62.5781,0.002024
5.147,62.5664,0.002024
5.173,62.5463,0.002024
5.189,62.5335,0.002024
5.206,62.5205,0.002024
5.222,62.5074,0.002024
5.245,62.4876,0.002024
5.276,62.4616,0.002024
5.307,62.4349,0.002024
5.323,62.4207,0.002024
5.338,62.4066,0.002024
5.354,62.3921,0.002024
5.369,62.3785,0.000885
5.385,62.3637,0.000885
5.402,62.3473,0.000885
5.432,62.3187,0.000885
5.447,62.3034,0.000885
5.477,62.2729,0.000885
5.493,62.2570,0.000885
5.509,62.2410,0.000885
5.528,62.2216,0.000885
5.557,62.1907,0.000885
5.573,62.1728,0.000885
5.590,62.1542,0.000885
5.617,62.1242,0.000857
5.637,62.1021,0.000857
5.656,62.0797,0.000857
5.679,62.0534,0.000857
5.709,62.0172,0.000857
5.741,61.9807,0.000857
5.773,61.9410,0.000857
5.802,61.9051,0.000857
5.833,61.8650,0.000857
5.848,61.8452,0.000857
5.864,61.8257,0.000828
5.895,61.7833,0.000828
5.926,61.7436,0.000828
5.941,61.7226,0.000828
5.958,61.6988,0.000828
5.974,61.6776,0.000828
6.003,61.6363,0.000828
6.022,61.6099,0.000828
6.041,61.5804,0.000828
6.066,61.5466,0.000828
6.085,61.5177,0.000828
6.101,61.4949,0.000828
6.117,61.4710,0.000819
6.133,61.4473,0.000819
6.149,61.4220,0.000819
6.165,61.3985,0.000819
6.181,61.3741,0.000819
6.198,61.3477,0.000819
6.228,61.2998,0.000819
6.244,61.2751,0.000819
6.260,61.2496,0.000819
6.276,61.2238,0.000819
6.292,61.1980,0.000819
6.308,61.1712,0.000819
6.324,61.1448,0.000819
6.340,61.1178,0.000819
6.356,61.0921,0.000744
6.372,61.0649,0.000744
6.389,61.0363,0.000744
6.404,61.0105,0.000744
6.420,60.9829,0.000744
6.436,60.9557,0.000744
6.453,60.9256,0.000744
6.468,60.8984,0.000744
6.484,60.8710,0.000744
6.500,60.8416,0.000744
6.517,60.8106,0.000744
6.532,60.7846,0.000744
6.548,60.7559,0.000744
6.564,60.7270,0.000744
6.580,60.6976,0.000744
6.596,60.6676,0.000744
6.612,60.6365,0.000687
6.628,60.6080,0.000687
6.645,60.5763,0.000687
6.660,60.5477,0.000687
6.677,60.5145,0.000687
6.703,60.4645,0.000687
6.725,60.4210,0.000687
6.749,60.3740,0.000687
6.765,60.3434,0.000687
6.787,60.2981,0.000687
6.811,60.2500,0.000687
6.842,60.1846,0.000687
6.873,60.1230,0.000687
6.888,60.0925,0.000734
6.904,60.0579,0.000734
6.920,60.0266,0.000734
6.950,59.9622,0.000734
6.965,59.9279,0.000734
6.981,59.8961,0.000734
6.997,59.8628,0.000734
7.027,59.7986,0.000734
7.043,59.7659,0.000734
7.074,59.7022,0.000734
7.091,59.6658,0.000734
7.121,59.6043,0.000772
7.138,59.5711,0.000772
7.154,59.5379,0.000772
7.171,59.5059,0.000772
7.200,59.4468,0.000772
7.223,59.4013,0.000772
7.246,59.3586,0.000772
7.266,59.3198,0.000772
7.282,59.2892,0.000772
7.297,59.2601,0.000772
7.314,59.2278,0.000772
7.338,59.1832,0.000772
7.354,59.1542,0.000772
7.369,59.1258,0.000725
7.385,59.0963,0.000725
7.402,59.0650,0.000725
7.418,59.0373,0.000725
7.433,59.0095,0.000725
7.450,58.9805,0.000725
7.466,58.9517,0.000725
7.481,58.9247,0.000725
7.498,58.8961,0.000725
7.515,58.8669,0.000725
7.530,58.8404,0.000725
7.546,58.8132,0.000725
7.561,58.7870,0.000725
7.578,58.7598,0.000725
7.593,58.7333,0.000725
7.609,58.7067,0.000725
7.625,58.6811,0.000753
7.641,58.6544,0.000753
7.659,58.6256,0.000753
7.679,58.5938,0.000753
7.710,58.5454,0.000753
7.725,58.5206,0.000753
7.741,58.4968,0.000753
7.757,58.4706,0.000753
7.787,58.4251,0.000753
7.803,58.4005,0.000753
7.834,58.3539,0.000753
7.849,58.3322,0.000753
7.865,58.3086,0.000753
7.893,58.2677,0.000810
7.910,58.2443,0.000810
7.925,58.2227,0.000810
7.942,58.1980,0.000810
7.965,58.1654,0.000810
7.987,58.1350,0.000810
8.005,58.1117,0.000810
8.022,58.0886,0.000810
8.037,58.0685,0.000810
8.054,58.0466,0.000810
8.070,58.0261,0.000810
8.086,58.0043,0.000810
8.113,57.9695,0.000810
8.133,57.9447,0.000810
8.154,57.9187,0.000810
8.176,57.8919,0.000810
8.206,57.8538,0.000810
8.237,57.8177,0.000810
8.268,57.7812,0.000810
8.300,57.7454,0.000810
8.330,57.7111,0.000810
8.362,57.6773,0.000913
8.378,57.6601,0.000913
8.393,57.6421,0.000913
8.416,57.6188,0.000913
8.434,57.6013,0.000913
8.455,57.5797,0.000913
8.486,57.5480,0.000913
8.501,57.5329,0.000913
8.532,57.5024,0.000913
8.563,57.4737,0.000913
8.579,57.4591,0.000913
8.610,57.4309,0.001045
8.626,57.4171,0.001045
8.642,57.4020,0.001045
8.672,57.3760,0.001045
8.688,57.3634,0.001045
8.704,57.3502,0.001045
8.720,57.3368,0.001045
8.736,57.3244,0.001045
8.752,57.3116,0.001045
8.768,57.2982,0.001045
8.784,57.2865,0.001045
8.800,57.2743,0.001045
8.816,57.2626,0.001045
8.832,57.2507,0.001045
8.848,57.2393,0.001045
8.864,57.2275,0.001130
8.880,57.2167,0.001130
8.897,57.2051,0.001130
8.920,57.1892,0.001130
8.951,57.1689,0.001130
8.981,57.1504,0.001130
9.013,57.1309,0.001130
9.044,57.1135,0.001130
9.073,57.0969,0.001130
9.089,57.0885,0.001130
9.104,57.0804,0.001195
9.120,57.0721,0.001195
9.137,57.0637,0.001195
9.168,57.0484,0.001195
9.184,57.0409,0.001195
9.200,57.0340,0.001195
9.216,57.0268,0.001195
9.235,57.0183,0.001195
9.259,57.0087,0.001195
9.280,57.0004,0.001195
9.296,56.9940,0.001195
9.312,56.9884,0.001195
9.328,56.9826,0.001195
9.344,56.9767,0.001195
9.366,56.9694,0.001195
9.383,56.9643,0.001195
9.398,56.9595,0.001261
9.414,56.9549,0.001261
9.444,56.9465,0.001261
9.474,56.9388,0.001261
9.490,56.9349,0.001261
9.505,56.9316,0.001261
9.536,56.9253,0.001261
9.552,56.9224,0.001261
9.568,56.9196,0.001261
9.584,56.9170,0.001261
9.600,56.9144,0.001261
9.616,56.9121,0.001261
9.632,56.9101,0.001290
9.648,56.9082,0.001290
9.664,56.9065,0.001290
9.680,56.9051,0.001290
9.696,56.9038,0.001290
9.712,56.9027,0.001290
9.729,56.9017,0.001290
9.752,56.9008,0.001290
9.768,56.9003,0.001290
9.798,56.9001,0.001290
9.828,56.9001,0.001290
9.858,56.9001,0.001290
9.888,56.9001,0.001261
9.905,56.9001,0.001261
9.935,56.9001,0.001261
9.952,56.9001,0.001261
9.967,56.9001,0.001261
9.984,56.9001,0.001261
9.999,56.9001,0.001261
10.026,56.9001,0.001261
10.043,56.9001,0.001261
10.058,56.9001,0.001261
10.074,56.9001,0.001261
10.091,56.9001,0.001261
10.107,56.9001,0.001261
10.123,56.9001,0.001356
10.138,56.9001,0.001356
10.155,56.9001,0.001356
10.183,56.9001,0.001356
10.202,56.9001,0.001356
10.219,56.9001,0.001356
10.234,56.9001,0.001356
10.251,56.9001,0.001356
10.266,56.9001,0.001356
10.282,56.9001,0.001356
10.298,56.9001,0.001356
10.314,56.9001,0.001356
10.331,56.9001,0.001356
10.347,56.9001,0.001356
10.363,56.9001,0.001356
10.378,56.9001,0.001450
10.395,56.9001,0.001450
10.411,56.9001,0.001450
10.426,56.9001,0.001450
10.443,56.9001,0.001450
10.458,56.9002,0.001450
10.475,56.9005,0.001450
10.490,56.9010,0.001450
10.506,56.9016,0.001450
10.523,56.9026,0.001450
10.547,56.9042,0.001450
10.563,56.9055,0.001450
10.578,56.9070,0.001450
10.595,56.9089,0.001450
10.610,56.9108,0.001431
10.626,56.9129,0.001431
10.642,56.9152,0.001431
10.659,56.9178,0.001431
10.674,56.9204,0.001431
10.691,56.9234,0.001431
10.706,56.9264,0.001431
10.722,56.9297,0.001431
10.738,56.9332,0.001431
10.754,56.9369,0.001431
10.770,56.9409,0.001431
10.787,56.9449,0.001431
10.802,56.9492,0.001431
10.818,56.9537,0.001431
10.835,56.9586,0.001431
10.850,56.9630,0.001431
10.866,56.9679,0.001346
10.882,56.9731,0.001346
10.899,56.9793,0.001346
10.915,56.9846,0.001346
10.943,56.9947,0.001346
10.963,57.0025,0.001346
10.979,57.0090,0.001346
10.994,57.0154,0.001346
11.010,57.0221,0.001346
11.027,57.0296,0.001346
11.052,57.0405,0.001346
11.067,57.0478,0.001346
11.088,57.0581,0.001346
11.105,57.0663,0.001346
11.120,57.0737,0.001280
11.136,57.0824,0.001280
11.152,57.0911,0.001280
11.168,57.0994,0.001280
11.184,57.1085,0.001280
11.200,57.1175,0.001280
11.216,57.1268,0.001280
11.233,57.1362,0.001280
11.248,57.1459,0.001280
11.264,57.1561,0.001280
11.287,57.1703,0.001280
11.317,57.1896,0.001280
11.332,57.2002,0.001280
11.363,57.2208,0.001243
11.378,57.2314,0.001243
11.409,57.2538,0.001243
11.440,57.2763,0.001243
11.459,57.2908,0.001243
11.486,57.3128,0.001243
11.504,57.3265,0.001243
11.527,57.3455,0.001243
11.548,57.3629,0.001243
11.568,57.3796,0.001243
11.584,57.3936,0.001243
11.600,57.4076,0.001243
11.616,57.4211,0.001243
11.638,57.4417,0.001158
11.655,57.4563,0.001158
11.671,57.4713,0.001158
11.687,57.4862,0.001158
11.703,57.5017,0.001158
11.719,57.5172,0.001158
11.736,57.5331,0.001158
11.751,57.5482,0.001158
11.767,57.5640,0.001158
11.783,57.5800,0.001158
11.799,57.5970,0.001158
11.815,57.6129,0.001158
11.833,57.6328,0.001158
11.856,57.6559,0.001158
11.888,57.6905,0.001073
11.904,57.7086,0.001073
11.935,57.7431,0.001073
11.950,57.7607,0.001073
11.981,57.7962,0.001073
12.013,57.8332,0.001073
12.028,57.8522,0.001073
12.059,57.8889,0.001073
12.075,57.9088,0.001073
12.105,57.9466,0.000988
12.136,57.9855,0.000988
12.151,58.0059,0.000988
12.167,58.0255,0.000988
12.192,58.0593,0.000988
12.209,58.0807,0.000988
12.225,58.1025,0.000988
12.241,58.1243,0.000988
12.257,58.1468,0.000988
12.273,58.1680,0.000988
12.289,58.1903,0.000988
12.305,58.2131,0.000988
12.321,58.2353,0.000988
12.337,58.2586,0.000988
12.353,58.2810,0.000857
12.369,58.3047,0.000857
12.385,58.3287,0.000857
12.401,58.3519,0.000857
12.417,58.3768,0.000857
12.433,58.3993,0.000857
12.449,58.4245,0.000857
12.465,58.4483,0.000857
12.481,58.4733,0.000857
12.497,58.4978,0.000857
12.512,58.5223,0.000857
12.529,58.5471,0.000857
12.545,58.5732,0.000857
12.560,58.5990,0.000857
12.576,58.6235,0.000857
12.593,58.6502,0.000857
12.609,58.6764,0.000857
12.625,58.7026,0.000819
12.641,58.7291,0.000819
12.657,58.7556,0.000819
12.673,58.7834,0.000819
12.688,58.8092,0.000819
12.705,58.8375,0.000819
12.728,58.8770,0.000819
12.743,58.9053,0.000819
12.759,58.9325,0.000819
12.776,58.9601,0.000819
12.791,58.9896,0.000819
12.808,59.0185,0.000819
12.823,59.0456,0.000819
12.839,59.0746,0.000819
12.856,59.1049,0.000819
12.872,59.1347,0.000847
12.895,59.1769,0.000847
12.926,59.2345,0.000847
12.957,59.2939,0.000847
12.973,59.3259,0.000847
12.989,59.3550,0.000847
13.020,59.4143,0.000847
13.036,59.4468,0.000847
13.066,59.5051,0.000847
13.097,59.5670,0.000847
13.113,59.5986,0.000847
13.143,59.6594,0.000744
13.160,59.6955,0.000744
13.176,59.7277,0.000744
13.191,59.7614,0.000744
13.207,59.7934,0.000744
13.224,59.8277,0.000744
13.239,59.8608,0.000744
13.256,59.8963,0.000744
13.279,59.9455,0.000744
13.295,59.9798,0.000744
13.311,60.0130,0.000744
13.327,60.0462,0.000744
13.347,60.0882,0.000744
13.375,60.1450,0.000678
13.391,60.1778,0.000678
13.407,60.2104,0.000678
13.423,60.2428,0.000678
13.440,60.2756,0.000678
13.455,60.3060,0.000678
13.471,60.3380,0.000678
13.488,60.3704,0.000678
13.504,60.4009,0.000678
13.519,60.4313,0.000678
13.536,60.4633,0.000678
13.552,60.4939,0.000678
13.575,60.5382,0.000678
13.606,60.5955,0.000678
13.636,60.6516,0.000725
13.651,60.6813,0.000725
13.682,60.7379,0.000725
13.699,60.7658,0.000725
13.729,60.8201,0.000725
13.744,60.8473,0.000725
13.775,60.9015,0.000725
13.791,60.9299,0.000725
13.807,60.9569,0.000725
13.835,61.0058,0.000725
13.858,61.0432,0.000725
13.885,61.0874,0.000715
13.915,61.1380,0.000715
13.930,61.1622,0.000715
13.946,61.1878,0.000715
13.963,61.2152,0.000715
13.993,61.2627,0.000715
14.010,61.2892,0.000715
14.027,61.3151,0.000715
14.054,61.3572,0.000715
14.074,61.3874,0.000715
14.091,61.4123,0.000715
14.107,61.4359,0.000715
14.122,61.4588,0.000697
14.138,61.4826,0.000697
14.154,61.5069,0.000697
14.170,61.5293,0.000697
14.186,61.5526,0.000697
14.202,61.5753,0.000697
14.219,61.5983,0.000697
14.235,61.6207,0.000697
14.250,61.6419,0.000697
14.266,61.6638,0.000697
14.282,61.6858,0.000697
14.298,61.7076,0.000697
14.314,61.7291,0.000697
14.330,61.7500,0.000697
14.346,61.7719,0.000697
14.362,61.7922,0.000697
14.392,61.8314,0.000762
14.408,61.8506,0.000762
14.424,61.8708,0.000762
14.440,61.8904,0.000762
14.456,61.9101,0.000762
14.472,61.9302,0.000762
14.488,61.9488,0.000762
14.504,61.9678,0.000762
14.520,61.9867,0.000762
14.536,62.0058,0.000762
14.552,62.0239,0.000762
14.568,62.0424,0.000762
14.584,62.0608,0.000762
14.600,62.0787,0.000762
14.616,62.0972,0.000847
14.632,62.1138,0.000847
14.648,62.1320,0.000847
14.664,62.1493,0.000847
14.680,62.1650,0.000847
14.696,62.1820,0.000847
14.712,62.1994,0.000847
14.728,62.2149,0.000847
14.744,62.2311,0.000847
14.760,62.2471,0.000847
14.776,62.2631,0.000847
14.792,62.2792,0.000847
14.808,62.2940,0.000847
14.824,62.3091,0.000847
14.840,62.3254,0.000847
14.856,62.3398,0.000857
14.872,62.3537,0.000857
14.892,62.3718,0.000857
14.919,62.3964,0.000857
14.949,62.4222,0.000857
14.965,62.4356,0.000857
14.981,62.4485,0.000857
14.997,62.4617,0.000857
15.013,62.4746,0.000857
15.029,62.4875,0.000857
15.045,62.5002,0.000857
15.061,62.5124,0.000857
15.077,62.5248,0.000857
15.093,62.5362,0.000857
15.109,62.5480,0.000828
15.125,62.5598,0.000828
15.141,62.5713,0.000828
15.157,62.5825,0.000828
15.173,62.5930,0.000828
15.190,62.6048,0.000828
15.208,62.6165,0.000828
15.229,62.6302,0.000828
15.260,62.6499,0.000828
15.291,62.6690,0.000828
15.322,62.6862,0.000828
15.352,62.7034,0.000781
15.383,62.7199,0.000781
15.399,62.7281,0.000781
15.415,62.7364,0.000781
15.445,62.7513,0.000781
15.461,62.7580,0.000781
15.477,62.7653,0.000781
15.505,62.7778,0.000781
15.521,62.7844,0.000781
15.538,62.7918,0.000781
15.569,62.8039,0.000781
15.591,62.8123,0.000781
15.615,62.8206,0.000762
15.631,62.8262,0.000762
15.647,62.8315,0.000762
15.664,62.8367,0.000762
15.680,62.8414,0.000762
15.696,62.8461,0.000762
15.711,62.8506,0.000762
15.728,62.8550,0.000762
15.743,62.8589,0.000762
15.759,62.8628,0.000762
15.775,62.8665,0.000762
15.791,62.8700,0.000762
15.808,62.8733,0.000762
15.824,62.8765,0.000762
15.839,62.8794,0.000762
15.855,62.8821,0.000715
15.871,62.8847,0.000715
15.887,62.8871,0.000715
15.903,62.8892,0.000715
15.920,62.8912,0.000715
15.935,62.8929,0.000715
15.952,62.8945,0.000715
15.968,62.8959,0.000715
15.983,62.8970,0.000715
15.999,62.8981,0.000715
16.015,62.8989,0.000715
16.032,62.8995,0.000715
16.058,62.9000,0.000715
16.074,62.9001,0.000715
16.089,62.9001,0.000715
16.105,62.9001,0.000555
16.122,62.9001,0.000555
16.137,62.9001,0.000555
16.153,62.9001,0.000555
16.172,62.9001,0.000555
16.201,62.9001,0.000555
16.218,62.9001,0.000555
16.234,62.9001,0.000555
16.249,62.9001,0.000555
16.265,62.9001,0.000555
16.281,62.9001,0.000555
16.298,62.9001,0.000555
16.313,62.9001,0.000555
16.330,62.9001,0.000555
16.346,62.9001,0.000555
16.362,62.9001,0.000555
16.378,62.9001,0.000555
16.393,62.9001,0.000584
16.409,62.9001,0.000584
16.426,62.9001,0.000584
16.448,62.9001,0.000584
16.479,62.9001,0.000584
16.500,62.9001,0.000584
16.526,62.9001,0.000584
16.556,62.9001,0.000584
16.571,62.9001,0.000584
16.600,62.9001,0.000584
16.616,62.9001,0.000584
16.632,62.9001,0.000668
16.648,62.9001,0.000668
16.666,62.9001,0.000668
16.695,62.9001,0.000668
16.712,62.9001,0.000668
16.731,62.9001,0.000668
16.756,62.9001,0.000668
16.776,62.9001,0.000668
16.793,62.9001,0.000668
16.809,62.9001,0.000668
16.824,62.9001,0.000668
16.840,62.9001,0.000668
16.858,62.9001,0.000668
16.880,62.9001,0.000668
16.912,62.9001,0.000668
16.942,62.9001,0.000668
16.972,62.9001,0.000668
16.989,62.9001,0.000668
17.020,62.9001,0.000668
17.050,62.9001,0.000668
17.081,62.9001,0.000668
17.096,62.9001,0.000668
17.112,62.9001,0.000668
17.128,62.9001,0.000668
17.157,62.9001,0.000668
17.173,62.9001,0.000668
17.204,62.9001,0.000668
17.220,62.9001,0.000668
17.236,62.9001,0.000668
17.252,62.9001,0.000668
17.268,62.9001,0.000668
17.285,62.9001,0.000668
17.311,62.9001,0.000668
17.332,62.9001,0.000668
17.351,62.9001,0.000668
17.373,62.9001,0.000668
17.405,62.9001,0.000640
17.421,62.9001,0.000640
17.453,62.9001,0.000640
17.483,62.9001,0.000640
17.514,62.9001,0.000640
17.530,62.9001,0.000640
17.545,62.9001,0.000640
17.561,62.9001,0.000640
17.576,62.9001,0.000640
17.608,62.9001,0.000640
17.638,62.9001,0.000659
17.670,62.9001,0.000659
17.700,62.9001,0.000659
17.717,62.9001,0.000659
17.747,62.9001,0.000659
17.764,62.9001,0.000659
17.782,62.9001,0.000659
17.800,62.9001,0.000659
17.824,62.9001,0.000659
17.845,62.9001,0.000659
17.860,62.9001,0.000659
17.876,62.9001,0.000725
17.892,62.9001,0.000725
17.908,62.9001,0.000725
17.924,62.9001,0.000725
17.940,62.9001,0.000725
17.956,62.9001,0.000725
17.973,62.9001,0.000725
17.994,62.9001,0.000725
18.010,62.9001,0.000725
18.041,62.9001,0.000725
18.071,62.9001,0.000725
18.087,62.9001,0.000725
18.118,62.9001,0.000706
18.134,62.9001,0.000706
18.151,62.9001,0.000706
18.181,62.9001,0.000706
18.212,62.9001,0.000706
18.236,62.9001,0.000706
18.252,62.9001,0.000706
18.268,62.9001,0.000706
18.284,62.9001,0.000706
18.300,62.9001,0.000706
18.316,62.9001,0.000706
18.332,62.9001,0.000706
18.348,62.9001,0.000706
18.364,62.9001,0.000706
18.380,62.9001,0.000640
18.396,62.9001,0.000640
18.412,62.9001,0.000640
18.428,62.9001,0.000640
18.444,62.9001,0.000640
18.460,62.9001,0.000640
18.476,62.9001,0.000640
18.492,62.9001,0.000640
18.507,62.9001,0.000640
18.523,62.9001,0.000640
18.540,62.9001,0.000640
18.555,62.9001,0.000640
18.572,62.9001,0.000640
18.588,62.9001,0.000640
18.604,62.9001,0.000640
18.619,62.9001,0.000640
18.636,62.9001,0.000659
18.651,62.9001,0.000659
18.667,62.9001,0.000659
18.684,62.9001,0.000659
18.699,62.9001,0.000659
18.715,62.9001,0.000659
18.732,62.9001,0.000659
18.747,62.9001,0.000659
18.763,62.9001,0.000659
18.779,62.9001,0.000659
18.795,62.9001,0.000659
18.811,62.9001,0.000659
18.828,62.9001,0.000659
18.843,62.9001,0.000659
18.859,62.9001,0.000650
18.876,62.9001,0.000650
18.892,62.9001,0.000650
18.908,62.9001,0.000650
18.923,62.9001,0.000650
18.939,62.9001,0.000650
18.956,62.9001,0.000650
18.971,62.9001,0.000650
18.987,62.9001,0.000650
19.003,62.9001,0.000650
19.020,62.9001,0.000650
19.035,62.9001,0.000650
19.051,62.9001,0.000650
19.067,62.9001,0.000650
19.083,62.9001,0.000650
19.100,62.9001,0.000659
19.122,62.9001,0.000659
19.139,62.9001,0.000659
19.169,62.9001,0.000659
19.200,62.9001,0.000659
19.215,62.9001,0.000659
19.231,62.9001,0.000659
19.247,62.9001,0.000659
19.277,62.9001,0.000659
19.309,62.9001,0.000659
19.324,62.9001,0.000659
19.340,62.9001,0.000659
19.356,62.9001,0.000678
19.371,62.9001,0.000678
19.390,62.9001,0.000678
19.418,62.9001,0.000678
19.435,62.9001,0.000678
19.451,62.9001,0.000678
19.468,62.9001,0.000678
19.484,62.9001,0.000678
19.511,62.9001,0.000678
19.531,62.9001,0.000678
19.547,62.9001,0.000678
19.563,62.9001,0.000678
19.581,62.9001,0.000678
19.604,62.9001,0.000678
19.634,62.9001,0.000678
19.649,62.9001,0.000678
19.680,62.9001,0.000678
19.715,62.9001,0.000678
19.740,62.9001,0.000678
19.757,62.9001,0.000678
19.786,62.9001,0.000678
19.803,62.9001,0.000678
19.819,62.9001,0.000678
19.840,62.9001,0.000678
19.856,62.9001,0.000678
19.872,62.9001,0.000631
19.888,62.9001,0.000631
19.904,62.9001,0.000631
19.920,62.9001,0.000631
19.937,62.9001,0.000631
19.952,62.9001,0.000631
19.968,62.9001,0.000631
19.984,62.9001,0.000631
20.000,62.9001,0.000631
20.016,62.9001,0.000631
20.032,62.9001,0.000631
20.048,62.9001,0.000631
20.065,62.9001,0.000631
20.080,62.9001,0.000631
20.096,62.9001,0.000631
20.112,62.9001,0.000602
20.128,62.9001,0.000602
20.146,62.9001,0.000602
20.170,62.9001,0.000602
20.200,62.9001,0.000602
20.230,62.9001,0.000602
20.261,62.9001,0.000602
20.292,62.9001,0.000602
20.308,62.9001,0.000602
20.338,62.9001,0.000602
20.368,62.9001,0.000593
20.384,62.9001,0.000593
20.400,62.9001,0.000593
20.416,62.9001,0.000593
20.432,62.9001,0.000593
20.448,62.9000,0.000593
20.464,62.8995,0.000593
20.481,62.8990,0.000593
20.508,62.8975,0.000593
20.528,62.8961,0.000593
20.544,62.8948,0.000593
20.560,62.8933,0.000593
20.579,62.8912,0.000593
20.601,62.8884,0.000593
20.632,62.8839,0.000621
20.648,62.8814,0.000621
20.664,62.8786,0.000621
20.694,62.8729,0.000621
20.709,62.8696,0.000621
20.725,62.8662,0.000621
20.755,62.8590,0.000621
20.771,62.8548,0.000621
20.787,62.8507,0.000621
20.818,62.8419,0.000621
20.849,62.8324,0.001789
20.878,62.8225,0.001789
20.909,62.8118,0.001789
20.925,62.8058,0.001789
20.941,62.7999,0.001789
20.957,62.7933,0.001789
20.972,62.7870,0.001789
20.989,62.7803,0.001789
21.005,62.7730,0.001789
21.027,62.7634,0.001789
21.050,62.7525,0.001789
21.069,62.7436,0.001789
21.084,62.7360,0.001789
21.100,62.7276,0.003361
21.117,62.7194,0.003361
21.138,62.7081,0.003361
21.158,62.6967,0.003361
21.181,62.6844,0.003361
21.197,62.6750,0.003361
21.212,62.6659,0.003361
21.229,62.6561,0.003361
21.244,62.6465,0.003361
21.262,62.6357,0.003361
21.277,62.6258,0.003361
21.293,62.6157,0.003361
21.308,62.6054,0.003361
21.324,62.5944,0.003361
21.340,62.5837,0.003361
21.357,62.5722,0.002391
21.373,62.5609,0.002391
21.389,62.5490,0.002391
21.405,62.5375,0.002391
21.420,62.5243,0.002391
21.442,62.5091,0.002391
21.459,62.4963,0.002391
21.475,62.4839,0.002391
21.491,62.4711,0.002391
21.507,62.4578,0.002391
21.522,62.4449,0.002391
21.538,62.4318,0.002391
21.555,62.4178,0.002391
21.570,62.4038,0.002391
21.586,62.3905,0.002391
21.602,62.3763,0.000970
21.619,62.3616,0.000970
21.635,62.3471,0.000970
21.651,62.3323,0.000970
21.667,62.3168,0.000970
21.683,62.3023,0.000970
21.699,62.2868,0.000970
21.714,62.2719,0.000970
21.731,62.2547,0.000970
21.761,62.2250,0.000970
21.778,62.2076,0.000970
21.795,62.1908,0.000970
21.811,62.1742,0.000970
21.826,62.1579,0.000970
21.842,62.1410,0.000970
21.859,62.1232,0.000970
21.875,62.1060,0.000970
21.890,62.0885,0.000951
21.906,62.0708,0.000951
21.925,62.0490,0.000951
21.949,62.0215,0.000951
21.970,61.9975,0.000951
21.987,61.9781,0.000951
22.003,61.9589,0.000951
22.018,61.9408,0.000951
22.034,61.9211,0.000951
22.050,61.9015,0.000951
22.066,61.8816,0.000951
22.082,61.8614,0.000951
22.098,61.8414,0.000951
22.116,61.8194,0.000951
22.134,61.7958,0.000922
22.150,61.7748,0.000922
22.165,61.7540,0.000922
22.197,61.7133,0.000922
22.227,61.6719,0.000922
22.243,61.6503,0.000922
22.258,61.6287,0.000922
22.274,61.6072,0.000922
22.290,61.5847,0.000922
22.306,61.5616,0.000922
22.322,61.5394,0.000922
22.338,61.5156,0.000922
22.355,61.4922,0.000922
22.370,61.4696,0.000922
22.389,61.4418,0.000922
22.413,61.4052,0.000922
22.434,61.3736,0.000922
22.450,61.3497,0.000922
22.466,61.3243,0.000922
22.495,61.2799,0.000922
22.511,61.2542,0.000922
22.527,61.2291,0.000922
22.543,61.2030,0.000922
22.559,61.1774,0.000922
22.575,61.1521,0.000922
22.591,61.1261,0.000922
22.608,61.0982,0.000922
22.623,61.0732,0.000838
22.639,61.0464,0.000838
22.655,61.0192,0.000838
22.671,60.9919,0.000838
22.687,60.9648,0.000838
22.703,60.9378,0.000838
22.719,60.9101,0.000838
22.735,60.8821,0.000838
22.751,60.8541,0.000838
22.767,60.8253,0.000838
22.783,60.7970,0.000838
22.799,60.7673,0.000838
22.815,60.7390,0.000838
22.831,60.7113,0.000838
22.855,60.6667,0.000838
22.878,60.6239,0.000838
22.895,60.5921,0.000697
22.911,60.5605,0.000697
22.927,60.5321,0.000697
22.943,60.5017,0.000697
22.959,60.4720,0.000697
22.976,60.4375,0.000697
23.002,60.3884,0.000697
23.023,60.3470,0.000697
23.040,60.3142,0.000697
23.065,60.2647,0.000697
23.096,60.2013,0.000697
23.126,60.1406,0.000697
23.141,60.1092,0.000753
23.172,60.0441,0.000753
23.188,60.0116,0.000753
23.219,59.9470,0.000753
23.234,59.9135,0.000753
23.250,59.8799,0.000753
23.281,59.8153,0.000753
23.312,59.7483,0.000753
23.328,59.7163,0.000753
23.358,59.6529,0.000753
23.374,59.6197,0.000819
23.391,59.5874,0.000819
23.408,59.5507,0.000819
23.426,59.5136,0.000819
23.452,59.4646,0.000819
23.471,59.4262,0.000819
23.487,59.3947,0.000819
23.503,59.3632,0.000819
23.519,59.3328,0.000819
23.548,59.2771,0.000819
23.564,59.2471,0.000819
23.580,59.2167,0.000819
23.596,59.1860,0.000819
23.612,59.1561,0.000734
23.627,59.1268,0.000734
23.644,59.0963,0.000734
23.660,59.0659,0.000734
23.676,59.0385,0.000734
23.692,59.0090,0.000734
23.708,58.9801,0.000734
23.724,58.9504,0.000734
23.740,58.9229,0.000734
23.756,58.8948,0.000734
23.772,58.8672,0.000734
23.788,58.8390,0.000734
23.803,58.8119,0.000734
23.820,58.7824,0.000734
23.835,58.7572,0.000734
23.852,58.7284,0.000734
23.868,58.7020,0.000734
23.884,58.6764,0.000734
23.900,58.6478,0.000734
23.916,58.6222,0.000734
23.931,58.5974,0.000734
23.948,58.5713,0.000734
23.964,58.5450,0.000734
23.979,58.5200,0.000734
23.996,58.4940,0.000734
24.011,58.4699,0.000734
24.028,58.4443,0.000734
24.044,58.4183,0.000734
24.059,58.3956,0.000734
24.083,58.3591,0.000734
24.099,58.3354,0.000734
24.114,58.3125,0.000875
24.130,58.2889,0.000875
24.148,58.2611,0.000875
24.178,58.2186,0.000875
24.195,58.1955,0.000875
24.211,58.1721,0.000875
24.227,58.1490,0.000875
24.255,58.1096,0.000875
24.275,58.0825,0.000875
24.302,58.0458,0.000875
24.323,58.0190,0.000875
24.339,57.9966,0.000875
24.354,57.9770,0.000875
24.370,57.9565,0.000960
24.387,57.9353,0.000960
24.402,57.9152,0.000960
24.419,57.8941,0.000960
24.434,57.8753,0.000960
24.451,57.8548,0.000960
24.467,57.8354,0.000960
24.483,57.8159,0.000960
24.499,57.7965,0.000960
24.515,57.7776,0.000960
24.530,57.7581,0.000960
24.546,57.7404,0.000960
24.562,57.7217,0.000960
24.578,57.7038,0.000960
24.605,57.6733,0.000960
24.622,57.6549,0.000960
24.637,57.6380,0.000970
24.654,57.6200,0.000970
24.669,57.6034,0.000970
24.685,57.5864,0.000970
24.701,57.5693,0.000970
24.717,57.5531,0.000970
24.733,57.5368,0.000970
24.750,57.5201,0.000970
24.765,57.5045,0.000970
24.781,57.4885,0.000970
24.798,57.4725,0.000970
24.813,57.4570,0.000970
24.830,57.4418,0.000970
24.846,57.4271,0.000970
24.861,57.4121,0.001073
24.877,57.3976,0.001073
24.894,57.3823,0.001073
24.909,57.3689,0.001073
24.925,57.3546,0.001073
24.941,57.3410,0.001073
24.958,57.3271,0.001073
24.974,57.3135,0.001073
24.990,57.2999,0.001073
25.005,57.2875,0.001073
25.023,57.2733,0.001073
25.047,57.2534,0.001073
25.069,57.2363,0.001073
25.086,57.2244,0.001073
25.101,57.2125,0.001073
25.116,57.2012,0.001073
25.141,57.1837,0.001167
25.157,57.1727,0.001167
25.173,57.1618,0.001167
25.188,57.1512,0.001167
25.204,57.1405,0.001167
25.220,57.1300,0.001167
25.237,57.1192,0.001167
25.252,57.1097,0.001167
25.274,57.0960,0.001167
25.294,57.0835,0.001167
25.316,57.0709,0.001167
25.333,57.0617,0.001167
25.348,57.0530,0.001167
25.364,57.0443,0.001252
25.380,57.0357,0.001252
25.397,57.0270,0.001252
25.413,57.0188,0.001252
25.428,57.0112,0.001252
25.445,57.0027,0.001252
25.460,56.9956,0.001252
25.476,56.9883,0.001252
25.492,56.9811,0.001252
25.509,56.9735,0.001252
25.527,56.9655,0.001252
25.544,56.9590,0.001252
25.574,56.9470,0.001252
25.603,56.9363,0.001243
25.620,56.9302,0.001243
25.636,56.9244,0.001243
25.653,56.9193,0.001243
25.668,56.9144,0.001243
25.696,56.9060,0.001243
25.719,56.8995,0.001243
25.742,56.8934,0.001243
25.759,56.8892,0.001243
25.775,56.8852,0.001243
25.792,56.8816,0.001243
25.820,56.8757,0.001243
25.841,56.8717,0.001243
25.867,56.8672,0.001271
25.888,56.8641,0.001271
25.903,56.8620,0.001271
25.919,56.8599,0.001271
25.935,56.8580,0.001271
25.952,56.8563,0.001271
25.968,56.8548,0.001271
25.991,56.8531,0.001271
26.023,56.8514,0.001271
26.054,56.8504,0.001271
26.071,56.8501,0.001271
26.099,56.8501,0.001271
26.130,56.8501,0.001365
26.150,56.8501,0.001365
26.177,56.8501,0.001365
26.193,56.8501,0.001365
26.218,56.8502,0.001365
26.234,56.8505,0.001365
26.250,56.8511,0.001365
26.266,56.8517,0.001365
26.281,56.8526,0.001365
26.298,56.8537,0.001365
26.314,56.8549,0.001365
26.330,56.8566,0.001365
26.346,56.8580,0.001365
26.362,56.8600,0.001384
26.378,56.8620,0.001384
26.394,56.8644,0.001384
26.410,56.8667,0.001384
26.426,56.8693,0.001384
26.443,56.8724,0.001384
26.459,56.8753,0.001384
26.479,56.8796,0.001384
26.502,56.8847,0.001384
26.522,56.8892,0.001384
26.538,56.8931,0.001384
26.554,56.8974,0.001384
26.571,56.9022,0.001384
26.594,56.9089,0.001384
26.610,56.9136,0.001337
26.626,56.9187,0.001337
26.657,56.9290,0.001337
26.687,56.9398,0.001337
26.703,56.9461,0.001337
26.719,56.9518,0.001337
26.750,56.9646,0.001337
26.781,56.9777,0.001337
26.797,56.9849,0.001337
26.828,56.9994,0.001337
26.844,57.0069,0.001337
26.875,57.0224,0.001337
26.891,57.0306,0.001271
26.922,57.0472,0.001271
26.937,57.0559,0.001271
26.954,57.0650,0.001271
26.969,57.0742,0.001271
26.986,57.0840,0.001271
27.002,57.0933,0.001271
27.017,57.1027,0.001271
27.034,57.1129,0.001271
27.050,57.1237,0.001271
27.066,57.1338,0.001271
27.082,57.1442,0.001271
27.097,57.1547,0.001271
27.113,57.1662,0.001271
27.130,57.1773,0.001271
27.146,57.1888,0.001233
27.171,57.2063,0.001233
27.202,57.2301,0.001233
27.233,57.2534,0.001233
27.263,57.2781,0.001233
27.293,57.3024,0.001233
27.324,57.3285,0.001233
27.355,57.3545,0.001233
27.371,57.3688,0.001233
27.401,57.3966,0.001177
27.420,57.4137,0.001177
27.448,57.4401,0.001177
27.466,57.4560,0.001177
27.482,57.4720,0.001177
27.509,57.4988,0.001177
27.529,57.5185,0.001177
27.546,57.5353,0.001177
27.561,57.5513,0.001177
27.577,57.5678,0.001177
27.593,57.5847,0.001177
27.611,57.6029,0.001177
27.634,57.6285,0.001177
27.666,57.6632,0.001120
27.696,57.6977,0.001120
27.711,57.7141,0.001120
27.727,57.7320,0.001120
27.743,57.7513,0.001120
27.773,57.7867,0.001120
27.804,57.8239,0.001120
27.836,57.8628,0.001120
27.866,57.9027,0.001120
27.897,57.9399,0.001017
27.915,57.9626,0.001017
27.944,58.0019,0.001017
27.961,58.0239,0.001017
27.977,58.0453,0.001017
27.994,58.0674,0.001017
28.009,58.0884,0.001017
28.025,58.1109,0.001017
28.042,58.1341,0.001017
28.058,58.1557,0.001017
28.073,58.1780,0.001017
28.089,58.2002,0.001017
28.107,58.2258,0.001017
28.130,58.2601,0.001017
28.161,58.3068,0.000904
28.177,58.3285,0.000904
28.192,58.3517,0.000904
28.208,58.3751,0.000904
28.238,58.4219,0.000904
28.269,58.4702,0.000904
28.285,58.4965,0.000904
28.301,58.5207,0.000904
28.317,58.5460,0.000904
28.333,58.5711,0.000904
28.349,58.5988,0.000904
28.379,58.6473,0.000857
28.410,58.6974,0.000857
28.425,58.7240,0.000857
28.441,58.7500,0.000857
28.457,58.7771,0.000857
28.473,58.8055,0.000857
28.489,58.8331,0.000857
28.505,58.8599,0.000857
28.521,58.8888,0.000857
28.537,58.9176,0.000857
28.553,58.9449,0.000857
28.569,58.9738,0.000857
28.585,59.0028,0.000857
28.601,59.0323,0.000857
28.617,59.0607,0.000857
28.633,59.0915,0.000828
28.649,59.1191,0.000828
28.666,59.1501,0.000828
28.681,59.1787,0.000828
28.697,59.2088,0.000828
28.713,59.2391,0.000828
28.729,59.2708,0.000828
28.745,59.3009,0.000828
28.761,59.3312,0.000828
28.778,59.3647,0.000828
28.793,59.3942,0.000828
28.809,59.4250,0.000828
28.825,59.4567,0.000828
28.842,59.4927,0.000828
28.872,59.5515,0.000828
28.901,59.6109,0.000781
28.917,59.6441,0.000781
28.933,59.6756,0.000781
28.949,59.7098,0.000781
28.965,59.7447,0.000781
28.982,59.7777,0.000781
29.011,59.8397,0.000781
29.030,59.8814,0.000781
29.057,59.9379,0.000781
29.077,59.9785,0.000781
29.093,60.0126,0.000781
29.109,60.0473,0.000781
29.125,60.0777,0.000668
29.141,60.1114,0.000668
29.157,60.1440,0.000668
29.173,60.1775,0.000668
29.189,60.2071,0.000668
29.205,60.2392,0.000668
29.221,60.2710,0.000668
29.237,60.3022,0.000668
29.253,60.3343,0.000668
29.269,60.3664,0.000668
29.285,60.3956,0.000668
29.301,60.4271,0.000668
29.317,60.4571,0.000668
29.333,60.4878,0.000668
29.349,60.5191,0.000668
29.365,60.5484,0.000678
29.381,60.5781,0.000678
29.398,60.6106,0.000678
29.413,60.6369,0.000678
29.429,60.6656,0.000678
29.458,60.7185,0.000678
29.474,60.7482,0.000678
29.489,60.7747,0.000678
29.505,60.8031,0.000678
29.528,60.8450,0.000678
29.550,60.8826,0.000678
29.569,60.9141,0.000678
29.586,60.9425,0.000678
29.602,60.9694,0.000678
29.618,60.9966,0.000762
29.633,61.0223,0.000762
29.650,61.0502,0.000762
29.665,61.0750,0.000762
29.681,61.1009,0.000762
29.698,61.1271,0.000762
29.714,61.1542,0.000762
29.729,61.1782,0.000762
29.745,61.2035,0.000762
29.762,61.2291,0.000762
29.780,61.2588,0.000762
29.800,61.2884,0.000762
29.829,61.3328,0.000762
29.845,61.3575,0.000762
29.860,61.3807,0.000762
29.891,61.4258,0.000687
29.922,61.4709,0.000687
29.938,61.4934,0.000687
29.954,61.5172,0.000687
29.970,61.5393,0.000687
29.985,61.5608,0.000687
30.014,61.6000,0.000687
30.030,61.6230,0.000687
30.061,61.6645,0.000687
30.080,61.6894,0.000687
30.108,61.7263,0.000650
30.125,61.7488,0.000650
30.142,61.7696,0.000650
30.157,61.7896,0.000650
30.174,61.8112,0.000650
30.189,61.8301,0.000650
30.206,61.8516,0.000650
30.222,61.8700,0.000650
30.238,61.8898,0.000650
30.253,61.9077,0.000650
30.270,61.9275,0.000650
30.285,61.9459,0.000650
30.301,61.9642,0.000650
30.317,61.9831,0.000650
30.334,62.0017,0.000650
30.349,62.0189,0.000800
30.365,62.0368,0.000800
30.381,62.0544,0.000800
30.397,62.0720,0.000800
30.414,62.0899,0.000800
30.429,62.1062,0.000800
30.446,62.1237,0.000800
30.462,62.1406,0.000800
30.477,62.1562,0.000800
30.493,62.1726,0.000800
30.509,62.1896,0.000800
30.525,62.2047,0.000800
30.542,62.2206,0.000800
30.569,62.2477,0.000800
30.585,62.2624,0.000800
30.600,62.2770,0.000922
30.616,62.2913,0.000922
30.633,62.3065,0.000922
30.649,62.3207,0.000922
30.665,62.3350,0.000922
30.680,62.3487,0.000922
30.698,62.3643,0.000922
30.725,62.3865,0.000922
30.744,62.4029,0.000922
30.762,62.4174,0.000922
30.786,62.4367,0.000922
30.817,62.4611,0.000922
30.848,62.4847,0.000922
30.878,62.5064,0.000904
30.909,62.5284,0.000904
30.925,62.5397,0.000904
30.941,62.5500,0.000904
30.972,62.5709,0.000904
31.003,62.5904,0.000904
31.018,62.6001,0.000904
31.033,62.6095,0.000904
31.049,62.6186,0.000904
31.073,62.6327,0.000904
31.096,62.6459,0.000904
31.114,62.6554,0.000904
31.143,62.6710,0.000913
31.159,62.6793,0.000913
31.175,62.6872,0.000913
31.191,62.6951,0.000913
31.208,62.7033,0.000913
31.236,62.7164,0.000913
31.255,62.7245,0.000913
31.271,62.7318,0.000913
31.287,62.7380,0.000913
31.303,62.7446,0.000913
31.319,62.7508,0.000913
31.335,62.7571,0.000913
31.351,62.7631,0.000913
31.367,62.7688,0.000857
31.383,62.7741,0.000857
31.399,62.7797,0.000857
31.416,62.7848,0.000857
31.431,62.7895,0.000857
31.447,62.7944,0.000857
31.463,62.7989,0.000857
31.479,62.8031,0.000857
31.495,62.8073,0.000857
31.511,62.8114,0.000857
31.527,62.8151,0.000857
31.543,62.8186,0.000857
31.559,62.8221,0.000857
31.575,62.8254,0.000857
31.591,62.8283,0.000857
31.607,62.8311,0.000857
31.637,62.8360,0.000715
31.668,62.8399,0.000715
31.684,62.8419,0.000715
31.701,62.8437,0.000715
31.716,62.8452,0.000715
31.732,62.8464,0.000715
31.748,62.8475,0.000715
31.764,62.8484,0.000715
31.780,62.8491,0.000715
31.796,62.8496,0.000715
31.812,62.8500,0.000715
31.830,62.8501,0.000715
31.856,62.8501,0.000631
31.876,62.8501,0.000631
31.892,62.8501,0.000631
31.908,62.8501,0.000631
31.924,62.8501,0.000631
31.940,62.8501,0.000631
31.956,62.8501,0.000631
31.972,62.8501,0.000631
31.988,62.8501,0.000631
32.004,62.8501,0.000631
32.020,62.8501,0.000631
32.036,62.8501,0.000631
32.052,62.8501,0.000631
32.068,62.8501,0.000631
32.084,62.8501,0.000631
32.101,62.8501,0.000612
32.116,62.8501,0.000612
32.132,62.8501,0.000612
32.148,62.8501,0.000612
32.164,62.8501,0.000612
32.194,62.8501,0.000612
32.224,62.8501,0.000612
32.241,62.8501,0.000612
32.258,62.8501,0.000612
32.273,62.8501,0.000612
32.289,62.8501,0.000612
32.305,62.8501,0.000612
32.321,62.8501,0.000612
32.337,62.8501,0.000612
32.353,62.8501,0.000706
32.369,62.8501,0.000706
32.385,62.8501,0.000706
32.401,62.8501,0.000706
32.416,62.8501,0.000706
32.433,62.8501,0.000706
32.460,62.8501,0.000706
32.481,62.8501,0.000706
32.496,62.8501,0.000706
32.513,62.8501,0.000706
32.528,62.8501,0.000706
32.545,62.8501,0.000706
32.561,62.8501,0.000706
32.577,62.8501,0.000706
32.592,62.8501,0.000706
32.609,62.8501,0.000715
32.625,62.8501,0.000715
32.641,62.8501,0.000715
32.657,62.8501,0.000715
32.674,62.8501,0.000715
32.689,62.8501,0.000715
32.704,62.8501,0.000715
32.720,62.8501,0.000715
32.743,62.8501,0.000715
32.760,62.8501,0.000715
32.775,62.8501,0.000715
32.791,62.8501,0.000715
32.808,62.8501,0.000715
32.824,62.8501,0.000715
32.840,62.8501,0.000715
32.856,62.8501,0.000640
32.872,62.8501,0.000640
32.887,62.8501,0.000640
32.903,62.8501,0.000640
32.919,62.8501,0.000640
32.935,62.8501,0.000640
32.951,62.8501,0.000640
32.968,62.8501,0.000640
32.984,62.8501,0.000640
32.999,62.8501,0.000640
33.015,62.8501,0.000640
33.031,62.8501,0.000640
33.050,62.8501,0.000640
33.072,62.8501,0.000640
33.104,62.8501,0.000640
33.119,62.8501,0.000640
33.149,62.8501,0.000659
33.165,62.8501,0.000659
33.180,62.8501,0.000659
33.211,62.8501,0.000659
33.241,62.8501,0.000659
33.272,62.8501,0.000659
33.288,62.8501,0.000659
33.304,62.8501,0.000659
33.333,62.8501,0.000659
33.357,62.8501,0.000659
33.380,62.8501,0.000715
33.399,62.8501,0.000715
33.416,62.8501,0.000715
33.432,62.8501,0.000715
33.447,62.8501,0.000715
33.463,62.8501,0.000715
33.481,62.8501,0.000715
33.505,62.8501,0.000715
33.535,62.8501,0.000715
33.566,62.8501,0.000715
33.597,62.8501,0.000715
33.612,62.8501,0.000715
33.628,62.8501,0.000762
33.644,62.8501,0.000762
33.660,62.8501,0.000762
33.691,62.8501,0.000762
33.721,62.8501,0.000762
33.737,62.8501,0.000762
33.768,62.8501,0.000762
33.784,62.8501,0.000762
33.809,62.8501,0.000762
33.830,62.8501,0.000762
33.846,62.8501,0.000762
33.877,62.8501,0.000744
33.907,62.8501,0.000744
33.939,62.8501,0.000744
33.969,62.8501,0.000744
33.999,62.8501,0.000744
34.016,62.8501,0.000744
34.031,62.8501,0.000744
34.047,62.8501,0.000744
34.064,62.8501,0.000744
34.079,62.8501,0.000744
34.095,62.8501,0.000744
34.112,62.8501,0.000744
34.128,62.8501,0.000744
34.143,62.8501,0.000706
34.159,62.8501,0.000706
34.175,62.8501,0.000706
34.191,62.8501,0.000706
34.207,62.8501,0.000706
34.223,62.8501,0.000706
34.250,62.8501,0.000706
34.271,62.8501,0.000706
34.287,62.8501,0.000706
34.303,62.8501,0.000706
34.319,62.8501,0.000706
34.335,62.8501,0.000706
34.351,62.8501,0.000706
34.367,62.8501,0.000706
34.383,62.8501,0.000706
34.399,62.8501,0.000706
34.416,62.8501,0.000706
34.432,62.8501,0.000706
34.447,62.8501,0.000706
34.463,62.8501,0.000706
34.479,62.8501,0.000706
34.495,62.8501,0.000706
34.511,62.8501,0.000706
34.527,62.8501,0.000706
34.543,62.8501,0.000706
34.559,62.8501,0.000706
34.575,62.8501,0.000706
34.591,62.8501,0.000706
34.608,62.8501,0.000706
34.631,62.8501,0.000706
34.648,62.8501,0.000706
34.664,62.8501,0.000706
34.694,62.8501,0.000706
34.725,62.8501,0.000706
34.740,62.8501,0.000706
34.756,62.8501,0.000706
34.786,62.8501,0.000706
34.807,62.8501,0.000706
34.832,62.8501,0.000706
34.849,62.8501,0.000706
34.878,62.8501,0.000706
34.907,62.8501,0.000706
34.923,62.8501,0.000706
34.939,62.8501,0.000706
34.955,62.8501,0.000706
34.974,62.8501,0.000706
35.002,62.8501,0.000706
35.019,62.8501,0.000706
35.035,62.8501,0.000706
35.051,62.8501,0.000706
35.067,62.8501,0.000706
35.083,62.8501,0.000706
35.099,62.8501,0.000706
35.115,62.8501,0.000706
35.131,62.8501,0.000668
35.147,62.8501,0.000668
35.163,62.8501,0.000668
35.179,62.8501,0.000668
35.195,62.8501,0.000668
35.211,62.8501,0.000668
35.228,62.8501,0.000668
35.251,62.8501,0.000668
35.282,62.8501,0.000668
35.313,62.8501,0.000668
35.343,62.8501,0.000668
35.358,62.8501,0.000668
35.374,62.8501,0.000687
35.405,62.8501,0.000687
35.436,62.8501,0.000687
35.465,62.8501,0.000687
35.481,62.8501,0.000687
35.497,62.8501,0.000687
35.513,62.8501,0.000687
35.529,62.8501,0.000687
35.545,62.8501,0.000687
35.561,62.8501,0.000687
35.577,62.8501,0.000687
35.593,62.8501,0.000687
35.609,62.8501,0.000687
35.625,62.8501,0.000650
35.641,62.8501,0.000650
35.657,62.8501,0.000650
35.673,62.8501,0.000650
35.689,62.8501,0.000650
35.705,62.8501,0.000650
35.721,62.8501,0.000650
35.737,62.8501,0.000650
35.753,62.8501,0.000650
35.769,62.8501,0.000650
35.785,62.8501,0.000650
35.801,62.8501,0.000650
35.816,62.8501,0.000650
35.833,62.8501,0.000650
35.850,62.8501,0.000650
35.870,62.8501,0.000602
35.885,62.8501,0.000602
35.917,62.8501,0.000602
35.948,62.8501,0.000602
35.978,62.8501,0.000602
35.994,62.8501,0.000602
36.023,62.8501,0.000602
36.046,62.8501,0.000602
36.071,62.8501,0.000602
36.103,62.8501,0.000602
36.118,62.8501,0.000631
36.134,62.8501,0.000631
36.150,62.8500,0.000631
36.166,62.8496,0.000631
36.182,62.8490,0.000631
36.199,62.8483,0.000631
36.215,62.8473,0.000631
36.230,62.8461,0.000631
36.247,62.8448,0.000631
36.262,62.8433,0.000631
36.278,62.8416,0.000631
36.294,62.8397,0.000631
36.310,62.8376,0.000631
36.327,62.8352,0.000631
36.343,62.8328,0.000631
36.358,62.8301,0.000631
36.374,62.8273,0.000697
36.391,62.8239,0.000697
36.407,62.8207,0.000697
36.422,62.8174,0.000697
36.439,62.8137,0.000697
36.454,62.8098,0.000697
36.471,62.8057,0.000697
36.486,62.8016,0.000697
36.503,62.7972,0.000697
36.518,62.7926,0.000697
36.534,62.7877,0.000697
36.551,62.7825,0.000697
36.577,62.7738,0.000697
36.594,62.7681,0.000697
36.609,62.7626,0.002184
36.625,62.7567,0.002184
36.642,62.7502,0.002184
36.673,62.7380,0.002184
36.689,62.7311,0.002184
36.706,62.7239,0.002184
36.721,62.7170,0.002184
36.737,62.7098,0.002184
36.754,62.7019,0.002184
36.769,62.6947,0.002184
36.786,62.6865,0.002184
36.802,62.6785,0.002184
36.817,62.6705,0.002184
36.838,62.6596,0.002184
36.860,62.6473,0.003285
36.881,62.6357,0.003285
36.898,62.6264,0.003285
36.914,62.6166,0.003285
36.929,62.6075,0.003285
36.946,62.5974,0.003285
36.961,62.5876,0.003285
36.977,62.5776,0.003285
36.993,62.5670,0.003285
37.009,62.5564,0.003285
37.025,62.5454,0.003285
37.041,62.5345,0.003285
37.057,62.5238,0.003285
37.074,62.5114,0.003285
37.090,62.5000,0.003285
37.111,62.4840,0.003285
37.128,62.4720,0.003285
37.143,62.4603,0.001901
37.159,62.4477,0.001901
37.175,62.4354,0.001901
37.191,62.4225,0.001901
37.207,62.4095,0.001901
37.223,62.3966,0.001901
37.239,62.3833,0.001901
37.255,62.3699,0.001901
37.271,62.3553,0.001901
37.287,62.3419,0.001901
37.303,62.3276,0.001901
37.319,62.3137,0.001901
37.336,62.2981,0.001901
37.351,62.2842,0.001901
37.367,62.2696,0.000941
37.390,62.2476,0.000941
37.414,62.2242,0.000941
37.431,62.2077,0.000941
37.447,62.1920,0.000941
37.463,62.1756,0.000941
37.479,62.1598,0.000941
37.496,62.1424,0.000941
37.511,62.1268,0.000941
37.528,62.1083,0.000941
37.552,62.0832,0.000941
37.583,62.0495,0.000941
37.613,62.0157,0.000941
37.628,61.9986,0.000941
37.649,61.9745,0.001026
37.665,61.9558,0.001026
37.681,61.9380,0.001026
37.697,61.9192,0.001026
37.714,61.8992,0.001026
37.729,61.8807,0.001026
37.745,61.8609,0.001026
37.761,61.8411,0.001026
37.776,61.8216,0.001026
37.793,61.8016,0.001026
37.809,61.7809,0.001026
37.825,61.7608,0.001026
37.841,61.7400,0.001026
37.857,61.7195,0.000988
37.873,61.6986,0.000988
37.890,61.6759,0.000988
37.913,61.6446,0.000988
37.937,61.6130,0.000988
37.956,61.5864,0.000988
37.984,61.5455,0.000988
38.001,61.5232,0.000988
38.017,61.5007,0.000988
38.033,61.4771,0.000988
38.049,61.4547,0.000988
38.065,61.4305,0.000988
38.081,61.4066,0.000988
38.097,61.3838,0.000988
38.113,61.3590,0.000904
38.129,61.3352,0.000904
38.145,61.3107,0.000904
38.161,61.2868,0.000904
38.177,61.2617,0.000904
38.201,61.2237,0.000904
38.217,61.1997,0.000904
38.233,61.1746,0.000904
38.249,61.1488,0.000904
38.268,61.1163,0.000904
38.295,61.0740,0.000904
38.313,61.0441,0.000904
38.329,61.0172,0.000904
38.344,60.9909,0.000904
38.361,60.9640,0.000791
38.378,60.9348,0.000791
38.393,60.9083,0.000791
38.409,60.8816,0.000791
38.434,60.8390,0.000791
38.449,60.8114,0.000791
38.465,60.7826,0.000791
38.481,60.7552,0.000791
38.511,60.7002,0.000791
38.542,60.6442,0.000791
38.558,60.6167,0.000791
38.588,60.5583,0.000791
38.620,60.5009,0.000762
38.650,60.4432,0.000762
38.681,60.3847,0.000762
38.698,60.3509,0.000762
38.727,60.2944,0.000762
38.756,60.2374,0.000762
38.772,60.2043,0.000762
38.787,60.1744,0.000762
38.805,60.1388,0.000762
38.823,60.1009,0.000762
38.850,60.0457,0.000762
38.868,60.0099,0.000819
38.884,59.9756,0.000819
38.900,59.9431,0.000819
38.915,59.9105,0.000819
38.931,59.8763,0.000819
38.947,59.8412,0.000819
38.963,59.8084,0.000819
38.980,59.7733,0.000819
38.996,59.7395,0.000819
39.012,59.7048,0.000819
39.028,59.6718,0.000819
39.052,59.6234,0.000819
39.067,59.5913,0.000819
39.082,59.5600,0.000819
39.098,59.5260,0.000819
39.129,59.4656,0.000781
39.144,59.4344,0.000781
39.160,59.4024,0.000781
39.175,59.3732,0.000781
39.207,59.3107,0.000781
39.238,59.2516,0.000781
39.269,59.1914,0.000781
39.299,59.1334,0.000781
39.316,59.1015,0.000781
39.331,59.0731,0.000781
39.347,59.0448,0.000781
39.364,59.0130,0.000715
39.380,58.9853,0.000715
39.395,58.9570,0.000715
39.412,58.9275,0.000715
39.427,58.8997,0.000715
39.444,58.8701,0.000715
39.459,58.8422,0.000715
39.475,58.8154,0.000715
39.491,58.7874,0.000715
39.508,58.7590,0.000715
39.524,58.7309,0.000715
39.539,58.7050,0.000715
39.555,58.6778,0.000715
39.571,58.6506,0.000715
39.587,58.6240,0.000715
39.603,58.5974,0.000762
39.620,58.5702,0.000762
39.636,58.5441,0.000762
39.652,58.5179,0.000762
39.667,58.4939,0.000762
39.683,58.4685,0.000762
39.699,58.4429,0.000762
39.715,58.4170,0.000762
39.732,58.3912,0.000762
39.761,58.3463,0.000762
39.779,58.3189,0.000762
39.795,58.2951,0.000762
39.812,58.2707,0.000762
39.827,58.2472,0.000762
39.856,58.2044,0.000762
39.872,58.1806,0.000762
39.889,58.1579,0.000885
39.904,58.1351,0.000885
39.923,58.1087,0.000885
39.939,58.0855,0.000885
39.965,58.0508,0.000885
39.984,58.0245,0.000885
40.000,58.0018,0.000885
40.016,57.9808,0.000885
40.032,57.9596,0.000885
40.049,57.9377,0.000885
40.064,57.9183,0.000885
40.080,57.8975,0.000885
40.096,57.8765,0.000885
40.112,57.8559,0.000885
40.128,57.8365,0.001045
40.144,57.8161,0.001045
40.160,57.7964,0.001045
40.176,57.7773,0.001045
40.192,57.7570,0.001045
40.208,57.7379,0.001045
40.228,57.7155,0.001045
40.255,57.6832,0.001045
40.272,57.6638,0.001045
40.288,57.6456,0.001045
40.305,57.6260,0.001045
40.320,57.6095,0.001045
40.336,57.5923,0.001045
40.352,57.5743,0.001045
40.368,57.5578,0.001045
40.384,57.5399,0.001045
40.410,57.5133,0.001111
40.426,57.4959,0.001111
40.442,57.4805,0.001111
40.458,57.4640,0.001111
40.474,57.4482,0.001111
40.490,57.4322,0.001111
40.506,57.4171,0.001111
40.522,57.4020,0.001111
40.539,57.3858,0.001111
40.564,57.3620,0.001111
40.596,57.3328,0.001111
40.618,57.3133,0.001111
40.634,57.2997,0.001167
40.650,57.2854,0.001167
40.667,57.2714,0.001167
40.682,57.2585,0.001167
40.698,57.2456,0.001167
40.714,57.2322,0.001167
40.731,57.2186,0.001167
40.750,57.2033,0.001167
40.781,57.1791,0.001167
40.796,57.1682,0.001167
40.812,57.1566,0.001167
40.844,57.1336,0.001167
40.860,57.1220,0.001167
40.890,57.1019,0.001261
40.906,57.0907,0.001261
40.923,57.0798,0.001261
40.951,57.0619,0.001261
40.975,57.0467,0.001261
40.997,57.0335,0.001261
41.018,57.0216,0.001261
41.035,57.0120,0.001261
41.058,56.9987,0.001261
41.089,56.9824,0.001261
41.119,56.9664,0.001327
41.150,56.9514,0.001327
41.166,56.9439,0.001327
41.182,56.9366,0.001327
41.213,56.9230,0.001327
41.228,56.9166,0.001327
41.244,56.9098,0.001327
41.275,56.8976,0.001327
41.290,56.8920,0.001327
41.306,56.8862,0.001327
41.322,56.8805,0.001327
41.340,56.8742,0.001327
41.367,56.8654,0.001365
41.385,56.8599,0.001365
41.402,56.8549,0.001365
41.418,56.8505,0.001365
41.434,56.8461,0.001365
41.450,56.8422,0.001365
41.466,56.8381,0.001365
41.495,56.8314,0.001365
41.510,56.8282,0.001365
41.537,56.8228,0.001365
41.558,56.8192,0.001365
41.573,56.8167,0.001365
41.589,56.8143,0.001365
41.606,56.8119,0.001365
41.622,56.8099,0.001365
41.637,56.8081,0.001337
41.654,56.8065,0.001337
41.670,56.8048,0.001337
41.686,56.8037,0.001337
41.701,56.8026,0.001337
41.717,56.8017,0.001337
41.734,56.8010,0.001337
41.750,56.8005,0.001337
41.771,56.8001,0.001337
41.803,56.8001,0.001337
41.833,56.8001,0.001337
41.850,56.8001,0.001337
41.880,56.8001,0.001365
41.910,56.8003,0.001365
41.926,56.8006,0.001365
41.941,56.8011,0.001365
41.957,56.8017,0.001365
41.973,56.8027,0.001365
41.990,56.8039,0.001365
42.006,56.8051,0.001365
42.033,56.8078,0.001365
42.055,56.8105,0.001365
42.082,56.8140,0.001365
42.113,56.8187,0.001365
42.129,56.8215,0.001459
42.145,56.8246,0.001459
42.161,56.8277,0.001459
42.190,56.8340,0.001459
42.209,56.8385,0.001459
42.225,56.8422,0.001459
42.240,56.8463,0.001459
42.256,56.8506,0.001459
42.273,56.8552,0.001459
42.289,56.8599,0.001459
42.305,56.8649,0.001459
42.321,56.8701,0.001459
42.336,56.8750,0.001459
42.353,56.8809,0.001459
42.368,56.8862,0.001450
42.385,56.8922,0.001450
42.401,56.8984,0.001450
42.417,56.9046,0.001450
42.433,56.9110,0.001450
42.449,56.9181,0.001450
42.465,56.9245,0.001450
42.480,56.9315,0.001450
42.497,56.9389,0.001450
42.512,56.9462,0.001450
42.528,56.9537,0.001450
42.544,56.9615,0.001450
42.575,56.9772,0.001450
42.592,56.9858,0.001450
42.608,56.9945,0.001356
42.623,57.0028,0.001356
42.647,57.0166,0.001356
42.670,57.0293,0.001356
42.688,57.0401,0.001356
42.704,57.0503,0.001356
42.719,57.0593,0.001356
42.735,57.0698,0.001356
42.751,57.0798,0.001356
42.769,57.0920,0.001356
42.793,57.1080,0.001356
42.824,57.1297,0.001356
42.855,57.1516,0.001356
42.885,57.1747,0.001271
42.901,57.1866,0.001271
42.917,57.1982,0.001271
42.932,57.2103,0.001271
42.948,57.2233,0.001271
42.964,57.2356,0.001271
42.995,57.2616,0.001271
43.027,57.2882,0.001271
43.043,57.3021,0.001271
43.058,57.3154,0.001271
43.089,57.3436,0.001271
43.120,57.3719,0.001271
43.151,57.4018,0.001224
43.167,57.4162,0.001224
43.183,57.4315,0.001224
43.199,57.4477,0.001224
43.215,57.4634,0.001224
43.231,57.4794,0.001224
43.247,57.4959,0.001224
43.263,57.5123,0.001224
43.279,57.5289,0.001224
43.295,57.5459,0.001224
43.311,57.5629,0.001224
43.328,57.5817,0.001224
43.352,57.6076,0.001224
43.383,57.6426,0.001130
43.414,57.6782,0.001130
43.445,57.7136,0.001130
43.461,57.7329,0.001130
43.491,57.7699,0.001130
43.522,57.8070,0.001130
43.552,57.8442,0.001130
43.583,57.8834,0.001130
43.599,57.9039,0.001130
43.628,57.9419,0.001017
43.645,57.9647,0.001017
43.675,58.0040,0.001017
43.693,58.0286,0.001017
43.708,58.0497,0.001017
43.724,58.0712,0.001017
43.740,58.0932,0.001017
43.759,58.1199,0.001017
43.784,58.1558,0.001017
43.804,58.1847,0.001017
43.820,58.2084,0.001017
43.836,58.2317,0.001017
43.852,58.2550,0.000970
43.868,58.2784,0.000970
43.884,58.3032,0.000970
43.900,58.3269,0.000970
43.916,58.3512,0.000970
43.932,58.3756,0.000970
43.949,58.4020,0.000970
43.968,58.4330,0.000970
43.984,58.4593,0.000970
44.000,58.4833,0.000970
44.016,58.5092,0.000970
44.046,58.5588,0.000970
44.077,58.6085,0.000970
44.108,58.6594,0.000970
44.124,58.6871,0.000970
44.140,58.7143,0.000904
44.156,58.7416,0.000904
44.178,58.7784,0.000904
44.194,58.8074,0.000904
44.210,58.8347,0.000904
44.226,58.8624,0.000904
44.242,58.8924,0.000904
44.258,58.9192,0.000904
44.274,58.9486,0.000904
44.289,58.9770,0.000904
44.306,59.0069,0.000904
44.322,59.0355,0.000904
44.338,59.0668,0.000904
44.354,59.0964,0.000904
44.370,59.1257,0.000904
44.386,59.1553,0.000866
44.402,59.1866,0.000866
44.419,59.2198,0.000866
44.449,59.2770,0.000866
44.466,59.3089,0.000866
44.482,59.3407,0.000866
44.498,59.3716,0.000866
44.513,59.4025,0.000866
44.529,59.4341,0.000866
44.547,59.4692,0.000866
44.565,59.5061,0.000866
44.589,59.5533,0.000866
44.610,59.5986,0.000866
44.626,59.6310,0.000866
44.641,59.6623,0.000819
44.657,59.6960,0.000819
44.674,59.7314,0.000819
44.689,59.7632,0.000819
44.705,59.7990,0.000819
44.729,59.8470,0.000819
44.744,59.8798,0.000819
44.760,59.9132,0.000819
44.776,59.9470,0.000819
44.793,59.9824,0.000819
44.820,60.0381,0.000819
44.840,60.0778,0.000819
44.857,60.1124,0.000819
44.873,60.1448,0.000819
44.889,60.1752,0.000762
44.905,60.2087,0.000762
44.921,60.2388,0.000762
44.937,60.2707,0.000762
44.952,60.3004,0.000762
44.968,60.3314,0.000762
44.984,60.3633,0.000762
45.001,60.3933,0.000762
45.016,60.4235,0.000762
45.033,60.4545,0.000762
45.048,60.4849,0.000762
45.064,60.5136,0.000762
45.080,60.5430,0.000762
45.096,60.5729,0.000762
45.112,60.6021,0.000762
45.129,60.6321,0.000800
45.144,60.6615,0.000800
45.164,60.6950,0.000800
45.193,60.7464,0.000800
45.208,60.7740,0.000800
45.225,60.8025,0.000800
45.240,60.8301,0.000800
45.256,60.8572,0.000800
45.283,60.9036,0.000800
45.300,60.9315,0.000800
45.316,60.9574,0.000800
45.331,60.9836,0.000800
45.348,61.0106,0.000800
45.364,61.0374,0.000800
45.379,61.0626,0.000800
45.395,61.0877,0.000800
45.412,61.1149,0.000800
45.428,61.1398,0.000800
45.444,61.1658,0.000800
45.460,61.1908,0.000800
45.476,61.2156,0.000800
45.491,61.2388,0.000800
45.508,61.2645,0.000800
45.523,61.2877,0.000800
45.540,61.3136,0.000800
45.555,61.3358,0.000800
45.571,61.3592,0.000800
45.587,61.3829,0.000800
45.603,61.4065,0.000800
45.619,61.4297,0.000706
45.635,61.4529,0.000706
45.651,61.4752,0.000706
45.667,61.4979,0.000706
45.684,61.5206,0.000706
45.699,61.5422,0.000706
45.715,61.5646,0.000706
45.732,61.5867,0.000706
45.747,61.6072,0.000706
45.764,61.6307,0.000706
45.785,61.6600,0.000706
45.808,61.6879,0.000706
45.824,61.7095,0.000706
45.841,61.7303,0.000706
45.856,61.7502,0.000706
45.872,61.7700,0.000725
45.888,61.7898,0.000725
45.906,61.8119,0.000725
45.932,61.8429,0.000725
45.952,61.8674,0.000725
45.968,61.8865,0.000725
45.984,61.9052,0.000725
46.000,61.9238,0.000725
46.016,61.9414,0.000725
46.032,61.9606,0.000725
46.048,61.9775,0.000725
46.064,61.9952,0.000725
46.080,62.0128,0.000725
46.096,62.0309,0.000725
46.112,62.0474,0.000894
46.128,62.0648,0.000894
46.144,62.0815,0.000894
46.160,62.0984,0.000894
46.176,62.1139,0.000894
46.192,62.1308,0.000894
46.208,62.1473,0.000894
46.224,62.1625,0.000894
46.240,62.1778,0.000894
46.256,62.1933,0.000894
46.272,62.2084,0.000894
46.288,62.2240,0.000894
46.304,62.2381,0.000894
46.333,62.2649,0.000894
46.348,62.2780,0.000894
46.364,62.2928,0.000988
46.380,62.3062,0.000988
46.398,62.3214,0.000988
46.427,62.3462,0.000988
46.444,62.3599,0.000988
46.461,62.3737,0.000988
46.490,62.3966,0.000988
46.508,62.4110,0.000988
46.525,62.4238,0.000988
46.552,62.4443,0.000988
46.572,62.4581,0.000988
46.589,62.4701,0.000988
46.604,62.4810,0.000988
46.621,62.4924,0.000941
46.636,62.5026,0.000941
46.652,62.5136,0.000941
46.669,62.5246,0.000941
46.691,62.5386,0.000941
46.723,62.5584,0.000941
46.753,62.5760,0.000941
46.785,62.5950,0.000941
46.815,62.6106,0.000941
46.831,62.6191,0.000941
46.860,62.6344,0.000941
46.891,62.6496,0.000894
46.915,62.6609,0.000894
46.938,62.6708,0.000894
46.957,62.6790,0.000894
46.986,62.6911,0.000894
47.003,62.6978,0.000894
47.019,62.7043,0.000894
47.035,62.7103,0.000894
47.051,62.7162,0.000894
47.067,62.7216,0.000894
47.083,62.7271,0.000894
47.099,62.7324,0.000894
47.116,62.7374,0.000857
47.131,62.7421,0.000857
47.147,62.7468,0.000857
47.163,62.7514,0.000857
47.178,62.7554,0.000857
47.195,62.7595,0.000857
47.211,62.7634,0.000857
47.226,62.7670,0.000857
47.242,62.7705,0.000857
47.259,62.7738,0.000857
47.275,62.7769,0.000857
47.290,62.7797,0.000857
47.307,62.7824,0.000857
47.322,62.7849,0.000857
47.338,62.7872,0.000857
47.355,62.7895,0.000762
47.370,62.7913,0.000762
47.390,62.7934,0.000762
47.417,62.7959,0.000762
47.449,62.7980,0.000762
47.465,62.7988,0.000762
47.480,62.7994,0.000762
47.497,62.7998,0.000762
47.513,62.8000,0.000762
47.529,62.8000,0.000762
47.544,62.8000,0.000762
47.561,62.8000,0.000762
47.577,62.8000,0.000762
47.593,62.8000,0.000762
47.608,62.8000,0.000678
47.625,62.8000,0.000678
47.640,62.8000,0.000678
47.656,62.8000,0.000678
47.672,62.8000,0.000678
47.689,62.8000,0.000678
47.704,62.8000,0.000678
47.720,62.8000,0.000678
47.737,62.8000,0.000678
47.753,62.8000,0.000678
47.769,62.8000,0.000678
47.791,62.8000,0.000678
47.808,62.8000,0.000678
47.838,62.8000,0.000678
47.869,62.8000,0.000772
47.900,62.8000,0.000772
47.917,62.8000,0.000772
47.947,62.8000,0.000772
47.962,62.8000,0.000772
47.994,62.8000,0.000772
48.009,62.8000,0.000772
48.024,62.8000,0.000772
48.048,62.8000,0.000772
48.070,62.8000,0.000772
48.089,62.8000,0.000772
48.104,62.8000,0.000772
48.121,62.8000,0.000772
48.136,62.8000,0.000800
48.153,62.8000,0.000800
48.169,62.8000,0.000800
48.185,62.8000,0.000800
48.200,62.8000,0.000800
48.216,62.8000,0.000800
48.233,62.8000,0.000800
48.248,62.8000,0.000800
48.264,62.8000,0.000800
48.280,62.8000,0.000800
48.296,62.8000,0.000800
48.313,62.8000,0.000800
48.328,62.8000,0.000800
48.345,62.8000,0.000800
48.361,62.8000,0.000800
48.376,62.8000,0.000753
48.392,62.8000,0.000753
48.408,62.8000,0.000753
48.424,62.8000,0.000753
48.440,62.8000,0.000753
48.457,62.8000,0.000753
48.489,62.8000,0.000753
48.504,62.8000,0.000753
48.531,62.8000,0.000753
48.547,62.8000,0.000753
48.563,62.8000,0.000753
48.579,62.8000,0.000753
48.595,62.8000,0.000753
48.611,62.8000,0.000753
48.627,62.8000,0.000781
48.643,62.8000,0.000781
48.660,62.8000,0.000781
48.676,62.8000,0.000781
48.704,62.8000,0.000781
48.723,62.8000,0.000781
48.739,62.8000,0.000781
48.755,62.8000,0.000781
48.771,62.8000,0.000781
48.787,62.8000,0.000781
48.804,62.8000,0.000781
48.828,62.8000,0.000781
48.844,62.8000,0.000781
48.874,62.8000,0.000781
48.905,62.8000,0.000753
48.921,62.8000,0.000753
48.951,62.8000,0.000753
48.967,62.8000,0.000753
48.998,62.8000,0.000753
49.029,62.8000,0.000753
49.061,62.8000,0.000753
49.089,62.8000,0.000753
49.105,62.8000,0.000753
49.121,62.8000,0.000781
49.137,62.8000,0.000781
49.154,62.8000,0.000781
49.184,62.8000,0.000781
49.201,62.8000,0.000781
49.217,62.8000,0.000781
49.233,62.8000,0.000781
49.249,62.8000,0.000781
49.266,62.8000,0.000781
49.281,62.8000,0.000781
49.297,62.8000,0.000781
49.313,62.8000,0.000781
49.329,62.8000,0.000781
49.345,62.8000,0.000781
49.361,62.8000,0.000781
49.378,62.8000,0.000781
49.393,62.8000,0.000781
49.409,62.8000,0.000781
49.425,62.8000,0.000781
49.441,62.8000,0.000781
49.457,62.8000,0.000781
49.473,62.8000,0.000781
49.489,62.8000,0.000781
49.505,62.8000,0.000781
49.521,62.8000,0.000781
49.537,62.8000,0.000781
49.553,62.8000,0.000781
49.568,62.8000,0.000781
49.585,62.8000,0.000781
49.611,62.8000,0.000781
49.627,62.8000,0.000781
49.643,62.8000,0.000753
49.659,62.8000,0.000753
49.675,62.8000,0.000753
49.691,62.8000,0.000753
49.707,62.8000,0.000753
49.723,62.8000,0.000753
49.739,62.8000,0.000753
49.755,62.8000,0.000753
49.771,62.8000,0.000753
49.787,62.8000,0.000753
49.803,62.8000,0.000753
49.819,62.8000,0.000753
49.842,62.8000,0.000753
49.865,62.8000,0.000753
49.882,62.8000,0.000791
49.900,62.8000,0.000791
49.927,62.8000,0.000791
49.947,62.8000,0.000791
49.962,62.8000,0.000791
49.979,62.8000,0.000791
49.995,62.8000,0.000791
50.011,62.8000,0.000791
50.029,62.8000,0.000791
50.051,62.8000,0.000791
50.067,62.8000,0.000791
50.083,62.8000,0.000791
50.113,62.8000,0.000791
50.144,62.8000,0.000810
50.174,62.8000,0.000810
50.190,62.8000,0.000810
50.206,62.8000,0.000810
50.221,62.8000,0.000810
50.237,62.8000,0.000810
50.268,62.8000,0.000810
50.284,62.8000,0.000810
50.300,62.8000,0.000810
50.315,62.8000,0.000810
50.331,62.8000,0.000810
50.346,62.8000,0.000810
50.362,62.8000,0.000791
50.380,62.8000,0.000791
50.409,62.8000,0.000791
50.426,62.8000,0.000791
50.443,62.8000,0.000791
50.458,62.8000,0.000791
50.475,62.8000,0.000791
50.490,62.8000,0.000791
50.507,62.8000,0.000791
50.523,62.8000,0.000791
50.538,62.8000,0.000791
50.554,62.8000,0.000791
50.570,62.8000,0.000791
50.586,62.8000,0.000791
50.602,62.8000,0.000762
50.618,62.8000,0.000762
50.635,62.8000,0.000762
50.650,62.8000,0.000762
50.666,62.8000,0.000762
50.688,62.8000,0.000762
50.705,62.8000,0.000762
50.720,62.8000,0.000762
50.736,62.8000,0.000762
50.753,62.8000,0.000762
50.769,62.8000,0.000762
50.785,62.8000,0.000762
50.800,62.8000,0.000762
50.817,62.8000,0.000762
50.833,62.8000,0.000762
50.849,62.8000,0.000762
50.865,62.8000,0.000753
50.880,62.8000,0.000753
50.896,62.8000,0.000753
50.913,62.8000,0.000753
50.930,62.8000,0.000753
50.945,62.8000,0.000753
50.967,62.8000,0.000753
50.997,62.8000,0.000753
51.013,62.8000,0.000753
51.044,62.8000,0.000753
51.060,62.8000,0.000753
51.075,62.8000,0.000753
51.105,62.8000,0.000753
51.121,62.8000,0.000753
51.136,62.8000,0.000772
51.153,62.8000,0.000772
51.169,62.8000,0.000772
51.185,62.8000,0.000772
51.201,62.8000,0.000772
51.228,62.8000,0.000772
51.252,62.8000,0.000772
51.275,62.8000,0.000772
51.292,62.8000,0.000772
51.308,62.8000,0.000772
51.324,62.8000,0.000772
51.339,62.8000,0.000772
51.357,62.8000,0.000772
51.372,62.8000,0.000772
51.387,62.8000,0.000734
51.403,62.8000,0.000734
51.420,62.8000,0.000734
51.436,62.8000,0.000734
51.451,62.8000,0.000734
51.467,62.8000,0.000734
51.483,62.8000,0.000734
51.500,62.8000,0.000734
51.515,62.8000,0.000734
51.531,62.8000,0.000734
51.548,62.8000,0.000734
51.563,62.8000,0.000734
51.579,62.8000,0.000734
51.595,62.8000,0.000734
51.611,62.8000,0.000734
51.627,62.8000,0.000640
51.643,62.8000,0.000640
51.659,62.8000,0.000640
51.676,62.8000,0.000640
51.691,62.8000,0.000640
51.707,62.8000,0.000640
51.731,62.8000,0.000640
51.754,62.8000,0.000640
51.771,62.8000,0.000640
51.787,62.8000,0.000640
51.804,62.8000,0.000640
51.819,62.8000,0.000640
51.835,62.8000,0.000640
51.851,62.8000,0.000612
51.867,62.7998,0.000612
51.883,62.7994,0.000612
51.900,62.7988,0.000612
51.915,62.7980,0.000612
51.932,62.7970,0.000612
51.947,62.7959,0.000612
51.963,62.7946,0.000612
51.979,62.7929,0.000612
51.995,62.7912,0.000612
52.011,62.7892,0.000612
52.027,62.7872,0.000612
52.043,62.7849,0.000612
52.059,62.7822,0.000612
52.075,62.7797,0.000612
52.091,62.7767,0.000612
52.107,62.7736,0.000612
52.123,62.7702,0.000612
52.139,62.7669,0.000838
52.155,62.7632,0.000838
52.171,62.7593,0.000838
52.187,62.7551,0.000838
52.203,62.7509,0.000838
52.219,62.7463,0.000838
52.236,62.7413,0.000838
52.266,62.7320,0.000838
52.293,62.7234,0.000838
52.309,62.7177,0.000838
52.325,62.7121,0.000838
52.341,62.7060,0.000838
52.357,62.6999,0.000838
52.373,62.6937,0.000838
52.390,62.6869,0.002513
52.405,62.6806,0.002513
52.423,62.6726,0.002513
52.452,62.6592,0.002513
52.469,62.6517,0.002513
52.487,62.6431,0.002513
52.502,62.6356,0.002513
52.530,62.6213,0.002513
52.549,62.6110,0.002513
52.565,62.6024,0.002513
52.581,62.5939,0.002513
52.597,62.5850,0.002513
52.616,62.5739,0.002513
52.638,62.5604,0.002513
52.669,62.5419,0.002890
52.699,62.5221,0.002890
52.730,62.5020,0.002890
52.746,62.4912,0.002890
52.762,62.4800,0.002890
52.793,62.4586,0.002890
52.816,62.4410,0.002890
52.838,62.4248,0.002890
52.854,62.4131,0.002890
52.869,62.4009,0.002890
52.885,62.3885,0.001421
52.901,62.3761,0.001421
52.932,62.3512,0.001421
52.948,62.3373,0.001421
52.963,62.3249,0.001421
52.995,62.2973,0.001421
53.025,62.2706,0.001421
53.056,62.2425,0.001421
53.072,62.2285,0.001421
53.088,62.2135,0.001421
53.104,62.1979,0.001421
53.120,62.1826,0.001421
53.135,62.1676,0.001017
53.151,62.1520,0.001017
53.170,62.1325,0.001017
53.195,62.1077,0.001017
53.216,62.0865,0.001017
53.232,62.0693,0.001017
53.248,62.0524,0.001017
53.264,62.0349,0.001017
53.288,62.0092,0.001017
53.319,61.9755,0.001017
53.335,61.9576,0.001017
53.357,61.9322,0.001017
53.372,61.9150,0.001017
53.388,61.8959,0.001007
53.403,61.8784,0.001007
53.420,61.8588,0.001007
53.435,61.8399,0.001007
53.451,61.8208,0.001007
53.468,61.7999,0.001007
53.483,61.7807,0.001007
53.499,61.7617,0.001007
53.516,61.7407,0.001007
53.531,61.7209,0.001007
53.547,61.7002,0.001007
53.563,61.6797,0.001007
53.580,61.6583,0.001007
53.596,61.6369,0.001007
53.612,61.6156,0.001007
53.627,61.5945,0.000970
53.643,61.5732,0.000970
53.663,61.5455,0.000970
53.690,61.5073,0.000970
53.708,61.4838,0.000970
53.724,61.4603,0.000970
53.739,61.4385,0.000970
53.756,61.4149,0.000970
53.771,61.3920,0.000970
53.787,61.3690,0.000970
53.804,61.3445,0.000970
53.821,61.3190,0.000970
53.846,61.2804,0.000970
53.867,61.2490,0.000970
53.884,61.2233,0.000970
53.909,61.1830,0.000875
53.939,61.1366,0.000875
53.956,61.1099,0.000875
53.972,61.0835,0.000875
53.989,61.0564,0.000875
54.005,61.0298,0.000875
54.020,61.0058,0.000875
54.037,60.9785,0.000875
54.053,60.9498,0.000875
54.068,60.9255,0.000875
54.084,60.8987,0.000875
54.101,60.8686,0.000875
54.126,60.8254,0.000847
54.148,60.7888,0.000847
54.165,60.7600,0.000847
54.181,60.7317,0.000847
54.196,60.7040,0.000847
54.212,60.6752,0.000847
54.229,60.6454,0.000847
54.245,60.6166,0.000847
54.260,60.5884,0.000847
54.276,60.5590,0.000847
54.292,60.5290,0.000847
54.309,60.4985,0.000847
54.324,60.4699,0.000847
54.341,60.4372,0.000847
54.357,60.4080,0.000847
54.373,60.3763,0.000857
54.402,60.3221,0.000857
54.420,60.2862,0.000857
54.437,60.2526,0.000857
54.461,60.2042,0.000857
54.477,60.1738,0.000857
54.493,60.1413,0.000857
54.509,60.1090,0.000857
54.528,60.0680,0.000857
54.556,60.0127,0.000857
54.573,59.9786,0.000857
54.590,59.9445,0.000857
54.605,59.9113,0.000857
54.621,59.8781,0.000875
54.637,59.8453,0.000875
54.656,59.8045,0.000875
54.681,59.7499,0.000875
54.701,59.7080,0.000875
54.717,59.6736,0.000875
54.734,59.6405,0.000875
54.749,59.6065,0.000875
54.765,59.5742,0.000875
54.781,59.5412,0.000875
54.797,59.5089,0.000875
54.813,59.4768,0.000875
54.829,59.4436,0.000875
54.845,59.4103,0.000875
54.861,59.3801,0.000838
54.877,59.3483,0.000838
54.893,59.3164,0.000838
54.909,59.2832,0.000838
54.925,59.2538,0.000838
54.941,59.2222,0.000838
54.957,59.1914,0.000838
54.982,59.1437,0.000838
54.998,59.1133,0.000838
55.014,59.0833,0.000838
55.030,59.0529,0.000838
55.046,59.0231,0.000838
55.062,58.9945,0.000838
55.077,58.9653,0.000838
55.094,58.9353,0.000838
55.110,58.9067,0.000772
55.126,58.8774,0.000772
55.142,58.8489,0.000772
55.158,58.8207,0.000772
55.174,58.7923,0.000772
55.189,58.7637,0.000772
55.207,58.7334,0.000772
55.223,58.7081,0.000772
55.238,58.6816,0.000772
55.254,58.6545,0.000772
55.270,58.6275,0.000772
55.286,58.6002,0.000772
55.302,58.5725,0.000772
55.318,58.5476,0.000772
55.334,58.5200,0.000772
55.350,58.4950,0.000772
55.366,58.4687,0.000866
55.382,58.4434,0.000866
55.399,58.4162,0.000866
55.424,58.3750,0.000866
55.446,58.3419,0.000866
55.462,58.3169,0.000866
55.478,58.2934,0.000866
55.494,58.2691,0.000866
55.517,58.2336,0.000866
55.533,58.2098,0.000866
55.549,58.1862,0.000866
55.565,58.1634,0.000866
55.584,58.1359,0.000866
55.611,58.0969,0.000941
55.629,58.0707,0.000941
55.645,58.0478,0.000941
55.661,58.0260,0.000941
55.677,58.0034,0.000941
55.693,57.9822,0.000941
55.709,57.9600,0.000941
55.725,57.9384,0.000941
55.741,57.9176,0.000941
55.757,57.8959,0.000941
55.773,57.8747,0.000941
55.789,57.8538,0.000941
55.811,57.8257,0.000941
55.844,57.7833,0.000941
55.873,57.7484,0.000941
55.889,57.7273,0.000979
55.920,57.6917,0.000979
55.950,57.6548,0.000979
55.981,57.6198,0.000979
55.996,57.6021,0.000979
56.014,57.5827,0.000979
56.029,57.5652,0.000979
56.044,57.5486,0.000979
56.072,57.5181,0.000979
56.088,57.5007,0.000979
56.105,57.4833,0.001073
56.121,57.4668,0.001073
56.138,57.4490,0.001073
56.167,57.4198,0.001073
56.185,57.4016,0.001073
56.202,57.3848,0.001073
56.229,57.3585,0.001073
56.249,57.3396,0.001073
56.265,57.3243,0.001073
56.280,57.3101,0.001073
56.296,57.2955,0.001073
56.313,57.2808,0.001073
56.328,57.2667,0.001073
56.345,57.2523,0.001073
56.360,57.2390,0.001224
56.376,57.2253,0.001224
56.392,57.2114,0.001224
56.409,57.1984,0.001224
56.425,57.1851,0.001224
56.441,57.1723,0.001224
56.456,57.1598,0.001224
56.472,57.1473,0.001224
56.488,57.1351,0.001224
56.506,57.1218,0.001224
56.523,57.1088,0.001224
56.539,57.0975,0.001224
56.569,57.0756,0.001224
56.585,57.0647,0.001224
56.616,57.0440,0.001318
56.633,57.0328,0.001318
56.649,57.0224,0.001318
56.664,57.0125,0.001318
56.681,57.0023,0.001318
56.697,56.9922,0.001318
56.713,56.9828,0.001318
56.728,56.9738,0.001318
56.744,56.9645,0.001318
56.764,56.9531,0.001318
56.786,56.9415,0.001318
56.818,56.9244,0.001318
56.848,56.9095,0.001318
56.878,56.8949,0.001337
56.899,56.8852,0.001337
56.921,56.8757,0.001337
56.936,56.8691,0.001337
56.954,56.8615,0.001337
56.970,56.8549,0.001337
56.986,56.8487,0.001337
57.017,56.8372,0.001337
57.032,56.8319,0.001337
57.048,56.8261,0.001337
57.065,56.8207,0.001337
57.080,56.8158,0.001337
57.097,56.8107,0.001337
57.112,56.8061,0.001356
57.128,56.8014,0.001356
57.145,56.7970,0.001356
57.176,56.7891,0.001356
57.202,56.7830,0.001356
57.222,56.7785,0.001356
57.239,56.7752,0.001356
57.255,56.7722,0.001356
57.270,56.7695,0.001356
57.286,56.7668,0.001356
57.302,56.7644,0.001356
57.318,56.7622,0.001356
57.334,56.7601,0.001356
57.350,56.7582,0.001356
57.366,56.7565,0.001356
57.382,56.7550,0.001365
57.398,56.7537,0.001365
57.415,56.7525,0.001365
57.430,56.7518,0.001365
57.446,56.7510,0.001365
57.462,56.7505,0.001365
57.479,56.7501,0.001365
57.495,56.7500,0.001365
57.510,56.7500,0.001365
57.526,56.7500,0.001365
57.544,56.7500,0.001365
57.573,56.7500,0.001365
57.590,56.7500,0.001365
57.607,56.7500,0.001365
57.622,56.7500,0.001365
57.638,56.7500,0.001403
57.654,56.7500,0.001403
57.670,56.7503,0.001403
57.686,56.7506,0.001403
57.702,56.7513,0.001403
57.726,56.7525,0.001403
57.742,56.7535,0.001403
57.758,56.7547,0.001403
57.774,56.7562,0.001403
57.790,56.7578,0.001403
57.806,56.7597,0.001403
57.822,56.7617,0.001403
57.842,56.7647,0.001403
57.866,56.7684,0.001403
57.886,56.7719,0.001421
57.903,56.7751,0.001421
57.921,56.7788,0.001421
57.942,56.7834,0.001421
57.973,56.7906,0.001421
58.004,56.7986,0.001421
58.019,56.8027,0.001421
58.050,56.8119,0.001421
58.066,56.8169,0.001421
58.081,56.8218,0.001421
58.113,56.8326,0.001421
58.143,56.8438,0.001412
58.174,56.8556,0.001412
58.190,56.8619,0.001412
58.206,56.8687,0.001412
58.222,56.8759,0.001412
58.238,56.8829,0.001412
58.254,56.8902,0.001412
58.280,56.9024,0.001412
58.297,56.9106,0.001412
58.313,56.9183,0.001412
58.329,56.9266,0.001412
58.345,56.9353,0.001412
58.361,56.9435,0.001412
58.377,56.9521,0.001412
58.394,56.9617,0.001412
58.409,56.9704,0.001412
58.425,56.9796,0.001412
58.441,56.9894,0.001412
58.457,56.9989,0.001412
58.473,57.0090,0.001412
58.489,57.0192,0.001412
58.505,57.0290,0.001412
58.521,57.0399,0.001412
58.538,57.0508,0.001412
58.553,57.0611,0.001412
58.569,57.0725,0.001412
58.585,57.0835,0.001412
58.601,57.0951,0.001412
58.617,57.1072,0.001431
58.632,57.1184,0.001431
58.649,57.1314,0.001431
58.665,57.1431,0.001431
58.680,57.1551,0.001431
58.697,57.1681,0.001431
58.713,57.1813,0.001431
58.729,57.1940,0.001431
58.745,57.2068,0.001431
58.761,57.2206,0.001431
58.778,57.2348,0.001431
58.793,57.2480,0.001431
58.809,57.2621,0.001431
58.833,57.2830,0.001431
58.849,57.2977,0.001431
58.865,57.3126,0.001346
58.881,57.3271,0.001346
58.897,57.3431,0.001346
58.913,57.3576,0.001346
58.929,57.3729,0.001346
58.945,57.3882,0.001346
58.961,57.4046,0.001346
58.976,57.4201,0.001346
58.993,57.4372,0.001346
59.009,57.4531,0.001346
59.025,57.4697,0.001346
59.040,57.4864,0.001346
59.056,57.5032,0.001346
59.072,57.5201,0.001346
59.089,57.5381,0.001346
59.105,57.5556,0.001346
59.120,57.5729,0.001177
59.137,57.5913,0.001177
59.153,57.6095,0.001177
59.169,57.6281,0.001177
59.185,57.6457,0.001177
59.201,57.6647,0.001177
59.217,57.6842,0.001177
59.232,57.7030,0.001177
59.248,57.7217,0.001177
59.265,57.7431,0.001177
59.286,57.7678,0.001177
59.314,57.8026,0.001177
59.329,57.8218,0.001177
59.345,57.8427,0.001177
59.360,57.8625,0.001083
59.387,57.8979,0.001083
59.404,57.9206,0.001083
59.419,57.9406,0.001083
59.436,57.9625,0.001083
59.452,57.9846,0.001083
59.467,58.0058,0.001083
59.483,58.0276,0.001083
59.500,58.0505,0.001083
59.516,58.0736,0.001083
59.532,58.0967,0.001083
59.561,58.1383,0.001083
59.580,58.1664,0.001083
59.608,58.2069,0.001017
59.627,58.2362,0.001017
59.644,58.2617,0.001017
59.659,58.2841,0.001017
59.676,58.3105,0.001017
59.691,58.3331,0.001017
59.709,58.3615,0.001017
59.730,58.3954,0.001017
59.746,58.4181,0.001017
59.777,58.4679,0.001017
59.807,58.5172,0.001017
59.838,58.5677,0.001017
59.867,58.6188,0.000960
59.885,58.6472,0.000960
59.914,58.6964,0.000960
59.945,58.7508,0.000960
59.961,58.7783,0.000960
59.977,58.8067,0.000960
59.992,58.8336,0.000960
60.009,58.8640,0.000960
60.038,58.9150,0.000960
60.056,58.9485,0.000960
60.073,58.9790,0.000960
60.088,59.0071,0.000960
60.105,59.0380,0.000885
60.120,59.0668,0.000885
60.137,59.0993,0.000885
60.153,59.1292,0.000885
60.176,59.1718,0.000885
60.192,59.2040,0.000885
60.224,59.2663,0.000885
60.254,59.3259,0.000885
60.285,59.3863,0.000885
60.317,59.4516,0.000885
60.347,59.5130,0.000885
60.362,59.5415,0.000838
60.377,59.5740,0.000838
60.393,59.6060,0.000838
60.408,59.6379,0.000838
60.424,59.6719,0.000838
60.441,59.7077,0.000838
60.456,59.7396,0.000838
60.472,59.7726,0.000838
60.501,59.8352,0.000838
60.517,59.8677,0.000838
60.533,59.9008,0.000838
60.557,59.9498,0.000838
60.582,60.0029,0.000838
60.599,60.0363,0.000838
60.627,60.0917,0.000857
60.645,60.1287,0.000857
60.662,60.1623,0.000857
60.688,60.2135,0.000857
60.709,60.2551,0.000857
60.725,60.2857,0.000857
60.741,60.3163,0.000857
60.757,60.3478,0.000857
60.773,60.3777,0.000857
60.789,60.4074,0.000857
60.805,60.4376,0.000857
60.822,60.4710,0.000857
60.843,60.5103,0.000857
60.875,60.5667,0.000922
60.905,60.6229,0.000922
60.921,60.6503,0.000922
60.953,60.7062,0.000922
60.968,60.7343,0.000922
60.999,60.7869,0.000922
61.015,60.8143,0.000922
61.043,60.8623,0.000922
61.059,60.8881,0.000922
61.075,60.9149,0.000922
61.091,60.9421,0.000922
61.107,60.9678,0.000922
61.123,60.9951,0.000922
61.139,61.0200,0.000847
61.155,61.0466,0.000847
61.172,61.0730,0.000847
61.187,61.0979,0.000847
61.203,61.1219,0.000847
61.219,61.1489,0.000847
61.239,61.1791,0.000847
61.262,61.2136,0.000847
61.283,61.2456,0.000847
61.299,61.2703,0.000847
61.315,61.2931,0.000847
61.331,61.3178,0.000847
61.347,61.3403,0.000847
61.364,61.3647,0.000847
61.384,61.3950,0.000687
61.415,61.4377,0.000687
61.430,61.4602,0.000687
61.446,61.4823,0.000687
61.477,61.5248,0.000687
61.495,61.5482,0.000687
61.523,61.5863,0.000687
61.540,61.6081,0.000687
61.555,61.6289,0.000687
61.571,61.6483,0.000687
61.599,61.6855,0.000687
61.615,61.7058,0.000687
61.631,61.7249,0.000706
61.646,61.7442,0.000706
61.663,61.7647,0.000706
61.679,61.7839,0.000706
61.695,61.8026,0.000706
61.711,61.8222,0.000706
61.728,61.8417,0.000706
61.743,61.8592,0.000706
61.759,61.8778,0.000706
61.775,61.8960,0.000706
61.793,61.9165,0.000706
61.817,61.9438,0.000706
61.839,61.9672,0.000706
61.855,61.9851,0.000706
61.871,62.0028,0.000706
61.887,62.0185,0.000838
61.903,62.0354,0.000838
61.919,62.0525,0.000838
61.935,62.0681,0.000838
61.951,62.0848,0.000838
61.967,62.1004,0.000838
61.983,62.1161,0.000838
61.999,62.1316,0.000838
62.015,62.1474,0.000838
62.030,62.1623,0.000838
62.047,62.1773,0.000838
62.062,62.1918,0.000838
62.079,62.2077,0.000838
62.097,62.2228,0.000838
62.126,62.2487,0.000838
62.156,62.2749,0.000979
62.172,62.2877,0.000979
62.188,62.3011,0.000979
62.203,62.3141,0.000979
62.220,62.3279,0.000979
62.236,62.3403,0.000979
62.264,62.3625,0.000979
62.286,62.3783,0.000979
62.311,62.3973,0.000979
62.331,62.4118,0.000979
62.348,62.4238,0.000979
62.365,62.4349,0.000979
62.388,62.4514,0.000998
62.404,62.4616,0.000998
62.420,62.4722,0.000998
62.450,62.4914,0.000998
62.480,62.5100,0.000998
62.511,62.5279,0.000998
62.541,62.5453,0.000998
62.571,62.5621,0.000998
62.595,62.5748,0.000998
62.619,62.5867,0.000998
62.635,62.5944,0.000951
62.652,62.6022,0.000951
62.668,62.6098,0.000951
62.683,62.6167,0.000951
62.711,62.6287,0.000951
62.726,62.6357,0.000951
62.742,62.6420,0.000951
62.759,62.6485,0.000951
62.775,62.6545,0.000951
62.791,62.6607,0.000951
62.806,62.6664,0.000951
62.822,62.6719,0.000951
62.842,62.6786,0.000951
62.869,62.6869,0.000894
62.887,62.6925,0.000894
62.903,62.6972,0.000894
62.920,62.7019,0.000894
62.949,62.7092,0.000894
62.967,62.7137,0.000894
62.994,62.7199,0.000894
63.014,62.7240,0.000894
63.030,62.7270,0.000894
63.046,62.7299,0.000894
63.062,62.7325,0.000894
63.078,62.7351,0.000894
63.094,62.7374,0.000894
63.111,62.7396,0.000894
63.133,62.7422,0.000762
63.149,62.7438,0.000762
63.180,62.7464,0.000762
63.195,62.7475,0.000762
63.226,62.7490,0.000762
63.242,62.7495,0.000762
63.257,62.7499,0.000762
63.274,62.7500,0.000762
63.305,62.7500,0.000762
63.321,62.7500,0.000762
63.337,62.7500,0.000762
63.367,62.7500,0.000687
63.399,62.7500,0.000687
63.414,62.7500,0.000687
63.430,62.7500,0.000687
63.447,62.7500,0.000687
63.463,62.7500,0.000687
63.478,62.7500,0.000687
63.494,62.7500,0.000687
63.510,62.7500,0.000687
63.526,62.7500,0.000687
63.543,62.7500,0.000687
63.558,62.7500,0.000687
63.574,62.7500,0.000687
63.591,62.7500,0.000687
63.606,62.7500,0.000706
63.622,62.7500,0.000706
63.640,62.7500,0.000706
63.661,62.7500,0.000706
63.677,62.7500,0.000706
63.692,62.7500,0.000706
63.708,62.7500,0.000706
63.738,62.7500,0.000706
63.759,62.7500,0.000706
63.775,62.7500,0.000706
63.791,62.7500,0.000706
63.807,62.7500,0.000706
63.823,62.7500,0.000706
63.839,62.7500,0.000706
63.855,62.7500,0.000744
63.872,62.7500,0.000744
63.901,62.7500,0.000744
63.919,62.7500,0.000744
63.935,62.7500,0.000744
63.951,62.7500,0.000744
63.967,62.7500,0.000744
63.983,62.7500,0.000744
63.999,62.7500,0.000744
64.015,62.7500,0.000744
64.031,62.7500,0.000744
64.047,62.7500,0.000744
64.063,62.7500,0.000744
64.079,62.7500,0.000744
64.095,62.7500,0.000744
64.111,62.7500,0.000800
64.127,62.7500,0.000800
64.143,62.7500,0.000800
64.159,62.7500,0.000800
64.175,62.7500,0.000800
64.191,62.7500,0.000800
64.207,62.7500,0.000800
64.223,62.7500,0.000800
64.239,62.7500,0.000800
64.255,62.7500,0.000800
64.271,62.7500,0.000800
64.287,62.7500,0.000800
64.310,62.7500,0.000800
64.326,62.7500,0.000800
64.342,62.7500,0.000800
64.358,62.7500,0.000838
64.374,62.7500,0.000838
64.390,62.7500,0.000838
64.406,62.7500,0.000838
64.422,62.7500,0.000838
64.438,62.7500,0.000838
64.454,62.7500,0.000838
64.471,62.7500,0.000838
64.486,62.7500,0.000838
64.502,62.7500,0.000838
64.518,62.7500,0.000838
64.534,62.7500,0.000838
64.550,62.7500,0.000838
64.566,62.7500,0.000838
64.590,62.7500,0.000838
64.621,62.7500,0.000838
64.651,62.7500,0.000819
64.667,62.7500,0.000819
64.683,62.7500,0.000819
64.714,62.7500,0.000819
64.731,62.7500,0.000819
64.760,62.7500,0.000819
64.791,62.7500,0.000819
64.806,62.7500,0.000819
64.822,62.7500,0.000819
64.851,62.7500,0.000819
64.868,62.7500,0.000819
64.884,62.7500,0.000781
64.900,62.7500,0.000781
64.916,62.7500,0.000781
64.932,62.7500,0.000781
64.948,62.7500,0.000781
64.964,62.7500,0.000781
64.980,62.7500,0.000781
64.996,62.7500,0.000781
65.012,62.7500,0.000781
65.028,62.7500,0.000781
65.044,62.7500,0.000781
65.060,62.7500,0.000781
65.076,62.7500,0.000781
65.092,62.7500,0.000781
65.108,62.7500,0.000781
65.124,62.7500,0.000781
65.139,62.7500,0.000800
65.156,62.7500,0.000800
65.172,62.7500,0.000800
65.187,62.7500,0.000800
65.204,62.7500,0.000800
65.220,62.7500,0.000800
65.235,62.7500,0.000800
65.252,62.7500,0.000800
65.267,62.7500,0.000800
65.292,62.7500,0.000800
65.315,62.7500,0.000800
65.331,62.7500,0.000800
65.353,62.7500,0.000800
65.377,62.7500,0.000800
65.393,62.7500,0.000800
65.408,62.7500,0.000781
65.424,62.7500,0.000781
65.441,62.7500,0.000781
65.456,62.7500,0.000781
65.473,62.7500,0.000781
65.488,62.7500,0.000781
65.505,62.7500,0.000781
65.521,62.7500,0.000781
65.537,62.7500,0.000781
65.553,62.7500,0.000781
65.568,62.7500,0.000781
65.585,62.7500,0.000781
65.601,62.7500,0.000781
65.616,62.7500,0.000772
65.632,62.7500,0.000772
65.649,62.7500,0.000772
65.665,62.7500,0.000772
65.680,62.7500,0.000772
65.696,62.7500,0.000772
65.713,62.7500,0.000772
65.728,62.7500,0.000772
65.745,62.7500,0.000772
65.760,62.7500,0.000772
65.776,62.7500,0.000772
65.792,62.7500,0.000772
65.808,62.7500,0.000772
65.824,62.7500,0.000772
65.843,62.7500,0.000772
65.870,62.7500,0.000772
65.901,62.7500,0.000810
65.918,62.7500,0.000810
65.933,62.7500,0.000810
65.949,62.7500,0.000810
65.966,62.7500,0.000810
65.982,62.7500,0.000810
65.998,62.7500,0.000810
66.013,62.7500,0.000810
66.030,62.7500,0.000810
66.045,62.7500,0.000810
66.061,62.7500,0.000810
66.077,62.7500,0.000810
66.093,62.7500,0.000810
66.109,62.7500,0.000810
66.125,62.7500,0.000800
66.141,62.7500,0.000800
66.157,62.7500,0.000800
66.173,62.7500,0.000800
66.189,62.7500,0.000800
66.205,62.7500,0.000800
66.221,62.7500,0.000800
66.237,62.7500,0.000800
66.253,62.7500,0.000800
66.270,62.7500,0.000800
66.286,62.7500,0.000800
66.301,62.7500,0.000800
66.318,62.7500,0.000800
66.334,62.7500,0.000800
66.350,62.7500,0.000800
66.366,62.7500,0.000753
66.382,62.7500,0.000753
66.405,62.7500,0.000753
66.428,62.7500,0.000753
66.449,62.7500,0.000753
66.466,62.7500,0.000753
66.490,62.7500,0.000753
66.511,62.7500,0.000753
66.536,62.7500,0.000753
66.566,62.7500,0.000753
66.598,62.7500,0.000753
66.614,62.7500,0.000753
66.644,62.7500,0.000753
66.675,62.7500,0.000762
66.691,62.7500,0.000762
66.722,62.7500,0.000762
66.753,62.7500,0.000762
66.769,62.7500,0.000762
66.785,62.7500,0.000762
66.815,62.7500,0.000762
66.831,62.7500,0.000762
66.861,62.7500,0.000762
66.877,62.7500,0.000762
66.893,62.7500,0.000819
66.909,62.7500,0.000819
66.925,62.7500,0.000819
66.941,62.7500,0.000819
66.957,62.7500,0.000819
66.984,62.7500,0.000819
67.000,62.7500,0.000819
67.015,62.7500,0.000819
67.031,62.7500,0.000819
67.048,62.7500,0.000819
67.063,62.7500,0.000819
67.079,62.7500,0.000819
67.095,62.7500,0.000819
67.112,62.7500,0.000819
67.127,62.7500,0.000819
67.143,62.7500,0.000800
67.159,62.7500,0.000800
67.175,62.7500,0.000800
67.191,62.7500,0.000800
67.207,62.7500,0.000800
67.223,62.7500,0.000800
67.239,62.7500,0.000800
67.255,62.7500,0.000800
67.271,62.7500,0.000800
67.286,62.7500,0.000800
67.303,62.7500,0.000800
67.319,62.7500,0.000800
67.335,62.7500,0.000800
67.352,62.7500,0.000800
67.378,62.7500,0.000800
67.401,62.7500,0.000800
67.432,62.7500,0.000687
67.447,62.7500,0.000687
67.463,62.7500,0.000687
67.479,62.7500,0.000687
67.497,62.7500,0.000687
67.522,62.7500,0.000687
67.539,62.7500,0.000687
67.571,62.7500,0.000687
67.586,62.7500,0.000687
67.616,62.7500,0.000640
67.641,62.7498,0.000640
67.664,62.7490,0.000640
67.681,62.7483,0.000640
67.697,62.7474,0.000640
67.713,62.7463,0.000640
67.729,62.7451,0.000640
67.745,62.7436,0.000640
67.766,62.7411,0.000640
67.788,62.7385,0.000640
67.809,62.7356,0.000640
67.825,62.7330,0.000640
67.841,62.7306,0.000640
67.857,62.7277,0.000791
67.873,62.7246,0.000791
67.889,62.7214,0.000791
67.905,62.7179,0.000791
67.921,62.7143,0.000791
67.937,62.7103,0.000791
67.953,62.7064,0.000791
67.969,62.7024,0.000791
67.985,62.6979,0.000791
68.001,62.6930,0.000791
68.016,62.6886,0.000791
68.032,62.6836,0.000791
68.064,62.6733,0.000791
68.080,62.6676,0.000791
68.096,62.6620,0.000791
68.112,62.6561,0.002382
68.129,62.6497,0.002382
68.145,62.6432,0.002382
68.173,62.6315,0.002382
68.193,62.6232,0.002382
68.220,62.6108,0.002382
68.239,62.6018,0.002382
68.257,62.5934,0.002382
68.283,62.5801,0.002382
68.303,62.5699,0.002382
68.320,62.5611,0.002382
68.336,62.5527,0.002382
68.351,62.5440,0.003135
68.370,62.5331,0.003135
68.390,62.5218,0.003135
68.406,62.5122,0.003135
68.436,62.4937,0.003135
68.467,62.4741,0.003135
68.498,62.4541,0.003135
68.529,62.4325,0.003135
68.559,62.4113,0.003135
68.576,62.3995,0.003135
68.606,62.3771,0.003135
68.621,62.3657,0.003135
68.638,62.3527,0.001713
68.654,62.3408,0.001713
68.669,62.3281,0.001713
68.686,62.3148,0.001713
68.702,62.3021,0.001713
68.718,62.2887,0.001713
68.734,62.2744,0.001713
68.749,62.2617,0.001713
68.765,62.2481,0.001713
68.781,62.2338,0.001713
68.798,62.2192,0.001713
68.814,62.2048,0.001713
68.830,62.1899,0.001713
68.846,62.1754,0.001713
68.862,62.1599,0.001713
68.878,62.1444,0.001713
68.903,62.1211,0.001017
68.920,62.1039,0.001017
68.941,62.0827,0.001017
68.957,62.0669,0.001017
68.973,62.0500,0.001017
68.990,62.0331,0.001017
69.005,62.0171,0.001017
69.021,61.9999,0.001017
69.037,61.9827,0.001017
69.053,61.9655,0.001017
69.069,61.9481,0.001017
69.085,61.9305,0.001017
69.102,61.9111,0.001017
69.133,61.8752,0.001017
69.151,61.8556,0.001017
69.166,61.8373,0.001045
69.183,61.8164,0.001045
69.212,61.7826,0.001045
69.232,61.7581,0.001045
69.259,61.7246,0.001045
69.277,61.7028,0.001045
69.292,61.6836,0.001045
69.309,61.6627,0.001045
69.324,61.6426,0.001045
69.340,61.6219,0.001045
69.359,61.5970,0.001045
69.384,61.5644,0.001045
69.404,61.5357,0.001045
69.421,61.5141,0.001045
69.437,61.4924,0.001045
69.452,61.4700,0.001045
69.468,61.4479,0.001045
69.485,61.4250,0.001045
69.500,61.4024,0.001045
69.516,61.3804,0.001045
69.532,61.3568,0.001045
69.549,61.3331,0.001045
69.564,61.3099,0.001045
69.580,61.2866,0.001045
69.596,61.2629,0.001045
69.612,61.2387,0.001045
69.628,61.2140,0.001045
69.644,61.1892,0.001045
69.660,61.1645,0.001017
69.676,61.1391,0.001017
69.692,61.1145,0.001017
69.708,61.0892,0.001017
69.725,61.0622,0.001017
69.755,61.0148,0.001017
69.772,60.9868,0.001017
69.795,60.9486,0.001017
69.817,60.9119,0.001017
69.836,60.8804,0.001017
69.852,60.8520,0.001017
69.868,60.8267,0.001017
69.884,60.7996,0.000875
69.900,60.7717,0.000875
69.916,60.7431,0.000875
69.932,60.7146,0.000875
69.948,60.6881,0.000875
69.964,60.6589,0.000875
69.980,60.6301,0.000875
69.996,60.6013,0.000875
70.012,60.5728,0.000875
70.028,60.5438,0.000875
70.044,60.5130,0.000875
70.060,60.4852,0.000875
70.076,60.4550,0.000875
70.092,60.4251,0.000875
70.108,60.3946,0.000875
70.124,60.3651,0.000828
70.140,60.3347,0.000828
70.156,60.3034,0.000828
70.172,60.2718,0.000828
70.188,60.2417,0.000828
70.218,60.1815,0.000828
70.235,60.1503,0.000828
70.250,60.1194,0.000828
70.267,60.0854,0.000828
70.289,60.0359,0.000828
70.314,59.9899,0.000828
70.330,59.9567,0.000828
70.346,59.9251,0.000828
70.362,59.8905,0.000828
70.378,59.8584,0.000875
70.394,59.8237,0.000875
70.410,59.7900,0.000875
70.426,59.7565,0.000875
70.442,59.7225,0.000875
70.458,59.6893,0.000875
70.474,59.6534,0.000875
70.490,59.6201,0.000875
70.505,59.5878,0.000875
70.522,59.5546,0.000875
70.538,59.5180,0.000875
70.554,59.4883,0.000875
70.570,59.4557,0.000875
70.586,59.4227,0.000875
70.602,59.3895,0.000875
70.618,59.3581,0.000857
70.634,59.3261,0.000857
70.650,59.2941,0.000857
70.666,59.2614,0.000857
70.681,59.2319,0.000857
70.698,59.1984,0.000857
70.714,59.1689,0.000857
70.730,59.1378,0.000857
70.745,59.1081,0.000857
70.773,59.0536,0.000857
70.790,59.0246,0.000857
70.806,58.9947,0.000857
70.821,58.9652,0.000857
70.838,58.9348,0.000857
70.854,58.9051,0.000857
70.870,58.8755,0.000819
70.886,58.8479,0.000819
70.902,58.8182,0.000819
70.918,58.7891,0.000819
70.933,58.7622,0.000819
70.950,58.7333,0.000819
70.966,58.7050,0.000819
70.981,58.6780,0.000819
70.998,58.6507,0.000819
71.013,58.6236,0.000819
71.032,58.5915,0.000819
71.054,58.5548,0.000819
71.071,58.5270,0.000819
71.101,58.4757,0.000819
71.132,58.4246,0.000847
71.149,58.3995,0.000847
71.179,58.3510,0.000847
71.195,58.3251,0.000847
71.211,58.3016,0.000847
71.226,58.2765,0.000847
71.242,58.2532,0.000847
71.272,58.2063,0.000847
71.297,58.1702,0.000847
71.312,58.1470,0.000847
71.329,58.1227,0.000847
71.345,58.0995,0.000847
71.360,58.0771,0.000988
71.376,58.0540,0.000988
71.393,58.0308,0.000988
71.409,58.0081,0.000988
71.424,57.9863,0.000988
71.441,57.9633,0.000988
71.456,57.9421,0.000988
71.472,57.9193,0.000988
71.488,57.8986,0.000988
71.505,57.8760,0.000988
71.520,57.8559,0.000988
71.537,57.8339,0.000988
71.552,57.8140,0.000988
71.569,57.7927,0.000988
71.585,57.7720,0.000988
71.600,57.7524,0.000988
71.617,57.7317,0.001083
71.633,57.7110,0.001083
71.655,57.6845,0.001083
71.677,57.6581,0.001083
71.696,57.6348,0.001083
71.712,57.6160,0.001083
71.728,57.5971,0.001083
71.745,57.5780,0.001083
71.760,57.5599,0.001083
71.777,57.5412,0.001083
71.798,57.5170,0.001083
71.829,57.4834,0.001083
71.861,57.4491,0.001120
71.891,57.4175,0.001120
71.906,57.4023,0.001120
71.922,57.3853,0.001120
71.938,57.3678,0.001120
71.969,57.3381,0.001120
71.986,57.3224,0.001120
72.017,57.2919,0.001120
72.032,57.2777,0.001120
72.048,57.2629,0.001120
72.065,57.2479,0.001120
72.081,57.2336,0.001120
72.096,57.2197,0.001120
72.112,57.2056,0.001214
72.132,57.1882,0.001214
72.156,57.1684,0.001214
72.176,57.1514,0.001214
72.194,57.1364,0.001214
72.209,57.1240,0.001214
72.233,57.1052,0.001214
72.264,57.0813,0.001214
72.296,57.0572,0.001214
72.326,57.0352,0.001214
72.357,57.0137,0.001214
72.377,57.0003,0.001299
72.394,56.9893,0.001299
72.409,56.9791,0.001299
72.425,56.9689,0.001299
72.441,56.9583,0.001299
72.463,56.9452,0.001299
72.479,56.9354,0.001299
72.509,56.9178,0.001299
72.539,56.9010,0.001299
72.570,56.8845,0.001299
72.600,56.8690,0.001384
72.617,56.8603,0.001384
72.633,56.8522,0.001384
72.649,56.8448,0.001384
72.665,56.8377,0.001384
72.682,56.8300,0.001384
72.707,56.8187,0.001384
72.729,56.8098,0.001384
72.745,56.8032,0.001384
72.761,56.7972,0.001384
72.777,56.7913,0.001384
72.793,56.7855,0.001384
72.810,56.7794,0.001384
72.832,56.7716,0.001384
72.863,56.7618,0.001384
72.894,56.7528,0.001384
72.925,56.7446,0.001468
72.943,56.7400,0.001468
72.971,56.7333,0.001468
73.002,56.7267,0.001468
73.018,56.7237,0.001468
73.049,56.7183,0.001468
73.065,56.7155,0.001468
73.081,56.7133,0.001468
73.096,56.7112,0.001468
73.114,56.7090,0.001468
73.144,56.7059,0.001450
73.161,56.7044,0.001450
73.177,56.7031,0.001450
73.193,56.7022,0.001450
73.209,56.7014,0.001450
73.225,56.7008,0.001450
73.245,56.7003,0.001450
73.266,56.7000,0.001450
73.296,56.7000,0.001450
73.312,56.7000,0.001450
73.328,56.7000,0.001450
73.358,56.7000,0.001450
73.389,56.7000,0.001450
73.419,56.7002,0.001450
73.449,56.7009,0.001450
73.479,56.7023,0.001450
73.495,56.7033,0.001450
73.511,56.7044,0.001450
73.527,56.7059,0.001450
73.545,56.7076,0.001450
73.574,56.7112,0.001450
73.591,56.7133,0.001450
73.607,56.7157,0.001450
73.623,56.7183,0.001450
73.638,56.7210,0.001516
73.655,56.7239,0.001516
73.670,56.7272,0.001516
73.686,56.7304,0.001516
73.702,56.7339,0.001516
73.719,56.7377,0.001516
73.735,56.7416,0.001516
73.751,56.7457,0.001516
73.766,56.7499,0.001516
73.783,56.7545,0.001516
73.799,56.7592,0.001516
73.814,56.7640,0.001516
73.830,56.7690,0.001516
73.848,56.7748,0.001516
73.864,56.7804,0.001516
73.879,56.7856,0.001516
73.894,56.7913,0.001478
73.911,56.7975,0.001478
73.926,56.8036,0.001478
73.942,56.8101,0.001478
73.959,56.8169,0.001478
73.975,56.8237,0.001478
73.991,56.8306,0.001478
74.007,56.8383,0.001478
74.038,56.8527,0.001478
74.054,56.8603,0.001478
74.069,56.8681,0.001478
74.085,56.8759,0.001478
74.102,56.8850,0.001478
74.119,56.8936,0.001478
74.148,56.9096,0.001421
74.166,56.9202,0.001421
74.182,56.9294,0.001421
74.201,56.9416,0.001421
74.226,56.9564,0.001421
74.245,56.9683,0.001421
74.261,56.9787,0.001421
74.277,56.9891,0.001421
74.293,57.0001,0.001421
74.310,57.0111,0.001421
74.326,57.0224,0.001421
74.341,57.0329,0.001421
74.357,57.0447,0.001421
74.374,57.0565,0.001421
74.389,57.0679,0.001403
74.405,57.0798,0.001403
74.422,57.0926,0.001403
74.437,57.1046,0.001403
74.453,57.1175,0.001403
74.469,57.1302,0.001403
74.485,57.1432,0.001403
74.501,57.1562,0.001403
74.518,57.1700,0.001403
74.533,57.1835,0.001403
74.550,57.1973,0.001403
74.566,57.2116,0.001403
74.597,57.2393,0.001403
74.614,57.2546,0.001403
74.629,57.2686,0.001327
74.645,57.2833,0.001327
74.661,57.2985,0.001327
74.676,57.3132,0.001327
74.707,57.3432,0.001327
74.724,57.3606,0.001327
74.740,57.3760,0.001327
74.756,57.3920,0.001327
74.771,57.4080,0.001327
74.793,57.4315,0.001327
74.808,57.4472,0.001327
74.832,57.4725,0.001327
74.852,57.4942,0.001327
74.867,57.5110,0.001327
74.883,57.5289,0.001280
74.899,57.5470,0.001280
74.915,57.5654,0.001280
74.931,57.5841,0.001280
74.947,57.6018,0.001280
74.963,57.6207,0.001280
74.980,57.6411,0.001280
74.999,57.6642,0.001280
75.018,57.6874,0.001280
75.049,57.7250,0.001280
75.065,57.7444,0.001280
75.080,57.7655,0.001280
75.098,57.7883,0.001280
75.127,57.8246,0.001205
75.143,57.8460,0.001205
75.158,57.8669,0.001205
75.174,57.8876,0.001205
75.205,57.9300,0.001205
75.221,57.9501,0.001205
75.252,57.9931,0.001205
75.267,58.0152,0.001205
75.284,58.0391,0.001205
75.313,58.0808,0.001205
75.331,58.1067,0.001205
75.347,58.1309,0.001205
75.363,58.1546,0.001205
75.379,58.1778,0.001054
75.395,58.2018,0.001054
75.411,58.2264,0.001054
75.428,58.2515,0.001054
75.451,58.2877,0.001054
75.482,58.3359,0.001054
75.497,58.3595,0.001054
75.513,58.3840,0.001054
75.528,58.4087,0.001054
75.544,58.4353,0.001054
75.574,58.4834,0.001054
75.604,58.5332,0.001054
75.620,58.5594,0.001054
75.646,58.6032,0.000960
75.662,58.6306,0.000960
75.678,58.6582,0.000960
75.694,58.6855,0.000960
75.710,58.7137,0.000960
75.726,58.7413,0.000960
75.742,58.7702,0.000960
75.759,58.8005,0.000960
75.774,58.8277,0.000960
75.790,58.8563,0.000960
75.806,58.8862,0.000960
75.824,58.9175,0.000960
75.852,58.9698,0.000932
75.870,59.0032,0.000932
75.887,59.0344,0.000932
75.913,59.0854,0.000932
75.934,59.1233,0.000932
75.951,59.1557,0.000932
75.966,59.1861,0.000932
75.982,59.2159,0.000932
75.998,59.2484,0.000932
76.014,59.2812,0.000932
76.030,59.3110,0.000932
76.046,59.3425,0.000932
76.062,59.3754,0.000932
76.078,59.4072,0.000932
76.094,59.4393,0.000932
76.110,59.4728,0.000866
76.127,59.5078,0.000866
76.145,59.5444,0.000866
76.161,59.5773,0.000866
76.191,59.6424,0.000866
76.222,59.7075,0.000866
76.238,59.7410,0.000866
76.255,59.7776,0.000866
76.285,59.8401,0.000866
76.302,59.8747,0.000866
76.318,59.9079,0.000866
76.334,59.9408,0.000866
76.350,59.9725,0.000810
76.366,60.0048,0.000810
76.382,60.0394,0.000810
76.410,60.0943,0.000810
76.430,60.1330,0.000810
76.446,60.1646,0.000810
76.462,60.1961,0.000810
76.487,60.2441,0.000810
76.517,60.3027,0.000810
76.549,60.3623,0.000810
76.579,60.4193,0.000810
76.610,60.4762,0.000866
76.641,60.5317,0.000866
76.656,60.5606,0.000866
76.671,60.5872,0.000866
76.687,60.6157,0.000866
76.702,60.6426,0.000866
76.718,60.6702,0.000866
76.749,60.7236,0.000866
76.765,60.7511,0.000866
76.780,60.7778,0.000866
76.797,60.8062,0.000866
76.813,60.8341,0.000866
76.841,60.8796,0.000866
76.860,60.9116,0.000875
76.876,60.9378,0.000875
76.893,60.9655,0.000875
76.908,60.9895,0.000875
76.927,61.0206,0.000875
76.949,61.0560,0.000875
76.981,61.1051,0.000875
77.011,61.1505,0.000875
77.041,61.1961,0.000875
77.056,61.2197,0.000875
77.088,61.2658,0.000875
77.119,61.3125,0.000875
77.149,61.3555,0.000828
77.168,61.3818,0.000828
77.196,61.4209,0.000828
77.213,61.4444,0.000828
77.229,61.4665,0.000828
77.244,61.4873,0.000828
77.260,61.5092,0.000828
77.288,61.5456,0.000828
77.304,61.5672,0.000828
77.319,61.5871,0.000828
77.336,61.6081,0.000828
77.352,61.6306,0.000828
77.368,61.6488,0.000828
77.383,61.6685,0.000819
77.400,61.6888,0.000819
77.416,61.7084,0.000819
77.432,61.7281,0.000819
77.447,61.7469,0.000819
77.463,61.7659,0.000819
77.480,61.7860,0.000819
77.496,61.8045,0.000819
77.511,61.8222,0.000819
77.527,61.8409,0.000819
77.544,61.8602,0.000819
77.560,61.8773,0.000819
77.576,61.8956,0.000819
77.592,61.9123,0.000819
77.608,61.9302,0.000819
77.631,61.9549,0.000819
77.661,61.9875,0.000885
77.677,62.0028,0.000885
77.707,62.0338,0.000885
77.739,62.0649,0.000885
77.769,62.0947,0.000885
77.800,62.1242,0.000885
77.816,62.1379,0.000885
77.846,62.1656,0.000885
77.867,62.1842,0.000885
77.893,62.2073,0.001007
77.909,62.2212,0.001007
77.925,62.2352,0.001007
77.941,62.2479,0.001007
77.957,62.2609,0.001007
77.974,62.2742,0.001007
77.989,62.2868,0.001007
78.005,62.2993,0.001007
78.021,62.3115,0.001007
78.037,62.3245,0.001007
78.053,62.3360,0.001007
78.069,62.3477,0.001007
78.085,62.3590,0.001007
78.101,62.3708,0.001007
78.117,62.3817,0.001064
78.133,62.3926,0.001064
78.149,62.4036,0.001064
78.165,62.4144,0.001064
78.181,62.4245,0.001064
78.197,62.4350,0.001064
78.213,62.4449,0.001064
78.229,62.4549,0.001064
78.245,62.4648,0.001064
78.261,62.4740,0.001064
78.277,62.4833,0.001064
78.293,62.4924,0.001064
78.309,62.5011,0.001064
78.325,62.5097,0.001064
78.341,62.5185,0.001064
78.357,62.5265,0.001064
78.373,62.5345,0.001064
78.402,62.5489,0.000979
78.419,62.5566,0.000979
78.434,62.5640,0.000979
78.450,62.5707,0.000979
78.474,62.5814,0.000979
78.497,62.5909,0.000979
78.514,62.5975,0.000979
78.530,62.6041,0.000979
78.546,62.6098,0.000979
78.562,62.6157,0.000979
78.578,62.6212,0.000979
78.594,62.6268,0.000979
78.610,62.6321,0.000979
78.626,62.6370,0.000913
78.642,62.6418,0.000913
78.658,62.6466,0.000913
78.674,62.6509,0.000913
78.690,62.6552,0.000913
78.706,62.6592,0.000913
78.722,62.6632,0.000913
78.738,62.6668,0.000913
78.754,62.6703,0.000913
78.770,62.6736,0.000913
78.786,62.6767,0.000913
78.802,62.6796,0.000913
78.818,62.6824,0.000913
78.834,62.6849,0.000913
78.850,62.6872,0.000913
78.866,62.6893,0.000828
78.882,62.6912,0.000828
78.898,62.6931,0.000828
78.914,62.6946,0.000828
78.930,62.6960,0.000828
78.958,62.6978,0.000828
78.974,62.6987,0.000828
78.990,62.6993,0.000828
79.006,62.6998,0.000828
79.021,62.7000,0.000828
79.039,62.7000,0.000828
79.068,62.7000,0.000828
79.087,62.7000,0.000828
79.115,62.7000,0.000734
79.134,62.7000,0.000734
79.150,62.7000,0.000734
79.166,62.7000,0.000734
79.182,62.7000,0.000734
79.198,62.7000,0.000734
79.214,62.7000,0.000734
79.230,62.7000,0.000734
79.246,62.7000,0.000734
79.262,62.7000,0.000734
79.277,62.7000,0.000734
79.294,62.7000,0.000734
79.310,62.7000,0.000734
79.326,62.7000,0.000734
79.342,62.7000,0.000734
79.358,62.7000,0.000762
79.374,62.7000,0.000762
79.390,62.7000,0.000762
79.406,62.7000,0.000762
79.421,62.7000,0.000762
79.439,62.7000,0.000762
79.454,62.7000,0.000762
79.469,62.7000,0.000762
79.500,62.7000,0.000762
79.530,62.7000,0.000762
79.546,62.7000,0.000762
79.567,62.7000,0.000762
79.591,62.7000,0.000762
79.611,62.7000,0.000800
79.627,62.7000,0.000800
79.643,62.7000,0.000800
79.658,62.7000,0.000800
79.674,62.7000,0.000800
79.691,62.7000,0.000800
79.706,62.7000,0.000800
79.722,62.7000,0.000800
79.738,62.7000,0.000800
79.755,62.7000,0.000800
79.777,62.7000,0.000800
79.807,62.7000,0.000800
79.838,62.7000,0.000800
79.870,62.7000,0.000838
79.885,62.7000,0.000838
79.901,62.7000,0.000838
79.931,62.7000,0.000838
79.962,62.7000,0.000838
79.980,62.7000,0.000838
79.995,62.7000,0.000838
80.010,62.7000,0.000838
80.040,62.7000,0.000838
80.056,62.7000,0.000838
80.072,62.7000,0.000838
80.102,62.7000,0.000838
80.119,62.7000,0.000838
80.135,62.7000,0.000838
80.151,62.7000,0.000857
80.168,62.7000,0.000857
80.183,62.7000,0.000857
80.199,62.7000,0.000857
80.216,62.7000,0.000857
80.232,62.7000,0.000857
80.248,62.7000,0.000857
80.264,62.7000,0.000857
80.280,62.7000,0.000857
80.296,62.7000,0.000857
80.312,62.7000,0.000857
80.333,62.7000,0.000857
80.349,62.7000,0.000857
80.365,62.7000,0.000857
80.395,62.7000,0.000828
80.410,62.7000,0.000828
80.442,62.7000,0.000828
80.472,62.7000,0.000828
80.488,62.7000,0.000828
80.503,62.7000,0.000828
80.520,62.7000,0.000828
80.536,62.7000,0.000828
80.551,62.7000,0.000828
80.567,62.7000,0.000828
80.596,62.7000,0.000828
80.613,62.7000,0.000828
80.629,62.7000,0.000819
80.644,62.7000,0.000819
80.662,62.7000,0.000819
80.690,62.7000,0.000819
80.708,62.7000,0.000819
80.724,62.7000,0.000819
80.740,62.7000,0.000819
80.756,62.7000,0.000819
80.772,62.7000,0.000819
80.789,62.7000,0.000819
80.804,62.7000,0.000819
80.820,62.7000,0.000819
80.837,62.7000,0.000819
80.853,62.7000,0.000819
80.868,62.7000,0.000819
80.884,62.7000,0.000866
80.900,62.7000,0.000866
80.916,62.7000,0.000866
80.932,62.7000,0.000866
80.948,62.7000,0.000866
80.964,62.7000,0.000866
80.981,62.7000,0.000866
80.996,62.7000,0.000866
81.012,62.7000,0.000866
81.029,62.7000,0.000866
81.045,62.7000,0.000866
81.060,62.7000,0.000866
81.076,62.7000,0.000866
81.093,62.7000,0.000866
81.122,62.7000,0.000866
81.141,62.7000,0.000866
81.172,62.7000,0.000941
81.203,62.7000,0.000941
81.218,62.7000,0.000941
81.233,62.7000,0.000941
81.249,62.7000,0.000941
81.265,62.7000,0.000941
81.282,62.7000,0.000941
81.311,62.7000,0.000941
81.329,62.7000,0.000941
81.346,62.7000,0.000941
81.361,62.7000,0.000941
81.377,62.7000,0.000913
81.393,62.7000,0.000913
81.409,62.7000,0.000913
81.425,62.7000,0.000913
81.442,62.7000,0.000913
81.457,62.7000,0.000913
81.473,62.7000,0.000913
81.489,62.7000,0.000913
81.505,62.7000,0.000913
81.521,62.7000,0.000913
81.538,62.7000,0.000913
81.559,62.7000,0.000913
81.575,62.7000,0.000913
81.605,62.7000,0.000913
81.636,62.7000,0.000913
81.651,62.7000,0.000857
81.683,62.7000,0.000857
81.713,62.7000,0.000857
81.729,62.7000,0.000857
81.745,62.7000,0.000857
81.761,62.7000,0.000857
81.778,62.7000,0.000857
81.805,62.7000,0.000857
81.825,62.7000,0.000857
81.842,62.7000,0.000857
81.857,62.7000,0.000857
81.873,62.7000,0.000847
81.889,62.7000,0.000847
81.905,62.7000,0.000847
81.922,62.7000,0.000847
81.945,62.7000,0.000847
81.976,62.7000,0.000847
81.992,62.7000,0.000847
82.023,62.7000,0.000847
82.053,62.7000,0.000847
82.069,62.7000,0.000847
82.085,62.7000,0.000847
82.100,62.7000,0.000847
82.131,62.7000,0.000847
82.161,62.7000,0.000847
82.192,62.7000,0.000847
82.209,62.7000,0.000847
82.225,62.7000,0.000847
82.240,62.7000,0.000847
82.256,62.7000,0.000847
82.276,62.7000,0.000847
82.301,62.7000,0.000847
82.321,62.7000,0.000847
82.337,62.7000,0.000847
82.352,62.7000,0.000847
82.369,62.7000,0.000847
82.384,62.7000,0.000847
82.401,62.7000,0.000847
82.417,62.7000,0.000847
82.433,62.7000,0.000847
82.448,62.7000,0.000847
82.464,62.7000,0.000847
82.481,62.7000,0.000847
82.497,62.7000,0.000847
82.512,62.7000,0.000847
82.529,62.7000,0.000847
82.544,62.7000,0.000847
82.560,62.7000,0.000847
82.576,62.7000,0.000847
82.592,62.7000,0.000847
82.609,62.7000,0.000800
82.625,62.7000,0.000800
82.640,62.7000,0.000800
82.657,62.7000,0.000800
82.672,62.7000,0.000800
82.689,62.7000,0.000800
82.705,62.7000,0.000800
82.728,62.7000,0.000800
82.743,62.7000,0.000800
82.759,62.7000,0.000800
82.775,62.7000,0.000800
82.791,62.7000,0.000800
82.807,62.7000,0.000800
82.824,62.7000,0.000800
82.839,62.7000,0.000800
82.855,62.7000,0.000800
82.871,62.7000,0.000781
82.888,62.7000,0.000781
82.904,62.7000,0.000781
82.920,62.7000,0.000781
82.936,62.7000,0.000781
82.967,62.7000,0.000781
82.985,62.7000,0.000781
83.013,62.7000,0.000781
83.032,62.7000,0.000781
83.048,62.7000,0.000781
83.063,62.7000,0.000781
83.079,62.7000,0.000781
83.095,62.7000,0.000781
83.111,62.7000,0.000781
83.128,62.7000,0.000800
83.143,62.7000,0.000800
83.160,62.7000,0.000800
83.175,62.7000,0.000800
83.191,62.7000,0.000800
83.208,62.7000,0.000800
83.224,62.7000,0.000800
83.239,62.7000,0.000800
83.255,62.7000,0.000800
83.278,62.7000,0.000800
83.294,62.7000,0.000800
83.310,62.7000,0.000800
83.325,62.7000,0.000800
83.342,62.6999,0.000800
83.357,62.6997,0.000800
83.374,62.6991,0.000762
83.389,62.6984,0.000762
83.407,62.6974,0.000762
83.432,62.6957,0.000762
83.463,62.6927,0.000762
83.493,62.6893,0.000762
83.508,62.6873,0.000762
83.540,62.6824,0.000762
83.571,62.6771,0.000762
83.601,62.6710,0.000762
83.631,62.6643,0.001007
83.647,62.6605,0.001007
83.662,62.6568,0.001007
83.693,62.6486,0.001007
83.710,62.6437,0.001007
83.726,62.6390,0.001007
83.741,62.6342,0.001007
83.758,62.6289,0.001007
83.773,62.6238,0.001007
83.789,62.6182,0.001007
83.806,62.6124,0.001007
83.832,62.6023,0.001007
83.847,62.5966,0.001007
83.864,62.5895,0.002796
83.893,62.5773,0.002796
83.916,62.5675,0.002796
83.940,62.5563,0.002796
83.959,62.5473,0.002796
83.975,62.5394,0.002796
83.991,62.5319,0.002796
84.007,62.5237,0.002796
84.023,62.5149,0.002796
84.039,62.5066,0.002796
84.055,62.4980,0.002796
84.071,62.4888,0.002796
84.087,62.4795,0.002796
84.103,62.4702,0.002796
84.119,62.4611,0.002984
84.136,62.4505,0.002984
84.159,62.4358,0.002984
84.186,62.4186,0.002984
84.202,62.4083,0.002984
84.234,62.3866,0.002984
84.249,62.3761,0.002984
84.266,62.3642,0.002984
84.296,62.3424,0.002984
84.312,62.3307,0.002984
84.343,62.3071,0.002984
84.359,62.2947,0.002984
84.388,62.2714,0.001393
84.404,62.2583,0.001393
84.420,62.2458,0.001393
84.436,62.2321,0.001393
84.453,62.2177,0.001393
84.483,62.1922,0.001393
84.500,62.1765,0.001393
84.521,62.1572,0.001393
84.545,62.1359,0.001393
84.564,62.1183,0.001393
84.580,62.1031,0.001393
84.596,62.0869,0.001393
84.612,62.0726,0.001111
84.628,62.0569,0.001111
84.644,62.0409,0.001111
84.660,62.0247,0.001111
84.676,62.0084,0.001111
84.692,61.9920,0.001111
84.708,61.9751,0.001111
84.724,61.9588,0.001111
84.740,61.9418,0.001111
84.756,61.9244,0.001111
84.772,61.9061,0.001111
84.788,61.8897,0.001111
84.804,61.8714,0.001111
84.820,61.8535,0.001111
84.836,61.8355,0.001111
84.852,61.8172,0.001073
84.868,61.7979,0.001073
84.884,61.7794,0.001073
84.901,61.7597,0.001073
84.916,61.7411,0.001073
84.947,61.7031,0.001073
84.962,61.6842,0.001073
84.978,61.6643,0.001073
84.995,61.6439,0.001073
85.012,61.6220,0.001073
85.041,61.5846,0.001073
85.059,61.5611,0.001073
85.076,61.5381,0.001073
85.091,61.5184,0.001073
85.107,61.4974,0.000979
85.122,61.4763,0.000979
85.139,61.4529,0.000979
85.166,61.4165,0.000979
85.186,61.3876,0.000979
85.203,61.3642,0.000979
85.219,61.3416,0.000979
85.234,61.3192,0.000979
85.251,61.2951,0.000979
85.267,61.2718,0.000979
85.282,61.2484,0.000979
85.298,61.2252,0.000979
85.315,61.2005,0.000979
85.331,61.1758,0.000979
85.346,61.1522,0.000979
85.362,61.1278,0.000941
85.379,61.1006,0.000941
85.395,61.0766,0.000941
85.410,61.0529,0.000941
85.426,61.0278,0.000941
85.443,61.0004,0.000941
85.458,60.9759,0.000941
85.475,60.9500,0.000941
85.505,60.8995,0.000941
85.522,60.8719,0.000941
85.537,60.8461,0.000941
85.554,60.8172,0.000941
85.584,60.7678,0.000941
85.601,60.7376,0.000885
85.617,60.7100,0.000885
85.636,60.6775,0.000885
85.662,60.6311,0.000885
85.681,60.5967,0.000885
85.698,60.5666,0.000885
85.713,60.5399,0.000885
85.730,60.5095,0.000885
85.745,60.4818,0.000885
85.762,60.4513,0.000885
85.778,60.4212,0.000885
85.793,60.3931,0.000885
85.810,60.3621,0.000885
85.826,60.3313,0.000885
85.841,60.3026,0.000885
85.857,60.2719,0.000857
85.874,60.2404,0.000857
85.896,60.1958,0.000857
85.923,60.1432,0.000857
85.938,60.1133,0.000857
85.954,60.0809,0.000857
85.970,60.0514,0.000857
85.985,60.0195,0.000857
86.001,59.9875,0.000857
86.018,59.9538,0.000857
86.047,59.8935,0.000857
86.066,59.8541,0.000857
86.081,59.8231,0.000857
86.098,59.7881,0.000857
86.114,59.7552,0.000904
86.130,59.7209,0.000904
86.145,59.6881,0.000904
86.161,59.6539,0.000904
86.178,59.6184,0.000904
86.194,59.5848,0.000904
86.210,59.5506,0.000904
86.225,59.5195,0.000904
86.242,59.4830,0.000904
86.258,59.4506,0.000904
86.280,59.4065,0.000904
86.311,59.3424,0.000904
86.341,59.2827,0.000904
86.359,59.2464,0.000904
86.386,59.1925,0.000904
86.417,59.1338,0.000904
86.434,59.1009,0.000904
86.456,59.0590,0.000904
86.478,59.0167,0.000904
86.497,58.9805,0.000904
86.513,58.9503,0.000904
86.529,58.9208,0.000904
86.545,58.8907,0.000904
86.561,58.8598,0.000904
86.577,58.8314,0.000904
86.601,58.7892,0.000904
86.617,58.7598,0.000904
86.633,58.7317,0.000894
86.649,58.7039,0.000894
86.665,58.6752,0.000894
86.681,58.6472,0.000894
86.697,58.6205,0.000894
86.713,58.5924,0.000894
86.734,58.5541,0.000894
86.760,58.5125,0.000894
86.777,58.4839,0.000894
86.793,58.4581,0.000894
86.809,58.4307,0.000894
86.825,58.4052,0.000894
86.841,58.3793,0.000894
86.857,58.3535,0.000894
86.873,58.3272,0.000894
86.889,58.3027,0.000960
86.905,58.2771,0.000960
86.921,58.2512,0.000960
86.937,58.2275,0.000960
86.954,58.2010,0.000960
86.974,58.1695,0.000960
86.997,58.1345,0.000960
87.017,58.1060,0.000960
87.033,58.0828,0.000960
87.049,58.0587,0.000960
87.065,58.0358,0.000960
87.081,58.0123,0.000960
87.097,57.9886,0.000960
87.113,57.9661,0.000960
87.129,57.9440,0.000960
87.157,57.9058,0.001007
87.173,57.8837,0.001007
87.189,57.8623,0.001007
87.205,57.8408,0.001007
87.221,57.8186,0.001007
87.237,57.7975,0.001007
87.253,57.7769,0.001007
87.269,57.7552,0.001007
87.289,57.7304,0.001007
87.315,57.6974,0.001007
87.333,57.6750,0.001007
87.349,57.6549,0.001007
87.366,57.6344,0.001007
87.381,57.6155,0.001101
87.397,57.5969,0.001101
87.413,57.5768,0.001101
87.430,57.5574,0.001101
87.445,57.5388,0.001101
87.461,57.5213,0.001101
87.477,57.5021,0.001101
87.493,57.4849,0.001101
87.509,57.4676,0.001101
87.525,57.4498,0.001101
87.542,57.4314,0.001101
87.557,57.4147,0.001101
87.573,57.3980,0.001101
87.589,57.3811,0.001101
87.605,57.3643,0.001101
87.621,57.3473,0.001224
87.637,57.3310,0.001224
87.653,57.3152,0.001224
87.679,57.2890,0.001224
87.695,57.2732,0.001224
87.711,57.2581,0.001224
87.727,57.2423,0.001224
87.742,57.2280,0.001224
87.759,57.2133,0.001224
87.775,57.1984,0.001224
87.791,57.1840,0.001224
87.807,57.1697,0.001224
87.822,57.1558,0.001224
87.839,57.1412,0.001224
87.855,57.1277,0.001224
87.871,57.1143,0.001356
87.887,57.1010,0.001356
87.903,57.0870,0.001356
87.934,57.0631,0.001356
87.951,57.0499,0.001356
87.967,57.0368,0.001356
87.983,57.0252,0.001356
88.000,57.0123,0.001356
88.015,57.0017,0.001356
88.035,56.9867,0.001356
88.060,56.9690,0.001356
88.079,56.9565,0.001356
88.095,56.9454,0.001356
88.111,56.9347,0.001356
88.126,56.9246,0.001468
88.143,56.9139,0.001468
88.168,56.8985,0.001468
88.196,56.8814,0.001468
88.227,56.8636,0.001468
88.259,56.8455,0.001468
88.289,56.8299,0.001468
88.320,56.8143,0.001468
88.351,56.7989,0.001468
88.366,56.7918,0.001459
88.382,56.7845,0.001459
88.399,56.7768,0.001459
88.414,56.7704,0.001459
88.431,56.7634,0.001459
88.446,56.7572,0.001459
88.467,56.7490,0.001459
88.489,56.7406,0.001459
88.510,56.7330,0.001459
88.526,56.7272,0.001459
88.543,56.7217,0.001459
88.566,56.7146,0.001459
88.596,56.7053,0.001459
88.627,56.6968,0.001478
88.643,56.6926,0.001478
88.659,56.6886,0.001478
88.690,56.6816,0.001478
88.705,56.6782,0.001478
88.721,56.6751,0.001478
88.736,56.6723,0.001478
88.765,56.6673,0.001478
88.781,56.6648,0.001478
88.797,56.6626,0.001478
88.812,56.6605,0.001478
88.829,56.6585,0.001478
88.845,56.6568,0.001478
88.860,56.6554,0.001534
88.877,56.6540,0.001534
88.893,56.6528,0.001534
88.909,56.6519,0.001534
88.924,56.6512,0.001534
88.940,56.6506,0.001534
88.957,56.6502,0.001534
88.973,56.6501,0.001534
88.989,56.6501,0.001534
89.004,56.6501,0.001534
89.020,56.6501,0.001534
89.037,56.6501,0.001534
89.052,56.6501,0.001534
89.068,56.6501,0.001534
89.084,56.6501,0.001534
89.100,56.6501,0.001581
89.116,56.6501,0.001581
89.132,56.6502,0.001581
89.148,56.6503,0.001581
89.164,56.6508,0.001581
89.180,56.6514,0.001581
89.197,56.6523,0.001581
89.215,56.6535,0.001581
89.246,56.6560,0.001581
89.277,56.6595,0.001581
89.293,56.6613,0.001581
89.321,56.6654,0.001581
89.338,56.6680,0.001581
89.353,56.6708,0.001628
89.369,56.6736,0.001628
89.387,56.6771,0.001628
89.417,56.6834,0.001628
89.433,56.6873,0.001628
89.449,56.6911,0.001628
89.466,56.6953,0.001628
89.481,56.6994,0.001628
89.497,56.7040,0.001628
89.515,56.7090,0.001628
89.542,56.7175,0.001628
89.561,56.7237,0.001628
89.580,56.7302,0.001628
89.603,56.7384,0.001628
89.619,56.7441,0.001600
89.650,56.7565,0.001600
89.681,56.7692,0.001600
89.712,56.7828,0.001600
89.742,56.7967,0.001600
89.758,56.8043,0.001600
89.774,56.8122,0.001600
89.805,56.8275,0.001600
89.821,56.8367,0.001600
89.847,56.8505,0.001600
89.863,56.8589,0.001600
89.878,56.8678,0.001497
89.894,56.8770,0.001497
89.910,56.8865,0.001497
89.926,56.8960,0.001497
89.942,56.9057,0.001497
89.958,56.9160,0.001497
89.974,56.9264,0.001497
89.990,56.9367,0.001497
90.008,56.9483,0.001497
90.037,56.9687,0.001497
90.054,56.9801,0.001497
90.073,56.9937,0.001497
90.100,57.0135,0.001459
90.118,57.0272,0.001459
90.135,57.0404,0.001459
90.161,57.0602,0.001459
90.182,57.0767,0.001459
90.198,57.0902,0.001459
90.214,57.1030,0.001459
90.230,57.1166,0.001459
90.246,57.1298,0.001459
90.262,57.1438,0.001459
90.278,57.1577,0.001459
90.294,57.1715,0.001459
90.310,57.1858,0.001459
90.327,57.2011,0.001459
90.347,57.2206,0.001459
90.378,57.2496,0.001431
90.411,57.2803,0.001431
90.441,57.3110,0.001431
90.471,57.3410,0.001431
90.502,57.3734,0.001431
90.518,57.3896,0.001431
90.534,57.4069,0.001431
90.556,57.4305,0.001431
90.580,57.4568,0.001431
90.598,57.4764,0.001431
90.614,57.4950,0.001431
90.630,57.5128,0.001431
90.646,57.5310,0.001337
90.661,57.5495,0.001337
90.678,57.5690,0.001337
90.694,57.5882,0.001337
90.710,57.6078,0.001337
90.726,57.6261,0.001337
90.743,57.6467,0.001337
90.766,57.6752,0.001337
90.797,57.7157,0.001337
90.827,57.7532,0.001337
90.858,57.7947,0.001337
90.874,57.8150,0.001337
90.889,57.8349,0.001337
90.905,57.8554,0.001337
90.921,57.8789,0.001195
90.951,57.9194,0.001195
90.982,57.9619,0.001195
90.997,57.9844,0.001195
91.014,58.0076,0.001195
91.030,58.0303,0.001195
91.046,58.0551,0.001195
91.061,58.0768,0.001195
91.078,58.1020,0.001195
91.093,58.1240,0.001195
91.110,58.1491,0.001195
91.125,58.1727,0.001195
91.141,58.1974,0.001045
91.157,58.2212,0.001045
91.174,58.2472,0.001045
91.189,58.2710,0.001045
91.205,58.2963,0.001045
91.221,58.3215,0.001045
91.238,58.3477,0.001045
91.254,58.3736,0.001045
91.269,58.3984,0.001045
91.285,58.4246,0.001045
91.302,58.4524,0.001045
91.317,58.4777,0.001045
91.333,58.5041,0.001045
91.350,58.5335,0.001045
91.368,58.5637,0.001045
91.398,58.6146,0.000979
91.414,58.6425,0.000979
91.429,58.6688,0.000979
91.445,58.6972,0.000979
91.473,58.7466,0.000979
91.490,58.7759,0.000979
91.505,58.8035,0.000979
91.521,58.8330,0.000979
91.538,58.8625,0.000979
91.554,58.8924,0.000979
91.569,58.9211,0.000979
91.585,58.9511,0.000979
91.602,58.9816,0.000979
91.617,59.0117,0.000979
91.634,59.0414,0.000979
91.650,59.0722,0.000979
91.666,59.1030,0.000979
91.681,59.1331,0.000979
91.697,59.1645,0.000979
91.713,59.1951,0.000979
91.730,59.2275,0.000979
91.746,59.2591,0.000979
91.762,59.2911,0.000979
91.777,59.3225,0.000979
91.794,59.3569,0.000979
91.817,59.4034,0.000979
91.849,59.4704,0.000979
91.865,59.5030,0.000979
91.897,59.5683,0.000932
91.928,59.6346,0.000932
91.958,59.6987,0.000932
91.989,59.7643,0.000932
92.020,59.8278,0.000932
92.036,59.8630,0.000932
92.068,59.9258,0.000932
92.099,59.9906,0.000932
92.130,60.0507,0.000922
92.145,60.0803,0.000922
92.166,60.1235,0.000922
92.192,60.1713,0.000922
92.209,60.2058,0.000922
92.226,60.2366,0.000922
92.241,60.2660,0.000922
92.259,60.2993,0.000922
92.284,60.3487,0.000922
92.308,60.3938,0.000922
92.331,60.4335,0.000922
92.361,60.4891,0.000922
92.392,60.5440,0.000960
92.423,60.5997,0.000960
92.452,60.6502,0.000960
92.468,60.6777,0.000960
92.483,60.7049,0.000960
92.499,60.7308,0.000960
92.526,60.7767,0.000960
92.542,60.8040,0.000960
92.558,60.8306,0.000960
92.575,60.8588,0.000960
92.593,60.8877,0.000960
92.609,60.9142,0.000885
92.639,60.9632,0.000885
92.657,60.9915,0.000885
92.684,61.0345,0.000885
92.702,61.0616,0.000885
92.718,61.0870,0.000885
92.734,61.1111,0.000885
92.750,61.1355,0.000885
92.766,61.1593,0.000885
92.782,61.1829,0.000885
92.798,61.2076,0.000885
92.814,61.2300,0.000885
92.830,61.2537,0.000885
92.846,61.2770,0.000885
92.863,61.3017,0.000838
92.878,61.3223,0.000838
92.894,61.3452,0.000838
92.911,61.3689,0.000838
92.933,61.3990,0.000838
92.948,61.4204,0.000838
92.963,61.4417,0.000838
92.994,61.4818,0.000838
93.025,61.5231,0.000838
93.056,61.5624,0.000838
93.077,61.5904,0.000838
93.102,61.6209,0.000838
93.117,61.6408,0.000828
93.148,61.6788,0.000828
93.179,61.7157,0.000828
93.195,61.7342,0.000828
93.224,61.7688,0.000828
93.241,61.7874,0.000828
93.271,61.8215,0.000828
93.287,61.8395,0.000828
93.318,61.8728,0.000828
93.348,61.9059,0.000828
93.364,61.9222,0.000913
93.381,61.9411,0.000913
93.410,61.9700,0.000913
93.428,61.9875,0.000913
93.444,62.0045,0.000913
93.460,62.0194,0.000913
93.476,62.0352,0.000913
93.492,62.0505,0.000913
93.508,62.0658,0.000913
93.524,62.0807,0.000913
93.540,62.0954,0.000913
93.556,62.1102,0.000913
93.573,62.1251,0.000913
93.589,62.1395,0.000913
93.611,62.1586,0.000913
93.642,62.1846,0.001083
93.658,62.1981,0.001083
93.688,62.2227,0.001083
93.704,62.2355,0.001083
93.735,62.2598,0.001083
93.751,62.2720,0.001083
93.782,62.2952,0.001083
93.812,62.3169,0.001083
93.828,62.3282,0.001083
93.844,62.3388,0.001083
93.859,62.3497,0.001101
93.875,62.3602,0.001101
93.891,62.3706,0.001101
93.907,62.3809,0.001101
93.930,62.3957,0.001101
93.954,62.4105,0.001101
93.972,62.4206,0.001101
93.987,62.4294,0.001101
94.003,62.4386,0.001101
94.019,62.4478,0.001101
94.036,62.4565,0.001101
94.052,62.4655,0.001101
94.068,62.4737,0.001101
94.091,62.4854,0.001101
94.122,62.5005,0.001101
94.152,62.5141,0.001101
94.172,62.5234,0.001026
94.188,62.5304,0.001026
94.205,62.5372,0.001026
94.220,62.5435,0.001026
94.238,62.5507,0.001026
94.262,62.5595,0.001026
94.291,62.5703,0.001026
94.324,62.5810,0.001026
94.353,62.5902,0.001026
94.369,62.5950,0.001026
94.400,62.6033,0.000951
94.431,62.6115,0.000951
94.446,62.6150,0.000951
94.462,62.6184,0.000951
94.493,62.6249,0.000951
94.508,62.6279,0.000951
94.524,62.6306,0.000951
94.541,62.6333,0.000951
94.557,62.6358,0.000951
94.572,62.6380,0.000951
94.588,62.6400,0.000951
94.610,62.6426,0.000951
94.633,62.6449,0.000951
94.653,62.6465,0.000847
94.669,62.6476,0.000847
94.685,62.6485,0.000847
94.701,62.6492,0.000847
94.726,62.6498,0.000847
94.758,62.6501,0.000847
94.773,62.6501,0.000847
94.789,62.6501,0.000847
94.805,62.6501,0.000847
94.821,62.6501,0.000847
94.837,62.6501,0.000847
94.858,62.6501,0.000847
94.881,62.6501,0.000847
94.902,62.6501,0.000772
94.917,62.6501,0.000772
94.933,62.6501,0.000772
