Elapsed Time (s),Position (mm),Force (N)
-0.016,57.4500,0.001628
0.000,57.4500,0.001628
0.016,57.4500,0.001628
0.032,57.4500,0.001628
0.048,57.4500,0.001789
0.064,57.4500,0.001789
0.081,57.4500,0.001789
0.101,57.4500,0.001789
0.117,57.4500,0.001789
0.148,57.4500,0.001789
0.179,57.4500,0.001789
0.209,57.4500,0.001789
0.225,57.4500,0.001789
0.240,57.4500,0.001789
0.263,57.4500,0.001789
0.287,57.4500,0.001789
0.304,57.4500,0.001826
0.321,57.4500,0.001826
0.350,57.4500,0.001826
0.367,57.4500,0.001826
0.385,57.4500,0.001826
0.412,57.4500,0.001826
0.432,57.4500,0.001826
0.455,57.4500,0.001826
0.474,57.4500,0.001826
0.504,57.4500,0.001826
0.536,57.4500,0.001807
0.566,57.4500,0.001807
0.598,57.4500,0.001807
0.629,57.4500,0.001807
0.659,57.4500,0.001807
0.690,57.4500,0.001807
0.706,57.4500,0.001807
0.736,57.4500,0.001807
0.753,57.4500,0.001807
0.768,57.4500,0.001826
0.783,57.4500,0.001826
0.800,57.4500,0.001826
0.816,57.4500,0.001826
0.831,57.4500,0.001826
0.847,57.4500,0.001826
0.864,57.4500,0.001826
0.880,57.4500,0.001826
0.896,57.4500,0.001826
0.911,57.4500,0.001826
0.927,57.4500,0.001826
0.943,57.4500,0.001826
0.959,57.4500,0.001826
0.987,57.4500,0.001826
1.004,57.4500,0.001826
1.019,57.4500,0.001817
1.035,57.4500,0.001817
1.052,57.4500,0.001817
1.068,57.4500,0.001817
1.083,57.4500,0.001817
1.099,57.4500,0.001817
1.115,57.4500,0.001817
1.132,57.4500,0.001817
1.147,57.4500,0.001817
1.163,57.4500,0.001817
1.181,57.4500,0.001817
1.201,57.4500,0.001817
1.232,57.4500,0.001817
1.262,57.4500,0.001817
1.294,57.4500,0.001817
1.310,57.4500,0.001817
1.325,57.4500,0.001817
1.341,57.4500,0.001817
1.357,57.4500,0.001817
1.387,57.4500,0.001817
1.403,57.4500,0.001817
1.422,57.4500,0.001817
1.448,57.4500,0.001817
1.467,57.4500,0.001817
1.483,57.4500,0.001817
1.499,57.4500,0.001817
1.515,57.4500,0.001817
1.539,57.4500,0.001826
1.555,57.4500,0.001826
1.571,57.4500,0.001826
1.587,57.4500,0.001826
1.603,57.4500,0.001826
1.619,57.4500,0.001826
1.635,57.4500,0.001826
1.651,57.4500,0.001826
1.672,57.4500,0.001826
1.696,57.4500,0.001826
1.715,57.4500,0.001826
1.731,57.4500,0.001826
1.747,57.4500,0.001826
1.763,57.4500,0.001836
1.779,57.4500,0.001836
1.795,57.4500,0.001836
1.811,57.4500,0.001836
1.827,57.4500,0.001836
1.843,57.4500,0.001836
1.859,57.4500,0.001836
1.875,57.4500,0.001836
1.891,57.4500,0.001836
1.907,57.4500,0.001836
1.923,57.4500,0.001836
1.939,57.4500,0.001836
1.955,57.4500,0.001836
1.971,57.4500,0.001836
1.987,57.4500,0.001836
2.003,57.4500,0.001826
2.019,57.4500,0.001826
2.035,57.4500,0.001826
2.051,57.4500,0.001826
2.067,57.4500,0.001826
2.095,57.4500,0.001826
2.111,57.4500,0.001826
2.127,57.4500,0.001826
2.151,57.4500,0.001826
2.175,57.4500,0.001826
2.191,57.4500,0.001826
2.207,57.4500,0.001826
2.223,57.4500,0.001826
2.239,57.4500,0.001826
2.255,57.4500,0.001845
2.271,57.4500,0.001845
2.288,57.4500,0.001845
2.315,57.4500,0.001845
2.335,57.4500,0.001845
2.351,57.4500,0.001845
2.367,57.4500,0.001845
2.383,57.4500,0.001845
2.399,57.4500,0.001845
2.415,57.4500,0.001845
2.431,57.4500,0.001845
2.447,57.4500,0.001845
2.463,57.4500,0.001845
2.479,57.4500,0.001845
2.495,57.4500,0.001845
2.511,57.4500,0.001836
2.527,57.4500,0.001836
2.543,57.4500,0.001836
2.559,57.4500,0.001836
2.575,57.4500,0.001836
2.591,57.4500,0.001836
2.616,57.4500,0.001836
2.632,57.4500,0.001836
2.647,57.4500,0.001836
2.664,57.4500,0.001836
2.680,57.4500,0.001836
2.696,57.4500,0.001836
2.712,57.4500,0.001836
2.727,57.4500,0.001836
2.743,57.4500,0.001836
2.760,57.4500,0.001836
2.776,57.4500,0.001836
2.792,57.4500,0.001836
2.807,57.4500,0.001836
2.823,57.4500,0.001836
2.839,57.4500,0.001836
2.856,57.4500,0.001836
2.871,57.4500,0.001836
2.888,57.4500,0.001836
2.903,57.4500,0.001836
2.920,57.4500,0.001836
2.935,57.4500,0.001836
2.951,57.4500,0.001836
2.967,57.4500,0.001836
2.983,57.4500,0.001836
3.000,57.4500,0.001836
3.015,57.4500,0.001864
3.031,57.4500,0.001864
3.049,57.4500,0.001864
3.075,57.4500,0.001864
3.096,57.4500,0.001864
3.112,57.4500,0.001864
3.144,57.4500,0.001864
3.163,57.4500,0.001864
3.183,57.4500,0.001864
3.216,57.4500,0.001864
3.246,57.4500,0.001864
3.277,57.4500,0.001864
3.308,57.4500,0.001854
3.338,57.4500,0.001854
3.354,57.4500,0.001854
3.385,57.4500,0.001854
3.406,57.4500,0.001854
3.431,57.4500,0.001854
3.448,57.4500,0.001854
3.477,57.4500,0.001854
3.494,57.4500,0.001854
3.516,57.4500,0.001854
3.538,57.4500,0.001826
3.559,57.4500,0.001826
3.575,57.4500,0.001826
3.599,57.4500,0.001826
3.614,57.4500,0.001826
3.630,57.4500,0.001826
3.645,57.4500,0.001826
3.676,57.4500,0.001826
3.699,57.4500,0.001826
3.722,57.4500,0.001826
3.738,57.4500,0.001826
3.753,57.4500,0.001826
3.769,57.4500,0.001826
3.800,57.4500,0.001713
3.831,57.4500,0.001713
3.861,57.4500,0.001713
3.892,57.4500,0.001713
3.923,57.4500,0.001713
3.939,57.4500,0.001713
3.954,57.4500,0.001713
3.985,57.4500,0.001713
4.004,57.4500,0.001713
4.033,57.4500,0.001610
4.049,57.4500,0.001610
4.066,57.4499,0.001610
4.082,57.4496,0.001610
4.097,57.4491,0.001610
4.113,57.4484,0.001610
4.130,57.4475,0.001610
4.145,57.4464,0.001610
4.162,57.4452,0.001610
4.177,57.4437,0.001610
4.194,57.4421,0.001610
4.209,57.4402,0.001610
4.226,57.4380,0.001610
4.250,57.4345,0.001610
4.267,57.4320,0.001610
4.282,57.4292,0.001741
4.298,57.4263,0.001741
4.322,57.4215,0.001741
4.345,57.4168,0.001741
4.362,57.4127,0.001741
4.378,57.4088,0.001741
4.394,57.4047,0.001741
4.411,57.4002,0.001741
4.426,57.3961,0.001741
4.443,57.3912,0.001741
4.458,57.3865,0.001741
4.475,57.3813,0.001741
4.490,57.3761,0.001741
4.507,57.3705,0.001741
4.522,57.3648,0.001741
4.538,57.3591,0.004311
4.554,57.3530,0.004311
4.572,57.3463,0.004311
4.593,57.3374,0.004311
4.624,57.3240,0.004311
4.655,57.3107,0.004311
4.671,57.3032,0.004311
4.703,57.2879,0.004311
4.718,57.2800,0.004311
4.749,57.2639,0.004311
4.765,57.2558,0.004311
4.795,57.2388,0.006985
4.826,57.2207,0.006985
4.842,57.2115,0.006985
4.859,57.2013,0.006985
4.875,57.1911,0.006985
4.904,57.1724,0.006985
4.923,57.1604,0.006985
4.938,57.1502,0.006985
4.954,57.1397,0.006985
4.970,57.1278,0.006985
4.986,57.1174,0.006985
5.003,57.1050,0.006985
5.018,57.0938,0.006985
5.034,57.0824,0.004678
5.050,57.0700,0.004678
5.066,57.0577,0.004678
5.082,57.0456,0.004678
5.098,57.0330,0.004678
5.115,57.0195,0.004678
5.130,57.0066,0.004678
5.146,56.9935,0.004678
5.162,56.9808,0.004678
5.179,56.9659,0.004678
5.200,56.9472,0.004678
5.230,56.9213,0.004678
5.259,56.8951,0.004678
5.276,56.8794,0.004678
5.291,56.8652,0.004678
5.321,56.8371,0.002165
5.337,56.8213,0.002165
5.353,56.8060,0.002165
5.369,56.7890,0.002165
5.387,56.7711,0.002165
5.405,56.7529,0.002165
5.429,56.7288,0.002165
5.449,56.7069,0.002165
5.465,56.6896,0.002165
5.481,56.6725,0.002165
5.497,56.6553,0.002165
5.514,56.6369,0.002165
5.529,56.6199,0.002165
5.545,56.6024,0.002203
5.561,56.5843,0.002203
5.577,56.5650,0.002203
5.593,56.5472,0.002203
5.609,56.5278,0.002203
5.625,56.5084,0.002203
5.641,56.4897,0.002203
5.657,56.4705,0.002203
5.673,56.4513,0.002203
5.689,56.4309,0.002203
5.705,56.4106,0.002203
5.721,56.3907,0.002203
5.737,56.3713,0.002203
5.753,56.3505,0.002203
5.769,56.3298,0.002203
5.785,56.3081,0.002222
5.801,56.2877,0.002222
5.818,56.2648,0.002222
5.845,56.2265,0.002222
5.861,56.2061,0.002222
5.877,56.1839,0.002222
5.893,56.1615,0.002222
5.909,56.1400,0.002222
5.925,56.1176,0.002222
5.941,56.0937,0.002222
5.957,56.0717,0.002222
5.973,56.0466,0.002222
5.989,56.0239,0.002222
6.005,56.0002,0.002222
6.021,55.9772,0.002222
6.037,55.9532,0.002278
6.053,55.9289,0.002278
6.069,55.9044,0.002278
6.085,55.8798,0.002278
6.101,55.8559,0.002278
6.117,55.8305,0.002278
6.133,55.8046,0.002278
6.148,55.7805,0.002278
6.164,55.7551,0.002278
6.182,55.7261,0.002278
6.201,55.6957,0.002278
6.232,55.6450,0.002278
6.264,55.5923,0.002278
6.294,55.5403,0.002297
6.309,55.5157,0.002297
6.324,55.4890,0.002297
6.341,55.4614,0.002297
6.369,55.4113,0.002297
6.385,55.3835,0.002297
6.400,55.3561,0.002297
6.417,55.3251,0.002297
6.440,55.2812,0.002297
6.455,55.2570,0.002297
6.479,55.2139,0.002297
6.498,55.1788,0.002297
6.525,55.1284,0.002419
6.545,55.0917,0.002419
6.560,55.0614,0.002419
6.576,55.0307,0.002419
6.592,55.0002,0.002419
6.608,54.9690,0.002419
6.626,54.9354,0.002419
6.647,54.8917,0.002419
6.663,54.8625,0.002419
6.678,54.8319,0.002419
6.695,54.7975,0.002419
6.725,54.7380,0.002419
6.741,54.7065,0.002419
6.772,54.6409,0.002626
6.788,54.6088,0.002626
6.819,54.5451,0.002626
6.834,54.5125,0.002626
6.864,54.4485,0.002626
6.880,54.4144,0.002626
6.896,54.3804,0.002626
6.925,54.3188,0.002626
6.941,54.2863,0.002626
6.957,54.2536,0.002626
6.973,54.2206,0.002626
6.989,54.1871,0.002626
7.005,54.1532,0.002626
7.020,54.1231,0.002655
7.036,54.0905,0.002655
7.052,54.0567,0.002655
7.068,54.0260,0.002655
7.085,53.9927,0.002655
7.111,53.9423,0.002655
7.141,53.8827,0.002655
7.172,53.8231,0.002655
7.203,53.7654,0.002655
7.218,53.7359,0.002655
7.234,53.7061,0.002655
7.250,53.6767,0.002655
7.280,53.6215,0.002645
7.311,53.5630,0.002645
7.342,53.5094,0.002645
7.372,53.4545,0.002645
7.388,53.4268,0.002645
7.405,53.3985,0.002645
7.421,53.3698,0.002645
7.450,53.3207,0.002645
7.477,53.2735,0.002645
7.494,53.2469,0.002645
7.509,53.2207,0.002758
7.526,53.1919,0.002758
7.542,53.1655,0.002758
7.558,53.1406,0.002758
7.574,53.1154,0.002758
7.589,53.0903,0.002758
7.611,53.0538,0.002758
7.635,53.0179,0.002758
7.653,52.9890,0.002758
7.670,52.9632,0.002758
7.686,52.9394,0.002758
7.701,52.9160,0.002758
7.717,52.8913,0.002758
7.734,52.8661,0.002758
7.749,52.8438,0.002758
7.766,52.8191,0.002975
7.781,52.7968,0.002975
7.799,52.7711,0.002975
7.814,52.7500,0.002975
7.829,52.7286,0.002975
7.845,52.7054,0.002975
7.862,52.6821,0.002975
7.877,52.6610,0.002975
7.894,52.6383,0.002975
7.909,52.6168,0.002975
7.926,52.5949,0.002975
7.941,52.5744,0.002975
7.957,52.5527,0.002975
7.973,52.5316,0.002975
7.990,52.5098,0.002975
8.021,52.4700,0.003144
8.040,52.4462,0.003144
8.068,52.4107,0.003144
8.085,52.3899,0.003144
8.101,52.3705,0.003144
8.118,52.3509,0.003144
8.133,52.3321,0.003144
8.149,52.3133,0.003144
8.165,52.2945,0.003144
8.181,52.2765,0.003144
8.197,52.2574,0.003144
8.213,52.2393,0.003144
8.229,52.2211,0.003144
8.245,52.2033,0.003144
8.261,52.1867,0.003304
8.277,52.1693,0.003304
8.293,52.1515,0.003304
8.309,52.1351,0.003304
8.325,52.1181,0.003304
8.342,52.1008,0.003304
8.357,52.0854,0.003304
8.373,52.0691,0.003304
8.389,52.0528,0.003304
8.405,52.0370,0.003304
8.421,52.0211,0.003304
8.437,52.0056,0.003304
8.453,51.9910,0.003304
8.476,51.9683,0.003304
8.499,51.9478,0.003304
8.517,51.9318,0.003304
8.544,51.9081,0.003521
8.567,51.8878,0.003521
8.591,51.8673,0.003521
8.607,51.8541,0.003521
8.624,51.8398,0.003521
8.639,51.8280,0.003521
8.655,51.8156,0.003521
8.674,51.7995,0.003521
8.699,51.7809,0.003521
8.719,51.7660,0.003521
8.735,51.7537,0.003521
8.751,51.7428,0.003521
8.767,51.7312,0.003662
8.783,51.7200,0.003662
8.799,51.7088,0.003662
8.815,51.6979,0.003662
8.831,51.6873,0.003662
8.847,51.6767,0.003662
8.864,51.6663,0.003662
8.879,51.6569,0.003662
8.895,51.6468,0.003662
8.911,51.6373,0.003662
8.928,51.6272,0.003662
8.943,51.6184,0.003662
8.959,51.6093,0.003662
8.975,51.6003,0.003662
8.991,51.5915,0.003662
9.007,51.5833,0.003756
9.023,51.5747,0.003756
9.041,51.5658,0.003756
9.070,51.5511,0.003756
9.096,51.5393,0.003756
9.112,51.5320,0.003756
9.128,51.5250,0.003756
9.144,51.5181,0.003756
9.160,51.5115,0.003756
9.176,51.5052,0.003756
9.192,51.4987,0.003756
9.208,51.4927,0.003756
9.224,51.4866,0.003756
9.240,51.4810,0.003756
9.256,51.4754,0.003831
9.272,51.4700,0.003831
9.287,51.4653,0.003831
9.304,51.4601,0.003831
9.323,51.4546,0.003831
9.350,51.4470,0.003831
9.368,51.4424,0.003831
9.383,51.4385,0.003831
9.399,51.4348,0.003831
9.415,51.4312,0.003831
9.433,51.4276,0.003831
9.448,51.4245,0.003831
9.464,51.4216,0.003831
9.479,51.4189,0.003831
9.495,51.4163,0.003831
9.512,51.4138,0.003831
9.527,51.4117,0.003925
9.544,51.4096,0.003925
9.559,51.4077,0.003925
9.576,51.4061,0.003925
9.591,51.4047,0.003925
9.608,51.4034,0.003925
9.624,51.4024,0.003925
9.640,51.4015,0.003925
9.656,51.4009,0.003925
9.671,51.4004,0.003925
9.688,51.4001,0.003925
9.704,51.4000,0.003925
9.719,51.4000,0.003925
9.736,51.4000,0.003925
9.751,51.4000,0.003925
9.767,51.4000,0.003925
9.783,51.4000,0.003944
9.799,51.4000,0.003944
9.819,51.4000,0.003944
9.842,51.4000,0.003944
9.857,51.4000,0.003944
9.880,51.4001,0.003944
9.896,51.4004,0.003944
9.911,51.4008,0.003944
9.927,51.4014,0.003944
9.944,51.4023,0.003944
9.959,51.4034,0.003944
9.975,51.4046,0.003944
9.992,51.4060,0.003944
10.008,51.4077,0.003944
10.023,51.4093,0.003972
10.040,51.4114,0.003972
10.056,51.4137,0.003972
10.072,51.4160,0.003972
10.088,51.4186,0.003972
10.104,51.4214,0.003972
10.119,51.4243,0.003972
10.136,51.4276,0.003972
10.151,51.4309,0.003972
10.179,51.4370,0.003972
10.194,51.4408,0.003972
10.210,51.4449,0.003972
10.227,51.4494,0.003972
10.245,51.4545,0.003972
10.274,51.4630,0.003963
10.290,51.4682,0.003963
10.307,51.4737,0.003963
10.329,51.4813,0.003963
10.352,51.4897,0.003963
10.372,51.4970,0.003963
10.399,51.5077,0.003963
10.419,51.5156,0.003963
10.435,51.5226,0.003963
10.450,51.5291,0.003963
10.466,51.5363,0.003963
10.482,51.5436,0.003963
10.499,51.5518,0.003963
10.514,51.5590,0.003906
10.530,51.5668,0.003906
10.546,51.5751,0.003906
10.563,51.5842,0.003906
10.583,51.5945,0.003906
10.598,51.6033,0.003906
10.614,51.6116,0.003906
10.645,51.6296,0.003906
10.675,51.6483,0.003906
10.691,51.6580,0.003906
10.707,51.6674,0.003906
10.736,51.6869,0.003906
10.752,51.6976,0.003906
10.768,51.7080,0.003831
10.784,51.7193,0.003831
10.801,51.7308,0.003831
10.817,51.7421,0.003831
10.832,51.7531,0.003831
10.848,51.7653,0.003831
10.864,51.7776,0.003831
10.881,51.7898,0.003831
10.896,51.8017,0.003831
10.912,51.8141,0.003831
10.930,51.8283,0.003831
10.953,51.8470,0.003831
10.968,51.8603,0.003831
10.985,51.8743,0.003831
11.015,51.9000,0.003831
11.046,51.9268,0.003643
11.077,51.9548,0.003643
11.107,51.9833,0.003643
11.123,51.9988,0.003643
11.139,52.0134,0.003643
11.154,52.0287,0.003643
11.170,52.0436,0.003643
11.187,52.0602,0.003643
11.217,52.0907,0.003643
11.234,52.1081,0.003643
11.249,52.1237,0.003643
11.279,52.1555,0.003445
11.298,52.1770,0.003445
11.325,52.2056,0.003445
11.344,52.2270,0.003445
11.361,52.2470,0.003445
11.376,52.2627,0.003445
11.392,52.2820,0.003445
11.409,52.3009,0.003445
11.424,52.3203,0.003445
11.441,52.3390,0.003445
11.465,52.3682,0.003445
11.500,52.4114,0.003445
11.521,52.4366,0.003445
11.542,52.4635,0.003295
11.573,52.5036,0.003295
11.604,52.5429,0.003295
11.619,52.5644,0.003295
11.635,52.5848,0.003295
11.666,52.6265,0.003295
11.683,52.6493,0.003295
11.713,52.6912,0.003295
11.743,52.7346,0.003295
11.760,52.7572,0.003238
11.776,52.7808,0.003238
11.791,52.8052,0.003238
11.815,52.8378,0.003238
11.831,52.8619,0.003238
11.847,52.8855,0.003238
11.863,52.9095,0.003238
11.879,52.9346,0.003238
11.895,52.9583,0.003238
11.911,52.9827,0.003238
11.927,53.0072,0.003238
11.943,53.0334,0.003238
11.959,53.0580,0.003238
11.975,53.0831,0.003238
11.990,53.1082,0.003238
12.008,53.1375,0.003238
12.024,53.1619,0.003116
12.054,53.2130,0.003116
12.077,53.2511,0.003116
12.100,53.2882,0.003116
12.119,53.3219,0.003116
12.135,53.3492,0.003116
12.151,53.3752,0.003116
12.167,53.4037,0.003116
12.184,53.4340,0.003116
12.199,53.4613,0.003116
12.215,53.4882,0.003116
12.231,53.5176,0.003116
12.252,53.5568,0.003116
12.270,53.5878,0.003116
12.300,53.6431,0.002956
12.317,53.6742,0.002956
12.332,53.7021,0.002956
12.363,53.7604,0.002956
12.394,53.8191,0.002956
12.425,53.8790,0.002956
12.455,53.9383,0.002956
12.472,53.9709,0.002956
12.501,54.0282,0.002815
12.519,54.0633,0.002815
12.535,54.0972,0.002815
12.550,54.1275,0.002815
12.567,54.1618,0.002815
12.583,54.1954,0.002815
12.599,54.2283,0.002815
12.625,54.2802,0.002815
12.654,54.3427,0.002815
12.685,54.4083,0.002815
12.715,54.4728,0.002815
12.734,54.5123,0.002815
12.761,54.5671,0.002815
12.777,54.6001,0.002626
12.793,54.6343,0.002626
12.824,54.6971,0.002626
12.840,54.7283,0.002626
12.855,54.7588,0.002626
12.871,54.7907,0.002626
12.899,54.8464,0.002626
12.916,54.8794,0.002626
12.931,54.9098,0.002626
12.947,54.9402,0.002626
12.964,54.9717,0.002626
12.980,55.0023,0.002626
12.995,55.0317,0.002626
13.011,55.0616,0.002551
13.027,55.0917,0.002551
13.043,55.1217,0.002551
13.060,55.1519,0.002551
13.076,55.1820,0.002551
13.092,55.2116,0.002551
13.108,55.2394,0.002551
13.124,55.2697,0.002551
13.139,55.2967,0.002551
13.155,55.3250,0.002551
13.171,55.3530,0.002551
13.188,55.3818,0.002551
13.204,55.4106,0.002551
13.219,55.4365,0.002551
13.235,55.4640,0.002551
13.252,55.4922,0.002551
13.267,55.5188,0.002551
13.283,55.5460,0.002579
13.299,55.5725,0.002579
13.315,55.5992,0.002579
13.332,55.6260,0.002579
13.348,55.6527,0.002579
13.364,55.6777,0.002579
13.379,55.7038,0.002579
13.396,55.7297,0.002579
13.411,55.7537,0.002579
13.441,55.8005,0.002579
13.457,55.8259,0.002579
13.473,55.8497,0.002579
13.488,55.8729,0.002579
13.505,55.8991,0.002579
13.520,55.9214,0.002579
13.537,55.9455,0.002523
13.552,55.9687,0.002523
13.569,55.9937,0.002523
13.585,56.0163,0.002523
13.601,56.0391,0.002523
13.616,56.0616,0.002523
13.633,56.0851,0.002523
13.648,56.1063,0.002523
13.664,56.1285,0.002523
13.680,56.1517,0.002523
13.697,56.1733,0.002523
13.713,56.1949,0.002523
13.728,56.2157,0.002523
13.744,56.2378,0.002523
13.761,56.2591,0.002523
13.776,56.2792,0.002523
13.792,56.2999,0.002372
13.808,56.3205,0.002372
13.824,56.3417,0.002372
13.840,56.3612,0.002372
13.856,56.3814,0.002372
13.872,56.4015,0.002372
13.888,56.4207,0.002372
13.904,56.4402,0.002372
13.920,56.4596,0.002372
13.936,56.4778,0.002372
13.952,56.4975,0.002372
13.968,56.5156,0.002372
13.997,56.5490,0.002372
14.013,56.5667,0.002372
14.029,56.5853,0.002240
14.045,56.6023,0.002240
14.062,56.6212,0.002240
14.077,56.6377,0.002240
14.093,56.6547,0.002240
14.109,56.6715,0.002240
14.133,56.6964,0.002240
14.158,56.7220,0.002240
14.173,56.7375,0.002240
14.189,56.7535,0.002240
14.205,56.7690,0.002240
14.221,56.7843,0.002240
14.237,56.7993,0.002240
14.258,56.8202,0.002240
14.280,56.8393,0.002240
14.311,56.8674,0.002156
14.342,56.8949,0.002156
14.358,56.9090,0.002156
14.388,56.9353,0.002156
14.419,56.9605,0.002156
14.449,56.9847,0.002156
14.480,57.0087,0.002156
14.510,57.0327,0.002156
14.525,57.0428,0.002156
14.556,57.0654,0.002071
14.587,57.0871,0.002071
14.603,57.0977,0.002071
14.620,57.1088,0.002071
14.649,57.1279,0.002071
14.667,57.1395,0.002071
14.684,57.1504,0.002071
14.711,57.1665,0.002071
14.731,57.1782,0.002071
14.748,57.1882,0.002071
14.773,57.2022,0.001977
14.795,57.2136,0.001977
14.812,57.2228,0.001977
14.835,57.2343,0.001977
14.851,57.2420,0.001977
14.866,57.2500,0.001977
14.882,57.2569,0.001977
14.913,57.2710,0.001977
14.929,57.2785,0.001977
14.946,57.2852,0.001977
14.976,57.2972,0.001977
15.007,57.3095,0.001977
15.023,57.3152,0.001836
15.039,57.3209,0.001836
15.070,57.3313,0.001836
15.086,57.3364,0.001836
15.102,57.3412,0.001836
15.132,57.3497,0.001836
15.147,57.3539,0.001836
15.163,57.3579,0.001836
15.181,57.3623,0.001836
15.210,57.3688,0.001836
15.227,57.3725,0.001836
15.243,57.3756,0.001836
15.259,57.3786,0.001836
15.275,57.3813,0.001534
15.291,57.3840,0.001534
15.308,57.3865,0.001534
15.323,57.3886,0.001534
15.339,57.3906,0.001534
15.355,57.3923,0.001534
15.371,57.3941,0.001534
15.387,57.3954,0.001534
15.403,57.3967,0.001534
15.419,57.3977,0.001534
15.435,57.3985,0.001534
15.450,57.3992,0.001534
15.467,57.3997,0.001534
15.483,57.3999,0.001534
15.499,57.4000,0.001534
15.514,57.4000,0.001158
15.531,57.4000,0.001158
15.547,57.4000,0.001158
15.562,57.4000,0.001158
15.579,57.4000,0.001158
15.607,57.4000,0.001158
15.623,57.4000,0.001158
15.638,57.4000,0.001158
15.655,57.4000,0.001158
15.670,57.4000,0.001158
15.686,57.4000,0.001158
15.703,57.4000,0.001158
15.718,57.4000,0.001158
15.735,57.4000,0.001158
15.750,57.4000,0.001158
15.766,57.4000,0.001308
15.782,57.4000,0.001308
15.799,57.4000,0.001308
15.830,57.4000,0.001308
15.848,57.4000,0.001308
15.863,57.4000,0.001308
15.878,57.4000,0.001308
15.895,57.4000,0.001308
15.910,57.4000,0.001308
15.927,57.4000,0.001308
15.942,57.4000,0.001308
15.959,57.4000,0.001308
15.974,57.4000,0.001308
15.990,57.4000,0.001308
16.007,57.4000,0.001732
16.023,57.4000,0.001732
16.038,57.4000,0.001732
16.055,57.4000,0.001732
16.070,57.4000,0.001732
16.086,57.4000,0.001732
16.104,57.4000,0.001732
16.125,57.4000,0.001732
16.140,57.4000,0.001732
16.161,57.4000,0.001732
16.177,57.4000,0.001732
16.193,57.4000,0.001732
16.208,57.4000,0.001732
16.225,57.4000,0.001732
16.240,57.4000,0.001732
16.256,57.4000,0.001836
16.273,57.4000,0.001836
16.288,57.4000,0.001836
16.304,57.4000,0.001836
16.320,57.4000,0.001836
16.336,57.4000,0.001836
16.352,57.4000,0.001836
16.368,57.4000,0.001836
16.384,57.4000,0.001836
16.400,57.4000,0.001836
16.417,57.4000,0.001836
16.432,57.4000,0.001836
16.449,57.4000,0.001836
16.466,57.4000,0.001836
16.495,57.4000,0.001836
16.512,57.4000,0.001845
16.529,57.4000,0.001845
16.558,57.4000,0.001845
16.577,57.4000,0.001845
16.605,57.4000,0.001845
16.624,57.4000,0.001845
16.640,57.4000,0.001845
16.657,57.4000,0.001845
16.672,57.4000,0.001845
16.698,57.4000,0.001845
16.714,57.4000,0.001845
16.730,57.4000,0.001845
16.746,57.4000,0.001845
16.762,57.4000,0.001845
16.778,57.4000,0.001845
16.794,57.4000,0.001864
16.811,57.4000,0.001864
16.826,57.4000,0.001864
16.842,57.4000,0.001864
16.859,57.4000,0.001864
16.874,57.4000,0.001864
16.891,57.4000,0.001864
16.906,57.4000,0.001864
16.922,57.4000,0.001864
16.938,57.4000,0.001864
16.954,57.4000,0.001864
16.970,57.4000,0.001864
16.986,57.4000,0.001864
17.002,57.4000,0.001864
17.018,57.4000,0.001864
17.034,57.4000,0.001864
17.050,57.4000,0.001864
17.067,57.4000,0.001864
17.082,57.4000,0.001864
17.099,57.4000,0.001864
17.114,57.4000,0.001864
17.130,57.4000,0.001864
17.146,57.4000,0.001864
17.162,57.4000,0.001864
17.178,57.4000,0.001864
17.194,57.4000,0.001864
17.210,57.4000,0.001864
17.226,57.4000,0.001864
17.253,57.4000,0.001864
17.269,57.4000,0.001864
17.285,57.4000,0.001817
17.301,57.4000,0.001817
17.317,57.4000,0.001817
17.334,57.4000,0.001817
17.349,57.4000,0.001817
17.365,57.4000,0.001817
17.388,57.4000,0.001817
17.411,57.4000,0.001817
17.429,57.4000,0.001817
17.445,57.4000,0.001817
17.461,57.4000,0.001817
17.477,57.4000,0.001817
17.494,57.4000,0.001817
17.510,57.4000,0.001817
17.526,57.4000,0.001817
17.541,57.4000,0.001779
17.557,57.4000,0.001779
17.575,57.4000,0.001779
17.598,57.4000,0.001779
17.629,57.4000,0.001779
17.660,57.4000,0.001779
17.690,57.4000,0.001779
17.721,57.4000,0.001779
17.736,57.4000,0.001779
17.752,57.4000,0.001779
17.777,57.4000,0.001770
17.799,57.4000,0.001770
17.829,57.4000,0.001770
17.860,57.4000,0.001770
17.875,57.4000,0.001770
17.891,57.4000,0.001770
17.921,57.4000,0.001770
17.952,57.4000,0.001770
17.968,57.4000,0.001770
17.984,57.4000,0.001770
18.004,57.4000,0.001770
18.029,57.4000,0.001798
18.048,57.4000,0.001798
18.064,57.4000,0.001798
18.080,57.4000,0.001798
18.096,57.4000,0.001798
18.111,57.4000,0.001798
18.128,57.4000,0.001798
18.144,57.4000,0.001798
18.159,57.4000,0.001798
18.176,57.4000,0.001798
18.192,57.4000,0.001798
18.208,57.4000,0.001798
18.224,57.4000,0.001798
18.239,57.4000,0.001798
18.256,57.4000,0.001798
18.272,57.4000,0.001798
18.287,57.4000,0.001798
18.304,57.4000,0.001826
18.319,57.4000,0.001826
18.336,57.4000,0.001826
18.352,57.4000,0.001826
18.368,57.4000,0.001826
18.384,57.4000,0.001826
18.400,57.4000,0.001826
18.416,57.4000,0.001826
18.439,57.4000,0.001826
18.461,57.4000,0.001826
18.479,57.4000,0.001826
18.496,57.4000,0.001826
18.515,57.4000,0.001826
18.539,57.4000,0.001864
18.560,57.4000,0.001864
18.576,57.4000,0.001864
18.592,57.4000,0.001864
18.607,57.4000,0.001864
18.624,57.4000,0.001864
18.639,57.4000,0.001864
18.656,57.4000,0.001864
18.671,57.4000,0.001864
18.688,57.4000,0.001864
18.703,57.4000,0.001864
18.720,57.4000,0.001864
18.736,57.4000,0.001864
18.752,57.4000,0.001864
18.768,57.4000,0.001807
18.783,57.4000,0.001807
18.800,57.4000,0.001807
18.816,57.4000,0.001807
18.832,57.4000,0.001807
18.848,57.4000,0.001807
18.863,57.4000,0.001807
18.881,57.4000,0.001807
18.897,57.4000,0.001807
18.913,57.4000,0.001807
18.929,57.4000,0.001807
18.960,57.4000,0.001807
18.976,57.4000,0.001807
18.993,57.4000,0.001807
19.008,57.4000,0.001807
19.023,57.4000,0.001723
19.040,57.4000,0.001723
19.056,57.4000,0.001723
19.084,57.4000,0.001723
19.103,57.4000,0.001723
19.121,57.4000,0.001723
19.146,57.4000,0.001723
19.167,57.4000,0.001723
19.183,57.4000,0.001723
19.199,57.4000,0.001723
19.215,57.4000,0.001723
19.231,57.4000,0.001723
19.247,57.4000,0.001723
19.263,57.4000,0.001760
19.279,57.4000,0.001760
19.295,57.4000,0.001760
19.312,57.4000,0.001760
19.332,57.4000,0.001760
19.362,57.4000,0.001760
19.393,57.4000,0.001760
19.423,57.4000,0.001760
19.439,57.4000,0.001760
19.455,57.4000,0.001760
19.471,57.4000,0.001760
19.490,57.4000,0.001760
19.518,57.4000,0.001807
19.535,57.4000,0.001807
19.552,57.4000,0.001807
19.567,57.4000,0.001807
19.584,57.4000,0.001807
19.599,57.4000,0.001807
19.617,57.4000,0.001807
19.632,57.4000,0.001807
19.648,57.4000,0.001807
19.663,57.4000,0.001807
19.679,57.4000,0.001807
19.695,57.4000,0.001807
19.711,57.4000,0.001807
19.727,57.4000,0.001807
19.745,57.4000,0.001807
19.766,57.4000,0.001789
19.782,57.4000,0.001789
19.797,57.4000,0.001789
19.821,57.4000,0.001789
19.840,57.4000,0.001789
19.855,57.4000,0.001789
19.882,57.4000,0.001789
19.897,57.4000,0.001789
19.913,57.4000,0.001789
19.929,57.4000,0.001789
19.945,57.4000,0.001789
19.961,57.4000,0.001789
19.977,57.4000,0.001789
19.993,57.4000,0.001789
20.010,57.4000,0.001732
20.025,57.4000,0.001732
20.042,57.4000,0.001732
20.058,57.4000,0.001732
20.074,57.4000,0.001732
20.091,57.4000,0.001732
20.121,57.4000,0.001732
20.137,57.4000,0.001732
20.153,57.4000,0.001732
20.170,57.4000,0.001732
20.185,57.4000,0.001732
20.201,57.4000,0.001732
20.218,57.4000,0.001732
20.246,57.4000,0.001732
20.265,57.4000,0.001610
20.281,57.4000,0.001610
20.297,57.3999,0.001610
20.314,57.3995,0.001610
20.329,57.3990,0.001610
20.345,57.3983,0.001610
20.361,57.3973,0.001610
20.377,57.3963,0.001610
20.393,57.3949,0.001610
20.416,57.3928,0.001610
20.432,57.3910,0.001610
20.448,57.3891,0.001610
20.464,57.3869,0.001610
20.483,57.3842,0.001610
20.510,57.3796,0.001949
20.528,57.3763,0.001949
20.544,57.3731,0.001949
20.560,57.3699,0.001949
20.576,57.3663,0.001949
20.592,57.3627,0.001949
20.608,57.3586,0.001949
20.624,57.3548,0.001949
20.640,57.3504,0.001949
20.656,57.3460,0.001949
20.672,57.3410,0.001949
20.688,57.3365,0.001949
20.704,57.3314,0.001949
20.720,57.3260,0.001949
20.737,57.3200,0.001949
20.752,57.3148,0.004725
20.768,57.3092,0.004725
20.784,57.3030,0.004725
20.800,57.2967,0.004725
20.816,57.2905,0.004725
20.832,57.2838,0.004725
20.848,57.2771,0.004725
20.864,57.2701,0.004725
20.880,57.2630,0.004725
20.896,57.2555,0.004725
20.912,57.2477,0.004725
20.928,57.2395,0.004725
20.944,57.2321,0.004725
20.974,57.2160,0.004725
20.991,57.2077,0.004725
21.007,57.1989,0.006938
21.023,57.1896,0.006938
21.045,57.1760,0.006938
21.071,57.1615,0.006938
21.087,57.1521,0.006938
21.103,57.1426,0.006938
21.119,57.1323,0.006938
21.134,57.1222,0.006938
21.151,57.1116,0.006938
21.167,57.1005,0.006938
21.184,57.0894,0.006938
21.200,57.0784,0.006938
21.223,57.0617,0.006938
21.253,57.0392,0.006938
21.284,57.0168,0.004509
21.300,57.0046,0.004509
21.331,56.9802,0.004509
21.362,56.9550,0.004509
21.378,56.9416,0.004509
21.394,56.9287,0.004509
21.425,56.9016,0.004509
21.456,56.8742,0.004509
21.472,56.8604,0.004509
21.502,56.8324,0.004509
21.530,56.8061,0.002156
21.546,56.7908,0.002156
21.561,56.7763,0.002156
21.578,56.7603,0.002156
21.593,56.7449,0.002156
21.610,56.7279,0.002156
21.626,56.7123,0.002156
21.642,56.6955,0.002156
21.658,56.6787,0.002156
21.674,56.6625,0.002156
21.691,56.6442,0.002156
21.718,56.6145,0.002156
21.737,56.5938,0.002156
21.753,56.5760,0.002156
21.770,56.5569,0.002156
21.786,56.5387,0.002156
21.802,56.5196,0.002156
21.818,56.5021,0.002156
21.833,56.4844,0.002156
21.849,56.4653,0.002156
21.865,56.4460,0.002156
21.881,56.4269,0.002156
21.898,56.4067,0.002156
21.913,56.3870,0.002156
21.929,56.3678,0.002156
21.946,56.3472,0.002156
21.961,56.3271,0.002156
21.977,56.3066,0.002156
21.994,56.2854,0.002156
22.009,56.2652,0.002203
22.026,56.2431,0.002203
22.041,56.2230,0.002203
22.057,56.2017,0.002203
22.079,56.1726,0.002203
22.095,56.1505,0.002203
22.110,56.1288,0.002203
22.126,56.1063,0.002203
22.143,56.0836,0.002203
22.158,56.0617,0.002203
22.174,56.0384,0.002203
22.190,56.0156,0.002203
22.207,55.9911,0.002203
22.227,55.9624,0.002203
22.260,55.9136,0.002203
22.289,55.8688,0.002259
22.320,55.8222,0.002259
22.335,55.7975,0.002259
22.351,55.7737,0.002259
22.366,55.7495,0.002259
22.383,55.7219,0.002259
22.399,55.6977,0.002259
22.414,55.6726,0.002259
22.430,55.6460,0.002259
22.447,55.6183,0.002259
22.475,55.5735,0.002259
22.495,55.5403,0.002259
22.510,55.5138,0.002259
22.526,55.4867,0.002259
22.542,55.4598,0.002419
22.558,55.4319,0.002419
22.574,55.4041,0.002419
22.591,55.3757,0.002419
22.606,55.3462,0.002419
22.630,55.3068,0.002419
22.645,55.2792,0.002419
22.661,55.2497,0.002419
22.677,55.2206,0.002419
22.693,55.1919,0.002419
22.709,55.1624,0.002419
22.725,55.1333,0.002419
22.741,55.1031,0.002419
22.757,55.0732,0.002419
22.773,55.0421,0.002419
22.789,55.0127,0.002495
22.806,54.9803,0.002495
22.824,54.9447,0.002495
22.839,54.9166,0.002495
22.861,54.8729,0.002495
22.892,54.8115,0.002495
22.923,54.7528,0.002495
22.953,54.6891,0.002495
22.985,54.6270,0.002495
23.000,54.5947,0.002495
23.031,54.5309,0.002551
23.047,54.4979,0.002551
23.063,54.4630,0.002551
23.079,54.4295,0.002551
23.109,54.3675,0.002551
23.126,54.3288,0.002551
23.141,54.2939,0.002551
23.158,54.2627,0.002551
23.184,54.2088,0.002551
23.199,54.1764,0.002551
23.215,54.1432,0.002551
23.231,54.1114,0.002551
23.254,54.0626,0.002551
23.277,54.0172,0.002551
23.295,53.9819,0.002607
23.311,53.9495,0.002607
23.327,53.9181,0.002607
23.343,53.8851,0.002607
23.359,53.8561,0.002607
23.375,53.8243,0.002607
23.391,53.7942,0.002607
23.407,53.7623,0.002607
23.423,53.7323,0.002607
23.439,53.7023,0.002607
23.455,53.6726,0.002607
23.471,53.6429,0.002607
23.487,53.6122,0.002607
23.503,53.5826,0.002607
23.519,53.5543,0.002683
23.535,53.5247,0.002683
23.551,53.4959,0.002683
23.568,53.4646,0.002683
23.587,53.4299,0.002683
23.603,53.4035,0.002683
23.633,53.3487,0.002683
23.649,53.3228,0.002683
23.664,53.2963,0.002683
23.680,53.2698,0.002683
23.711,53.2155,0.002683
23.736,53.1754,0.002683
23.752,53.1483,0.002683
23.768,53.1225,0.002843
23.784,53.0968,0.002843
23.800,53.0709,0.002843
23.816,53.0437,0.002843
23.831,53.0198,0.002843
23.847,52.9945,0.002843
23.864,52.9679,0.002843
23.880,52.9434,0.002843
23.896,52.9182,0.002843
23.914,52.8903,0.002843
23.942,52.8484,0.002843
23.960,52.8223,0.002843
23.979,52.7933,0.002843
24.004,52.7572,0.002984
24.024,52.7277,0.002984
24.040,52.7043,0.002984
24.056,52.6827,0.002984
24.072,52.6600,0.002984
24.088,52.6374,0.002984
24.106,52.6120,0.002984
24.129,52.5810,0.002984
24.160,52.5382,0.002984
24.190,52.4980,0.002984
24.206,52.4769,0.002984
24.238,52.4355,0.002984
24.268,52.3973,0.002984
24.288,52.3724,0.003238
24.304,52.3522,0.003238
24.320,52.3326,0.003238
24.336,52.3136,0.003238
24.354,52.2911,0.003238
24.376,52.2667,0.003238
24.407,52.2299,0.003238
24.437,52.1955,0.003238
24.467,52.1610,0.003238
24.484,52.1432,0.003238
24.514,52.1106,0.003238
24.545,52.0776,0.003417
24.561,52.0618,0.003417
24.576,52.0457,0.003417
24.600,52.0209,0.003417
24.623,51.9979,0.003417
24.641,51.9812,0.003417
24.657,51.9645,0.003417
24.672,51.9506,0.003417
24.689,51.9343,0.003417
24.704,51.9204,0.003417
24.721,51.9053,0.003417
24.737,51.8908,0.003417
24.753,51.8764,0.003492
24.768,51.8625,0.003492
24.785,51.8481,0.003492
24.800,51.8349,0.003492
24.816,51.8210,0.003492
24.839,51.8024,0.003492
24.855,51.7890,0.003492
24.870,51.7768,0.003492
24.886,51.7637,0.003492
24.903,51.7510,0.003492
24.919,51.7385,0.003492
24.934,51.7268,0.003492
24.950,51.7148,0.003492
24.967,51.7028,0.003492
24.983,51.6911,0.003492
24.999,51.6797,0.003492
25.015,51.6680,0.003605
25.031,51.6576,0.003605
25.046,51.6470,0.003605
25.062,51.6364,0.003605
25.078,51.6259,0.003605
25.095,51.6150,0.003605
25.118,51.6003,0.003605
25.134,51.5914,0.003605
25.149,51.5820,0.003605
25.181,51.5631,0.003605
25.197,51.5547,0.003605
25.212,51.5461,0.003605
25.228,51.5376,0.003605
25.243,51.5293,0.003605
25.275,51.5131,0.003605
25.305,51.4985,0.003718
25.321,51.4916,0.003718
25.337,51.4837,0.003718
25.367,51.4707,0.003718
25.384,51.4634,0.003718
25.414,51.4515,0.003718
25.430,51.4452,0.003718
25.447,51.4391,0.003718
25.463,51.4335,0.003718
25.479,51.4278,0.003718
25.494,51.4223,0.003718
25.516,51.4154,0.003718
25.539,51.4083,0.003718
25.558,51.4030,0.003822
25.575,51.3984,0.003822
25.590,51.3942,0.003822
25.606,51.3902,0.003822
25.622,51.3864,0.003822
25.639,51.3827,0.003822
25.654,51.3792,0.003822
25.670,51.3760,0.003822
25.686,51.3729,0.003822
25.702,51.3700,0.003822
25.718,51.3673,0.003822
25.734,51.3648,0.003822
25.751,51.3624,0.003822
25.769,51.3601,0.003822
25.800,51.3567,0.003869
25.816,51.3551,0.003869
25.846,51.3529,0.003869
25.862,51.3519,0.003869
25.878,51.3512,0.003869
25.902,51.3504,0.003869
25.918,51.3502,0.003869
25.935,51.3500,0.003869
25.951,51.3500,0.003869
25.966,51.3500,0.003869
25.982,51.3500,0.003869
25.998,51.3500,0.003869
26.014,51.3500,0.003869
26.030,51.3500,0.003906
26.047,51.3500,0.003906
26.063,51.3500,0.003906
26.078,51.3500,0.003906
26.094,51.3500,0.003906
26.110,51.3500,0.003906
26.127,51.3500,0.003906
26.154,51.3500,0.003906
26.174,51.3500,0.003906
26.190,51.3503,0.003906
26.206,51.3508,0.003906
26.222,51.3513,0.003906
26.238,51.3522,0.003906
26.254,51.3531,0.003906
26.270,51.3544,0.003906
26.286,51.3556,0.003991
26.302,51.3572,0.003991
26.319,51.3592,0.003991
26.334,51.3611,0.003991
26.350,51.3632,0.003991
26.366,51.3655,0.003991
26.383,51.3683,0.003991
26.402,51.3716,0.003991
26.433,51.3776,0.003991
26.463,51.3839,0.003991
26.494,51.3912,0.003991
26.510,51.3956,0.003991
26.526,51.3997,0.003925
26.542,51.4042,0.003925
26.558,51.4091,0.003925
26.574,51.4137,0.003925
26.590,51.4190,0.003925
26.606,51.4241,0.003925
26.623,51.4298,0.003925
26.638,51.4352,0.003925
26.654,51.4410,0.003925
26.670,51.4470,0.003925
26.689,51.4546,0.003925
26.713,51.4641,0.003925
26.734,51.4731,0.003925
26.750,51.4804,0.003925
26.766,51.4876,0.003925
26.782,51.4945,0.003794
26.798,51.5023,0.003794
26.814,51.5103,0.003794
26.830,51.5181,0.003794
26.846,51.5260,0.003794
26.862,51.5345,0.003794
26.878,51.5434,0.003794
26.894,51.5517,0.003794
26.910,51.5608,0.003794
26.926,51.5699,0.003794
26.951,51.5844,0.003794
26.966,51.5941,0.003794
26.983,51.6042,0.003794
26.999,51.6143,0.003794
27.016,51.6250,0.003803
27.037,51.6390,0.003803
27.053,51.6497,0.003803
27.068,51.6597,0.003803
27.098,51.6808,0.003803
27.134,51.7070,0.003803
27.160,51.7257,0.003803
27.178,51.7397,0.003803
27.206,51.7612,0.003803
27.223,51.7745,0.003803
27.239,51.7881,0.003803
27.254,51.8004,0.003803
27.270,51.8135,0.003681
27.286,51.8270,0.003681
27.306,51.8443,0.003681
27.329,51.8646,0.003681
27.351,51.8833,0.003681
27.368,51.8987,0.003681
27.383,51.9131,0.003681
27.407,51.9348,0.003681
27.422,51.9493,0.003681
27.453,51.9797,0.003681
27.468,51.9942,0.003681
27.484,52.0108,0.003681
27.516,52.0427,0.003521
27.547,52.0750,0.003521
27.563,52.0910,0.003521
27.593,52.1236,0.003521
27.610,52.1421,0.003521
27.641,52.1765,0.003521
27.672,52.2106,0.003521
27.702,52.2461,0.003521
27.724,52.2713,0.003521
27.748,52.3004,0.003521
27.766,52.3219,0.003389
27.783,52.3422,0.003389
27.799,52.3621,0.003389
27.814,52.3814,0.003389
27.830,52.4013,0.003389
27.847,52.4220,0.003389
27.863,52.4426,0.003389
27.878,52.4625,0.003389
27.895,52.4841,0.003389
27.910,52.5048,0.003389
27.926,52.5260,0.003389
27.942,52.5470,0.003389
27.958,52.5693,0.003389
27.974,52.5919,0.003389
27.991,52.6131,0.003389
28.006,52.6349,0.003389
28.028,52.6657,0.003276
28.051,52.6993,0.003276
28.074,52.7317,0.003276
28.093,52.7593,0.003276
28.108,52.7810,0.003276
28.124,52.8050,0.003276
28.140,52.8284,0.003276
28.159,52.8567,0.003276
28.183,52.8933,0.003276
28.215,52.9430,0.003276
28.236,52.9754,0.003276
28.252,53.0005,0.003276
28.269,53.0273,0.003163
28.284,53.0526,0.003163
28.301,53.0784,0.003163
28.317,53.1052,0.003163
28.333,53.1304,0.003163
28.348,53.1559,0.003163
28.364,53.1825,0.003163
28.380,53.2099,0.003163
28.396,53.2363,0.003163
28.413,53.2642,0.003163
28.428,53.2905,0.003163
28.444,53.3187,0.003163
28.461,53.3477,0.003163
28.476,53.3749,0.003163
28.492,53.4026,0.003163
28.509,53.4317,0.003163
28.524,53.4592,0.003163
28.540,53.4873,0.003163
28.568,53.5389,0.002965
28.599,53.5950,0.002965
28.615,53.6244,0.002965
28.631,53.6555,0.002965
28.647,53.6848,0.002965
28.663,53.7152,0.002965
28.679,53.7446,0.002965
28.696,53.7779,0.002965
28.723,53.8294,0.002965
28.743,53.8680,0.002965
28.759,53.8993,0.002965
28.775,53.9322,0.002965
28.791,53.9623,0.002749
28.807,53.9942,0.002749
28.824,54.0286,0.002749
28.839,54.0593,0.002749
28.855,54.0912,0.002749
28.871,54.1249,0.002749
28.888,54.1604,0.002749
28.908,54.2018,0.002749
28.923,54.2327,0.002749
28.954,54.2996,0.002749
28.986,54.3638,0.002749
29.003,54.4008,0.002749
29.033,54.4661,0.002579
29.064,54.5290,0.002579
29.079,54.5594,0.002579
29.095,54.5921,0.002579
29.125,54.6537,0.002579
29.140,54.6838,0.002579
29.156,54.7154,0.002579
29.172,54.7464,0.002579
29.191,54.7844,0.002579
29.218,54.8380,0.002579
29.236,54.8727,0.002579
29.252,54.9032,0.002579
29.268,54.9339,0.002579
29.284,54.9663,0.002598
29.300,54.9946,0.002598
29.316,55.0259,0.002598
29.333,55.0572,0.002598
29.348,55.0851,0.002598
29.364,55.1147,0.002598
29.380,55.1438,0.002598
29.397,55.1737,0.002598
29.420,55.2152,0.002598
29.435,55.2433,0.002598
29.466,55.2987,0.002598
29.497,55.3524,0.002598
29.518,55.3882,0.002598
29.543,55.4310,0.002636
29.559,55.4579,0.002636
29.590,55.5110,0.002636
29.622,55.5644,0.002636
29.652,55.6145,0.002636
29.678,55.6543,0.002636
29.695,55.6809,0.002636
29.710,55.7054,0.002636
29.726,55.7301,0.002636
29.742,55.7551,0.002636
29.758,55.7804,0.002485
29.774,55.8051,0.002485
29.790,55.8290,0.002485
29.806,55.8531,0.002485
29.822,55.8771,0.002485
29.838,55.9010,0.002485
29.861,55.9366,0.002485
29.884,55.9689,0.002485
29.902,55.9937,0.002485
29.919,56.0180,0.002485
29.934,56.0394,0.002485
29.950,56.0618,0.002485
29.966,56.0840,0.002485
29.982,56.1072,0.002485
29.998,56.1289,0.002485
30.013,56.1494,0.002278
30.030,56.1718,0.002278
30.046,56.1933,0.002278
30.063,56.2145,0.002278
30.086,56.2449,0.002278
30.103,56.2666,0.002278
30.131,56.3032,0.002278
30.148,56.3238,0.002278
30.178,56.3620,0.002278
30.208,56.3995,0.002278
30.232,56.4258,0.002278
30.248,56.4449,0.002278
30.264,56.4633,0.002250
30.280,56.4816,0.002250
30.296,56.5004,0.002250
30.311,56.5177,0.002250
30.328,56.5356,0.002250
30.343,56.5532,0.002250
30.360,56.5714,0.002250
30.375,56.5877,0.002250
30.392,56.6054,0.002250
30.408,56.6223,0.002250
30.423,56.6388,0.002250
30.441,56.6566,0.002250
30.457,56.6731,0.002250
30.473,56.6886,0.002250
30.488,56.7041,0.002250
30.503,56.7191,0.002193
30.519,56.7348,0.002193
30.536,56.7510,0.002193
30.552,56.7660,0.002193
30.581,56.7929,0.002193
30.602,56.8128,0.002193
30.627,56.8345,0.002193
30.648,56.8522,0.002193
30.664,56.8661,0.002193
30.680,56.8796,0.002193
30.695,56.8928,0.002193
30.712,56.9070,0.002193
30.728,56.9196,0.002193
30.744,56.9326,0.002193
30.759,56.9455,0.002193
30.784,56.9636,0.002127
30.814,56.9865,0.002127
30.831,56.9984,0.002127
30.847,57.0106,0.002127
30.876,57.0316,0.002127
30.895,57.0436,0.002127
30.911,57.0545,0.002127
30.926,57.0648,0.002127
30.943,57.0757,0.002127
30.958,57.0854,0.002127
30.975,57.0958,0.002127
30.991,57.1057,0.002127
31.007,57.1151,0.002043
31.022,57.1243,0.002043
31.039,57.1341,0.002043
31.055,57.1427,0.002043
31.070,57.1515,0.002043
31.086,57.1603,0.002043
31.102,57.1686,0.002043
31.119,57.1773,0.002043
31.134,57.1850,0.002043
31.150,57.1932,0.002043
31.166,57.2007,0.002043
31.183,57.2085,0.002043
31.198,57.2155,0.002043
31.214,57.2228,0.002043
31.231,57.2297,0.002043
31.247,57.2364,0.002043
31.262,57.2428,0.001873
31.278,57.2492,0.001873
31.294,57.2553,0.001873
31.326,57.2668,0.001873
31.341,57.2723,0.001873
31.357,57.2776,0.001873
31.373,57.2830,0.001873
31.390,57.2880,0.001873
31.406,57.2928,0.001873
31.421,57.2972,0.001873
31.437,57.3018,0.001873
31.453,57.3059,0.001873
31.470,57.3101,0.001873
31.485,57.3138,0.001873
31.501,57.3176,0.001873
31.518,57.3210,0.001873
31.533,57.3241,0.001553
31.549,57.3272,0.001553
31.565,57.3302,0.001553
31.582,57.3329,0.001553
31.597,57.3353,0.001553
31.613,57.3376,0.001553
31.629,57.3396,0.001553
31.646,57.3416,0.001553
31.661,57.3434,0.001553
31.677,57.3448,0.001553
31.693,57.3462,0.001553
31.709,57.3473,0.001553
31.725,57.3482,0.001553
31.741,57.3489,0.001553
31.758,57.3496,0.001553
31.773,57.3499,0.001553
31.790,57.3500,0.001139
31.819,57.3500,0.001139
31.849,57.3500,0.001139
31.865,57.3500,0.001139
31.882,57.3500,0.001139
31.897,57.3500,0.001139
31.913,57.3500,0.001139
31.929,57.3500,0.001139
31.945,57.3500,0.001139
31.961,57.3500,0.001139
31.977,57.3500,0.001139
31.994,57.3500,0.001139
32.009,57.3500,0.001139
32.025,57.3500,0.001139
32.041,57.3500,0.001177
32.057,57.3500,0.001177
32.073,57.3500,0.001177
32.089,57.3500,0.001177
32.105,57.3500,0.001177
32.121,57.3500,0.001177
32.137,57.3500,0.001177
32.153,57.3500,0.001177
32.169,57.3500,0.001177
32.185,57.3500,0.001177
32.201,57.3500,0.001177
32.217,57.3500,0.001177
32.234,57.3500,0.001177
32.249,57.3500,0.001177
32.266,57.3500,0.001177
32.281,57.3500,0.001572
32.297,57.3500,0.001572
32.314,57.3500,0.001572
32.329,57.3500,0.001572
32.345,57.3500,0.001572
32.369,57.3500,0.001572
32.384,57.3500,0.001572
32.401,57.3500,0.001572
32.417,57.3500,0.001572
32.433,57.3500,0.001572
32.449,57.3500,0.001572
32.465,57.3500,0.001572
32.481,57.3500,0.001572
32.497,57.3500,0.001572
32.513,57.3500,0.001572
32.529,57.3500,0.001741
32.546,57.3500,0.001741
32.561,57.3500,0.001741
32.577,57.3500,0.001741
32.593,57.3500,0.001741
32.610,57.3500,0.001741
32.630,57.3500,0.001741
32.653,57.3500,0.001741
32.673,57.3500,0.001741
32.689,57.3500,0.001741
32.705,57.3500,0.001741
32.721,57.3500,0.001741
32.737,57.3500,0.001741
32.754,57.3500,0.001741
32.777,57.3500,0.001741
32.808,57.3500,0.001751
32.838,57.3500,0.001751
32.870,57.3500,0.001751
32.901,57.3500,0.001751
32.932,57.3500,0.001751
32.963,57.3500,0.001751
32.978,57.3500,0.001751
32.994,57.3500,0.001751
33.010,57.3500,0.001751
33.025,57.3500,0.001741
33.040,57.3500,0.001741
33.057,57.3500,0.001741
33.073,57.3500,0.001741
33.090,57.3500,0.001741
33.116,57.3500,0.001741
33.136,57.3500,0.001741
33.153,57.3500,0.001741
33.169,57.3500,0.001741
33.185,57.3500,0.001741
33.201,57.3500,0.001741
33.217,57.3500,0.001741
33.232,57.3500,0.001741
33.248,57.3500,0.001741
33.264,57.3500,0.001779
33.281,57.3500,0.001779
33.297,57.3500,0.001779
33.313,57.3500,0.001779
33.329,57.3500,0.001779
33.345,57.3500,0.001779
33.361,57.3500,0.001779
33.377,57.3500,0.001779
33.393,57.3500,0.001779
33.422,57.3500,0.001779
33.437,57.3500,0.001779
33.453,57.3500,0.001779
33.470,57.3500,0.001779
33.486,57.3500,0.001779
33.501,57.3500,0.001779
33.517,57.3500,0.001836
33.534,57.3500,0.001836
33.550,57.3500,0.001836
33.565,57.3500,0.001836
33.582,57.3500,0.001836
33.597,57.3500,0.001836
33.613,57.3500,0.001836
33.629,57.3500,0.001836
33.646,57.3500,0.001836
33.662,57.3500,0.001836
33.678,57.3500,0.001836
33.694,57.3500,0.001836
33.709,57.3500,0.001836
33.725,57.3500,0.001836
33.742,57.3500,0.001836
33.757,57.3500,0.001845
33.774,57.3500,0.001845
33.789,57.3500,0.001845
33.805,57.3500,0.001845
33.822,57.3500,0.001845
33.840,57.3500,0.001845
33.876,57.3500,0.001845
33.901,57.3500,0.001845
33.919,57.3500,0.001845
33.949,57.3500,0.001845
33.977,57.3500,0.001845
33.992,57.3500,0.001845
34.008,57.3500,0.001798
34.024,57.3500,0.001798
34.041,57.3500,0.001798
34.057,57.3500,0.001798
34.072,57.3500,0.001798
34.088,57.3500,0.001798
34.106,57.3500,0.001798
34.135,57.3500,0.001798
34.152,57.3500,0.001798
34.169,57.3500,0.001798
34.184,57.3500,0.001798
34.201,57.3500,0.001798
34.216,57.3500,0.001798
34.233,57.3500,0.001798
34.248,57.3500,0.001798
34.265,57.3500,0.001760
34.280,57.3500,0.001760
34.296,57.3500,0.001760
34.313,57.3500,0.001760
34.328,57.3500,0.001760
34.344,57.3500,0.001760
34.361,57.3500,0.001760
34.377,57.3500,0.001760
34.392,57.3500,0.001760
34.408,57.3500,0.001760
34.425,57.3500,0.001760
34.441,57.3500,0.001760
34.462,57.3500,0.001760
34.492,57.3500,0.001760
34.508,57.3500,0.001760
34.538,57.3500,0.001826
34.555,57.3500,0.001826
34.584,57.3500,0.001826
34.601,57.3500,0.001826
34.617,57.3500,0.001826
34.632,57.3500,0.001826
34.648,57.3500,0.001826
34.666,57.3500,0.001826
34.693,57.3500,0.001826
34.712,57.3500,0.001826
34.729,57.3500,0.001826
34.745,57.3500,0.001826
34.761,57.3500,0.001901
34.776,57.3500,0.001901
34.792,57.3500,0.001901
34.808,57.3500,0.001901
34.824,57.3500,0.001901
34.840,57.3500,0.001901
34.856,57.3500,0.001901
34.872,57.3500,0.001901
34.888,57.3500,0.001901
34.904,57.3500,0.001901
34.920,57.3500,0.001901
34.936,57.3500,0.001901
34.952,57.3500,0.001901
34.968,57.3500,0.001901
34.984,57.3500,0.001901
35.000,57.3500,0.001901
35.030,57.3500,0.001845
35.046,57.3500,0.001845
35.062,57.3500,0.001845
35.078,57.3500,0.001845
35.094,57.3500,0.001845
35.110,57.3500,0.001845
35.126,57.3500,0.001845
35.142,57.3500,0.001845
35.160,57.3500,0.001845
35.189,57.3500,0.001845
35.207,57.3500,0.001845
35.222,57.3500,0.001845
35.238,57.3500,0.001845
35.254,57.3500,0.001836
35.270,57.3500,0.001836
35.286,57.3500,0.001836
35.302,57.3500,0.001836
35.318,57.3500,0.001836
35.334,57.3500,0.001836
35.352,57.3500,0.001836
35.376,57.3500,0.001836
35.407,57.3500,0.001836
35.424,57.3500,0.001836
35.454,57.3500,0.001836
35.470,57.3500,0.001836
35.486,57.3500,0.001836
35.516,57.3500,0.001798
35.547,57.3500,0.001798
35.563,57.3500,0.001798
35.579,57.3500,0.001798
35.611,57.3500,0.001798
35.641,57.3500,0.001798
35.657,57.3500,0.001798
35.688,57.3500,0.001798
35.718,57.3500,0.001798
35.734,57.3500,0.001798
35.750,57.3500,0.001798
35.766,57.3500,0.001817
35.783,57.3500,0.001817
35.798,57.3500,0.001817
35.814,57.3500,0.001817
35.830,57.3500,0.001817
35.852,57.3500,0.001817
35.872,57.3500,0.001817
35.902,57.3500,0.001817
35.918,57.3500,0.001817
35.949,57.3500,0.001817
35.980,57.3500,0.001817
36.011,57.3500,0.001836
36.040,57.3500,0.001836
36.072,57.3500,0.001836
36.102,57.3500,0.001836
36.118,57.3500,0.001836
36.134,57.3500,0.001836
36.150,57.3500,0.001836
36.166,57.3500,0.001836
36.182,57.3500,0.001836
36.198,57.3500,0.001836
36.214,57.3500,0.001836
36.230,57.3500,0.001836
36.246,57.3500,0.001836
36.262,57.3500,0.001836
36.278,57.3500,0.001836
36.295,57.3500,0.001704
36.319,57.3500,0.001704
36.350,57.3500,0.001704
36.366,57.3500,0.001704
36.396,57.3500,0.001704
36.412,57.3500,0.001704
36.443,57.3500,0.001704
36.474,57.3500,0.001704
36.504,57.3500,0.001704
36.535,57.3500,0.001600
36.551,57.3500,0.001600
36.582,57.3497,0.001600
36.597,57.3492,0.001600
36.625,57.3478,0.001600
36.642,57.3468,0.001600
36.673,57.3442,0.001600
36.690,57.3425,0.001600
36.706,57.3407,0.001600
36.721,57.3389,0.001600
36.737,57.3367,0.001600
36.754,57.3342,0.001600
36.769,57.3317,0.001600
36.786,57.3288,0.001864
36.801,57.3260,0.001864
36.821,57.3220,0.001864
36.844,57.3172,0.001864
36.865,57.3122,0.001864
36.882,57.3083,0.001864
36.897,57.3043,0.001864
36.913,57.2999,0.001864
36.929,57.2955,0.001864
36.945,57.2906,0.001864
36.961,57.2859,0.001864
36.977,57.2808,0.001864
36.994,57.2750,0.001864
37.010,57.2698,0.001864
37.030,57.2627,0.004424
37.045,57.2568,0.004424
37.061,57.2511,0.004424
37.077,57.2445,0.004424
37.108,57.2319,0.004424
37.139,57.2183,0.004424
37.170,57.2044,0.004424
37.186,57.1968,0.004424
37.202,57.1889,0.004424
37.218,57.1811,0.004424
37.234,57.1724,0.004424
37.250,57.1641,0.004424
37.278,57.1491,0.006900
37.297,57.1382,0.006900
37.313,57.1290,0.006900
37.330,57.1199,0.006900
37.346,57.1098,0.006900
37.362,57.1004,0.006900
37.377,57.0907,0.006900
37.393,57.0803,0.006900
37.409,57.0704,0.006900
37.425,57.0596,0.006900
37.442,57.0487,0.006900
37.457,57.0381,0.006900
37.473,57.0272,0.006900
37.490,57.0156,0.006900
37.506,57.0041,0.006900
37.521,56.9926,0.004660
37.537,56.9808,0.004660
37.554,56.9676,0.004660
37.572,56.9545,0.004660
37.588,56.9416,0.004660
37.620,56.9163,0.004660
37.650,56.8914,0.004660
37.665,56.8781,0.004660
37.681,56.8638,0.004660
37.705,56.8442,0.004660
37.722,56.8301,0.004660
37.737,56.8156,0.004660
37.753,56.8017,0.004660
37.769,56.7866,0.004660
37.785,56.7721,0.002212
37.801,56.7568,0.002212
37.817,56.7416,0.002212
37.833,56.7263,0.002212
37.849,56.7110,0.002212
37.865,56.6947,0.002212
37.882,56.6786,0.002212
37.897,56.6628,0.002212
37.913,56.6461,0.002212
37.929,56.6296,0.002212
37.945,56.6120,0.002212
37.961,56.5959,0.002212
37.977,56.5790,0.002212
37.993,56.5615,0.002212
38.011,56.5422,0.002212
38.038,56.5114,0.002165
38.057,56.4895,0.002165
38.073,56.4710,0.002165
38.089,56.4531,0.002165
38.106,56.4334,0.002165
38.121,56.4149,0.002165
38.137,56.3959,0.002165
38.153,56.3761,0.002165
38.169,56.3575,0.002165
38.186,56.3358,0.002165
38.201,56.3173,0.002165
38.217,56.2975,0.002165
38.233,56.2776,0.002165
38.254,56.2500,0.002165
38.270,56.2300,0.002165
38.286,56.2085,0.002203
38.302,56.1873,0.002203
38.318,56.1665,0.002203
38.334,56.1452,0.002203
38.350,56.1226,0.002203
38.367,56.0995,0.002203
38.387,56.0716,0.002203
38.409,56.0412,0.002203
38.430,56.0117,0.002203
38.447,55.9867,0.002203
38.463,55.9652,0.002203
38.487,55.9287,0.002203
38.518,55.8837,0.002203
38.549,55.8376,0.002297
38.579,55.7905,0.002297
38.610,55.7432,0.002297
38.626,55.7174,0.002297
38.641,55.6942,0.002297
38.657,55.6690,0.002297
38.672,55.6444,0.002297
38.688,55.6183,0.002297
38.703,55.5942,0.002297
38.719,55.5683,0.002297
38.735,55.5423,0.002297
38.753,55.5108,0.002297
38.778,55.4708,0.002297
38.794,55.4431,0.002297
38.810,55.4162,0.002334
38.826,55.3876,0.002334
38.842,55.3605,0.002334
38.858,55.3338,0.002334
38.881,55.2911,0.002334
38.904,55.2512,0.002334
38.923,55.2180,0.002334
38.939,55.1887,0.002334
38.958,55.1535,0.002334
38.982,55.1109,0.002334
39.003,55.0710,0.002334
39.029,55.0226,0.002419
39.050,54.9841,0.002419
39.067,54.9521,0.002419
39.082,54.9223,0.002419
39.097,54.8912,0.002419
39.114,54.8619,0.002419
39.130,54.8291,0.002419
39.146,54.7984,0.002419
39.161,54.7681,0.002419
39.178,54.7354,0.002419
39.194,54.7023,0.002419
39.209,54.6719,0.002419
39.225,54.6400,0.002419
39.242,54.6065,0.002419
39.257,54.5729,0.002419
39.273,54.5413,0.002419
39.289,54.5082,0.002419
39.305,54.4753,0.002570
39.321,54.4402,0.002570
39.337,54.4082,0.002570
39.354,54.3744,0.002570
39.371,54.3375,0.002570
39.401,54.2727,0.002570
39.418,54.2376,0.002570
39.434,54.2039,0.002570
39.449,54.1713,0.002570
39.465,54.1381,0.002570
39.481,54.1050,0.002570
39.500,54.0671,0.002570
39.525,54.0148,0.002636
39.546,53.9740,0.002636
39.563,53.9393,0.002636
39.588,53.8898,0.002636
39.603,53.8595,0.002636
39.634,53.7991,0.002636
39.665,53.7386,0.002636
39.698,53.6764,0.002636
39.728,53.6198,0.002636
39.759,53.5610,0.002636
39.789,53.5062,0.002673
39.806,53.4748,0.002673
39.828,53.4355,0.002673
39.844,53.4070,0.002673
39.861,53.3776,0.002673
39.876,53.3495,0.002673
39.892,53.3218,0.002673
39.908,53.2941,0.002673
39.925,53.2648,0.002673
39.942,53.2347,0.002673
39.961,53.2039,0.002673
39.992,53.1516,0.002673
40.007,53.1248,0.002673
40.023,53.0989,0.002852
40.039,53.0731,0.002852
40.069,53.0245,0.002852
40.084,52.9993,0.002852
40.100,52.9748,0.002852
40.124,52.9357,0.002852
40.147,52.9005,0.002852
40.165,52.8732,0.002852
40.181,52.8484,0.002852
40.197,52.8243,0.002852
40.213,52.7994,0.002852
40.228,52.7766,0.002852
40.245,52.7520,0.002852
40.260,52.7291,0.002852
40.277,52.7054,0.003069
40.292,52.6829,0.003069
40.309,52.6587,0.003069
40.326,52.6342,0.003069
40.348,52.6039,0.003069
40.369,52.5744,0.003069
40.384,52.5531,0.003069
40.400,52.5312,0.003069
40.417,52.5081,0.003069
40.433,52.4863,0.003069
40.448,52.4663,0.003069
40.464,52.4455,0.003069
40.481,52.4225,0.003069
40.496,52.4029,0.003069
40.512,52.3833,0.003248
40.528,52.3627,0.003248
40.544,52.3420,0.003248
40.560,52.3220,0.003248
40.576,52.3027,0.003248
40.592,52.2826,0.003248
40.608,52.2635,0.003248
40.624,52.2441,0.003248
40.641,52.2237,0.003248
40.659,52.2028,0.003248
40.675,52.1850,0.003248
40.705,52.1496,0.003248
40.720,52.1326,0.003248
40.737,52.1138,0.003248
40.752,52.0968,0.003248
40.768,52.0799,0.003398
40.784,52.0629,0.003398
40.807,52.0380,0.003398
40.829,52.0156,0.003398
40.848,51.9953,0.003398
40.866,51.9779,0.003398
40.891,51.9522,0.003398
40.912,51.9312,0.003398
40.928,51.9152,0.003398
40.944,51.9001,0.003398
40.960,51.8856,0.003398
40.977,51.8692,0.003398
41.000,51.8482,0.003398
41.031,51.8203,0.003558
41.063,51.7924,0.003558
41.093,51.7665,0.003558
41.116,51.7469,0.003558
41.136,51.7314,0.003558
41.151,51.7189,0.003558
41.168,51.7056,0.003558
41.184,51.6933,0.003558
41.200,51.6814,0.003558
41.217,51.6685,0.003558
41.232,51.6572,0.003558
41.248,51.6460,0.003558
41.264,51.6344,0.003681
41.280,51.6231,0.003681
41.296,51.6120,0.003681
41.312,51.6008,0.003681
41.329,51.5898,0.003681
41.356,51.5720,0.003681
41.376,51.5590,0.003681
41.392,51.5492,0.003681
41.408,51.5396,0.003681
41.424,51.5304,0.003681
41.447,51.5169,0.003681
41.463,51.5077,0.003681
41.479,51.4987,0.003681
41.494,51.4903,0.003681
41.513,51.4806,0.003681
41.542,51.4658,0.003728
41.559,51.4574,0.003728
41.575,51.4495,0.003728
41.591,51.4422,0.003728
41.607,51.4346,0.003728
41.623,51.4279,0.003728
41.639,51.4206,0.003728
41.656,51.4137,0.003728
41.680,51.4036,0.003728
41.696,51.3973,0.003728
41.727,51.3860,0.003728
41.758,51.3750,0.003728
41.789,51.3653,0.003812
41.804,51.3605,0.003812
41.820,51.3555,0.003812
41.851,51.3472,0.003812
41.867,51.3429,0.003812
41.886,51.3381,0.003812
41.913,51.3319,0.003812
41.929,51.3286,0.003812
41.959,51.3225,0.003812
41.974,51.3199,0.003812
42.004,51.3151,0.003812
42.020,51.3128,0.003812
42.036,51.3107,0.003822
42.052,51.3087,0.003822
42.069,51.3069,0.003822
42.098,51.3042,0.003822
42.116,51.3030,0.003822
42.131,51.3020,0.003822
42.147,51.3013,0.003822
42.164,51.3007,0.003822
42.179,51.3003,0.003822
42.197,51.3001,0.003822
42.222,51.3001,0.003822
42.244,51.3001,0.003822
42.260,51.3001,0.003822
42.276,51.3001,0.003822
42.292,51.3001,0.003906
42.308,51.3001,0.003906
42.324,51.3001,0.003906
42.340,51.3001,0.003906
42.355,51.3001,0.003906
42.372,51.3002,0.003906
42.387,51.3004,0.003906
42.403,51.3008,0.003906
42.420,51.3014,0.003906
42.436,51.3023,0.003906
42.452,51.3033,0.003906
42.467,51.3045,0.003906
42.483,51.3059,0.003906
42.500,51.3076,0.003906
42.530,51.3111,0.003906
42.548,51.3137,0.003906
42.564,51.3159,0.004029
42.579,51.3185,0.004029
42.595,51.3211,0.004029
42.624,51.3269,0.004029
42.641,51.3302,0.004029
42.656,51.3335,0.004029
42.673,51.3374,0.004029
42.688,51.3411,0.004029
42.705,51.3453,0.004029
42.720,51.3494,0.004029
42.736,51.3540,0.004029
42.753,51.3588,0.004029
42.768,51.3636,0.004029
42.784,51.3685,0.003963
42.800,51.3740,0.003963
42.817,51.3796,0.003963
42.833,51.3851,0.003963
42.849,51.3908,0.003963
42.864,51.3969,0.003963
42.881,51.4031,0.003963
42.897,51.4096,0.003963
42.912,51.4159,0.003963
42.928,51.4227,0.003963
42.945,51.4300,0.003963
42.960,51.4370,0.003963
42.976,51.4443,0.003963
42.993,51.4525,0.003963
43.009,51.4599,0.003963
43.025,51.4680,0.003963
43.040,51.4758,0.003963
43.065,51.4887,0.003859
43.092,51.5037,0.003859
43.111,51.5143,0.003859
43.129,51.5244,0.003859
43.155,51.5399,0.003859
43.175,51.5523,0.003859
43.192,51.5626,0.003859
43.208,51.5728,0.003859
43.223,51.5827,0.003859
43.239,51.5941,0.003859
43.256,51.6052,0.003859
43.271,51.6151,0.003859
43.287,51.6262,0.003859
43.304,51.6379,0.003803
43.320,51.6497,0.003803
43.336,51.6613,0.003803
43.351,51.6726,0.003803
43.368,51.6857,0.003803
43.385,51.6989,0.003803
43.401,51.7118,0.003803
43.416,51.7235,0.003803
43.447,51.7487,0.003803
43.463,51.7617,0.003803
43.479,51.7753,0.003803
43.496,51.7897,0.003803
43.511,51.8026,0.003803
43.527,51.8172,0.003709
43.543,51.8308,0.003709
43.561,51.8471,0.003709
43.587,51.8708,0.003709
43.607,51.8897,0.003709
43.624,51.9068,0.003709
43.639,51.9210,0.003709
43.655,51.9358,0.003709
43.671,51.9522,0.003709
43.687,51.9685,0.003709
43.703,51.9838,0.003709
43.719,52.0002,0.003709
43.735,52.0172,0.003709
43.751,52.0343,0.003709
43.767,52.0513,0.003633
43.783,52.0678,0.003633
43.799,52.0850,0.003633
43.816,52.1040,0.003633
43.835,52.1252,0.003633
43.865,52.1592,0.003633
43.882,52.1784,0.003633
43.897,52.1958,0.003633
43.913,52.2137,0.003633
43.928,52.2320,0.003633
43.960,52.2708,0.003633
43.975,52.2888,0.003633
43.992,52.3106,0.003633
44.023,52.3477,0.003521
44.039,52.3685,0.003521
44.055,52.3896,0.003521
44.072,52.4108,0.003521
44.101,52.4488,0.003521
44.121,52.4759,0.003521
44.145,52.5085,0.003521
44.162,52.5312,0.003521
44.194,52.5740,0.003521
44.209,52.5962,0.003521
44.239,52.6390,0.003521
44.258,52.6649,0.003521
44.285,52.7050,0.003332
44.305,52.7332,0.003332
44.331,52.7718,0.003332
44.352,52.8032,0.003332
44.369,52.8293,0.003332
44.393,52.8660,0.003332
44.424,52.9155,0.003332
44.454,52.9620,0.003332
44.484,53.0111,0.003332
44.500,53.0358,0.003332
44.531,53.0859,0.003163
44.562,53.1365,0.003163
44.592,53.1876,0.003163
44.610,53.2203,0.003163
44.639,53.2678,0.003163
44.668,53.3184,0.003163
44.684,53.3473,0.003163
44.699,53.3736,0.003163
44.716,53.4037,0.003163
44.732,53.4328,0.003163
44.749,53.4649,0.003163
44.764,53.4896,0.003163
44.780,53.5187,0.003012
44.797,53.5507,0.003012
44.827,53.6062,0.003012
44.844,53.6388,0.003012
44.860,53.6688,0.003012
44.880,53.7062,0.003012
44.905,53.7554,0.003012
44.924,53.7913,0.003012
44.939,53.8205,0.003012
44.956,53.8525,0.003012
44.971,53.8842,0.003012
44.987,53.9156,0.003012
45.004,53.9493,0.002777
45.019,53.9796,0.002777
45.036,54.0127,0.002777
45.052,54.0454,0.002777
45.067,54.0766,0.002777
45.084,54.1104,0.002777
45.100,54.1447,0.002777
45.115,54.1763,0.002777
45.131,54.2101,0.002777
45.149,54.2464,0.002777
45.168,54.2882,0.002777
45.184,54.3207,0.002777
45.215,54.3879,0.002777
45.245,54.4499,0.002777
45.277,54.5157,0.002626
45.307,54.5776,0.002626
45.324,54.6107,0.002626
45.339,54.6416,0.002626
45.355,54.6737,0.002626
45.371,54.7060,0.002626
45.388,54.7380,0.002626
45.403,54.7689,0.002626
45.420,54.8012,0.002626
45.436,54.8315,0.002626
45.452,54.8640,0.002626
45.467,54.8922,0.002626
45.484,54.9239,0.002626
45.499,54.9533,0.002626
45.516,54.9848,0.002626
45.539,55.0270,0.002626
45.555,55.0557,0.002636
45.571,55.0865,0.002636
45.603,55.1452,0.002636
45.632,55.1974,0.002636
45.648,55.2254,0.002636
45.663,55.2521,0.002636
45.694,55.3060,0.002636
45.726,55.3606,0.002636
45.755,55.4114,0.002636
45.771,55.4361,0.002636
45.786,55.4638,0.002626
45.802,55.4893,0.002626
45.819,55.5174,0.002626
45.835,55.5440,0.002626
45.851,55.5682,0.002626
45.866,55.5933,0.002626
45.882,55.6196,0.002626
45.898,55.6445,0.002626
45.915,55.6714,0.002626
45.930,55.6948,0.002626
45.948,55.7225,0.002626
45.973,55.7617,0.002626
45.995,55.7937,0.002626
46.011,55.8185,0.002626
46.027,55.8420,0.002626
46.042,55.8649,0.002485
46.059,55.8903,0.002485
46.076,55.9155,0.002485
46.097,55.9446,0.002485
46.113,55.9664,0.002485
46.130,55.9916,0.002485
46.160,56.0325,0.002485
46.176,56.0547,0.002485
46.207,56.0978,0.002485
46.238,56.1387,0.002485
46.255,56.1619,0.002485
46.285,56.2004,0.002485
46.314,56.2371,0.002334
46.332,56.2596,0.002334
46.362,56.2980,0.002334
46.379,56.3197,0.002334
46.409,56.3539,0.002334
46.426,56.3747,0.002334
46.445,56.3984,0.002334
46.463,56.4175,0.002334
46.486,56.4448,0.002334
46.505,56.4666,0.002334
46.521,56.4839,0.002250
46.537,56.5017,0.002250
46.553,56.5193,0.002250
46.569,56.5370,0.002250
46.586,56.5539,0.002250
46.602,56.5711,0.002250
46.626,56.5964,0.002250
46.656,56.6267,0.002250
46.687,56.6576,0.002250
46.702,56.6735,0.002250
46.718,56.6885,0.002250
46.748,56.7169,0.002250
46.765,56.7327,0.002174
46.795,56.7607,0.002174
46.818,56.7809,0.002174
46.842,56.8019,0.002174
46.858,56.8154,0.002174
46.890,56.8428,0.002174
46.905,56.8552,0.002174
46.921,56.8677,0.002174
46.938,56.8816,0.002174
46.953,56.8939,0.002174
46.969,56.9055,0.002174
46.986,56.9189,0.002174
47.002,56.9311,0.002174
47.029,56.9511,0.002127
47.049,56.9650,0.002127
47.065,56.9767,0.002127
47.081,56.9874,0.002127
47.097,56.9983,0.002127
47.113,57.0091,0.002127
47.129,57.0200,0.002127
47.145,57.0298,0.002127
47.161,57.0400,0.002127
47.178,57.0508,0.002127
47.193,57.0600,0.002127
47.209,57.0693,0.002127
47.225,57.0787,0.002127
47.241,57.0877,0.002127
47.257,57.0969,0.002127
47.273,57.1055,0.002127
47.289,57.1140,0.002014
47.305,57.1227,0.002014
47.321,57.1309,0.002014
47.337,57.1390,0.002014
47.353,57.1465,0.002014
47.373,57.1567,0.002014
47.397,57.1672,0.002014
47.416,57.1753,0.002014
47.431,57.1821,0.002014
47.462,57.1949,0.002014
47.493,57.2067,0.002014
47.508,57.2124,0.002014
47.524,57.2180,0.001826
47.540,57.2235,0.001826
47.556,57.2289,0.001826
47.572,57.2341,0.001826
47.588,57.2389,0.001826
47.604,57.2438,0.001826
47.620,57.2485,0.001826
47.636,57.2528,0.001826
47.653,57.2570,0.001826
47.668,57.2608,0.001826
47.686,57.2652,0.001826
47.710,57.2704,0.001826
47.725,57.2737,0.001826
47.756,57.2794,0.001826
47.786,57.2844,0.001487
47.819,57.2890,0.001487
47.848,57.2925,0.001487
47.864,57.2942,0.001487
47.896,57.2967,0.001487
47.927,57.2986,0.001487
47.942,57.2992,0.001487
47.958,57.2997,0.001487
47.989,57.3001,0.001487
48.004,57.3001,0.001487
48.020,57.3001,0.001177
48.036,57.3001,0.001177
48.052,57.3001,0.001177
48.068,57.3001,0.001177
48.084,57.3001,0.001177
48.100,57.3001,0.001177
48.116,57.3001,0.001177
48.144,57.3001,0.001177
48.164,57.3001,0.001177
48.180,57.3001,0.001177
48.195,57.3001,0.001177
48.211,57.3001,0.001177
48.227,57.3001,0.001177
48.244,57.3001,0.001177
48.260,57.3001,0.001177
48.276,57.3001,0.001374
48.292,57.3001,0.001374
48.308,57.3001,0.001374
48.323,57.3001,0.001374
48.339,57.3001,0.001374
48.356,57.3001,0.001374
48.378,57.3001,0.001374
48.408,57.3001,0.001374
48.424,57.3001,0.001374
48.448,57.3001,0.001374
48.463,57.3001,0.001374
48.479,57.3001,0.001374
48.496,57.3001,0.001374
48.511,57.3001,0.001732
48.528,57.3001,0.001732
48.544,57.3001,0.001732
48.560,57.3001,0.001732
48.576,57.3001,0.001732
48.592,57.3001,0.001732
48.607,57.3001,0.001732
48.623,57.3001,0.001732
48.640,57.3001,0.001732
48.656,57.3001,0.001732
48.673,57.3001,0.001732
48.703,57.3001,0.001732
48.719,57.3001,0.001732
48.742,57.3001,0.001732
48.758,57.3001,0.001732
48.781,57.3001,0.001854
48.800,57.3001,0.001854
48.816,57.3001,0.001854
48.831,57.3001,0.001854
48.847,57.3001,0.001854
48.864,57.3001,0.001854
48.880,57.3001,0.001854
48.896,57.3001,0.001854
48.911,57.3001,0.001854
48.928,57.3001,0.001854
48.944,57.3001,0.001854
48.959,57.3001,0.001854
48.983,57.3001,0.001854
48.999,57.3001,0.001854
49.015,57.3001,0.001854
49.030,57.3001,0.001854
49.048,57.3001,0.001854
49.067,57.3001,0.001854
49.090,57.3001,0.001854
49.111,57.3001,0.001854
49.127,57.3001,0.001854
49.142,57.3001,0.001854
49.158,57.3001,0.001854
49.175,57.3001,0.001854
49.191,57.3001,0.001854
49.206,57.3001,0.001854
49.222,57.3001,0.001854
49.239,57.3001,0.001854
49.254,57.3001,0.001883
49.270,57.3001,0.001883
49.286,57.3001,0.001883
49.302,57.3001,0.001883
49.319,57.3001,0.001883
49.334,57.3001,0.001883
49.350,57.3001,0.001883
49.366,57.3001,0.001883
49.382,57.3001,0.001883
49.398,57.3001,0.001883
49.414,57.3001,0.001883
49.430,57.3001,0.001883
49.446,57.3001,0.001883
49.462,57.3001,0.001883
49.480,57.3001,0.001883
49.508,57.3001,0.001883
49.538,57.3001,0.001939
49.554,57.3001,0.001939
49.570,57.3001,0.001939
49.586,57.3001,0.001939
49.603,57.3001,0.001939
49.632,57.3001,0.001939
49.650,57.3001,0.001939
49.667,57.3001,0.001939
49.683,57.3001,0.001939
49.711,57.3001,0.001939
49.730,57.3001,0.001939
49.746,57.3001,0.001939
49.762,57.3001,0.001939
49.778,57.3001,0.001939
49.794,57.3001,0.001939
49.810,57.3001,0.001939
49.826,57.3001,0.001939
49.842,57.3001,0.001939
49.859,57.3001,0.001939
49.874,57.3001,0.001939
49.890,57.3001,0.001939
49.907,57.3001,0.001939
49.922,57.3001,0.001939
49.938,57.3001,0.001939
49.953,57.3001,0.001939
49.971,57.3001,0.001939
49.986,57.3001,0.001939
50.002,57.3001,0.001967
50.018,57.3001,0.001967
50.035,57.3001,0.001967
50.050,57.3001,0.001967
50.066,57.3001,0.001967
50.096,57.3001,0.001967
50.111,57.3001,0.001967
50.128,57.3001,0.001967
50.143,57.3001,0.001967
50.160,57.3001,0.001967
50.176,57.3001,0.001967
50.203,57.3001,0.001967
50.223,57.3001,0.001967
50.239,57.3001,0.001967
50.255,57.3001,0.001939
50.271,57.3001,0.001939
50.287,57.3001,0.001939
50.303,57.3001,0.001939
50.319,57.3001,0.001939
50.335,57.3001,0.001939
50.351,57.3001,0.001939
50.367,57.3001,0.001939
50.383,57.3001,0.001939
50.399,57.3001,0.001939
50.415,57.3001,0.001939
50.431,57.3001,0.001939
50.447,57.3001,0.001939
50.463,57.3001,0.001939
50.479,57.3001,0.001939
50.495,57.3001,0.001939
50.511,57.3001,0.001873
50.527,57.3001,0.001873
50.543,57.3001,0.001873
50.559,57.3001,0.001873
50.576,57.3001,0.001873
50.591,57.3001,0.001873
50.607,57.3001,0.001873
50.634,57.3001,0.001873
50.650,57.3001,0.001873
50.665,57.3001,0.001873
50.681,57.3001,0.001873
50.703,57.3001,0.001873
50.726,57.3001,0.001873
50.746,57.3001,0.001873
50.762,57.3001,0.001873
50.778,57.3001,0.001873
50.793,57.3001,0.001892
50.810,57.3001,0.001892
50.826,57.3001,0.001892
50.842,57.3001,0.001892
50.857,57.3001,0.001892
50.875,57.3001,0.001892
50.890,57.3001,0.001892
50.906,57.3001,0.001892
50.922,57.3001,0.001892
50.938,57.3001,0.001892
50.953,57.3001,0.001892
50.969,57.3001,0.001892
50.985,57.3001,0.001892
51.002,57.3001,0.001892
51.017,57.3001,0.001892
51.033,57.3001,0.001911
51.049,57.3001,0.001911
51.065,57.3001,0.001911
51.081,57.3001,0.001911
51.098,57.3001,0.001911
51.113,57.3001,0.001911
51.130,57.3001,0.001911
51.159,57.3001,0.001911
51.189,57.3001,0.001911
51.204,57.3001,0.001911
51.220,57.3001,0.001911
51.236,57.3001,0.001911
51.256,57.3001,0.001911
51.284,57.3001,0.001873
51.300,57.3001,0.001873
51.316,57.3001,0.001873
51.333,57.3001,0.001873
51.348,57.3001,0.001873
51.365,57.3001,0.001873
51.385,57.3001,0.001873
51.407,57.3001,0.001873
51.428,57.3001,0.001873
51.445,57.3001,0.001873
51.460,57.3001,0.001873
51.477,57.3001,0.001873
51.493,57.3001,0.001873
51.509,57.3001,0.001873
51.525,57.3001,0.001873
51.546,57.3001,0.001854
51.562,57.3001,0.001854
51.592,57.3001,0.001854
51.608,57.3001,0.001854
51.624,57.3001,0.001854
51.655,57.3001,0.001854
51.686,57.3001,0.001854
51.701,57.3001,0.001854
51.716,57.3001,0.001854
51.747,57.3001,0.001854
51.764,57.3001,0.001854
51.794,57.3001,0.001864
51.810,57.3001,0.001864
51.826,57.3001,0.001864
51.842,57.3001,0.001864
51.858,57.3001,0.001864
51.880,57.3001,0.001864
51.903,57.3001,0.001864
51.922,57.3001,0.001864
51.940,57.3001,0.001864
51.965,57.3001,0.001864
51.995,57.3001,0.001864
52.026,57.3001,0.001864
52.057,57.3001,0.001836
52.088,57.3001,0.001836
52.119,57.3001,0.001836
52.134,57.3001,0.001836
52.150,57.3001,0.001836
52.181,57.3001,0.001836
52.201,57.3001,0.001836
52.227,57.3001,0.001836
52.244,57.3001,0.001836
52.274,57.3001,0.001836
52.302,57.3001,0.001789
52.319,57.3001,0.001789
52.336,57.3001,0.001789
52.368,57.3001,0.001789
52.398,57.3001,0.001789
52.414,57.3001,0.001789
52.438,57.3001,0.001789
52.459,57.3001,0.001789
52.478,57.3001,0.001789
52.494,57.3001,0.001789
52.510,57.3001,0.001789
52.526,57.3001,0.001666
52.542,57.3001,0.001666
52.558,57.3001,0.001666
52.574,57.3001,0.001666
52.590,57.3001,0.001666
52.606,57.3001,0.001666
52.624,57.3001,0.001666
52.646,57.3001,0.001666
52.676,57.3001,0.001666
52.692,57.2998,0.001666
52.723,57.2990,0.001666
52.754,57.2972,0.001666
52.769,57.2962,0.001544
52.785,57.2949,0.001544
52.816,57.2918,0.001544
52.847,57.2880,0.001544
52.878,57.2836,0.001544
52.894,57.2808,0.001544
52.910,57.2781,0.001544
52.926,57.2749,0.001544
52.942,57.2717,0.001544
52.958,57.2683,0.001544
52.975,57.2646,0.001544
52.995,57.2595,0.001544
53.017,57.2538,0.002937
53.038,57.2485,0.002937
53.054,57.2438,0.002937
53.070,57.2390,0.002937
53.086,57.2343,0.002937
53.102,57.2291,0.002937
53.118,57.2235,0.002937
53.134,57.2180,0.002937
53.150,57.2125,0.002937
53.166,57.2066,0.002937
53.183,57.2000,0.002937
53.202,57.1923,0.002937
53.218,57.1860,0.002937
53.248,57.1729,0.002937
53.279,57.1592,0.006213
53.296,57.1509,0.006213
53.324,57.1373,0.006213
53.342,57.1285,0.006213
53.358,57.1202,0.006213
53.388,57.1042,0.006213
53.404,57.0956,0.006213
53.419,57.0867,0.006213
53.436,57.0773,0.006213
53.452,57.0678,0.006213
53.468,57.0582,0.006213
53.484,57.0487,0.006213
53.500,57.0380,0.006213
53.517,57.0268,0.006213
53.538,57.0136,0.006213
53.569,56.9929,0.005573
53.588,56.9797,0.005573
53.616,56.9604,0.005573
53.631,56.9495,0.005573
53.663,56.9260,0.005573
53.693,56.9032,0.005573
53.708,56.8912,0.005573
53.723,56.8785,0.005573
53.740,56.8654,0.005573
53.756,56.8528,0.005573
53.772,56.8394,0.005573
53.787,56.8263,0.002626
53.804,56.8124,0.002626
53.821,56.7978,0.002626
53.848,56.7735,0.002626
53.868,56.7559,0.002626
53.883,56.7415,0.002626
53.900,56.7261,0.002626
53.916,56.7113,0.002626
53.939,56.6881,0.002626
53.956,56.6723,0.002626
53.972,56.6570,0.002626
53.987,56.6419,0.002626
54.004,56.6251,0.002626
54.020,56.6081,0.002626
54.035,56.5930,0.002193
54.052,56.5761,0.002193
54.068,56.5587,0.002193
54.083,56.5425,0.002193
54.100,56.5247,0.002193
54.115,56.5078,0.002193
54.132,56.4891,0.002193
54.147,56.4727,0.002193
54.163,56.4546,0.002193
54.180,56.4346,0.002193
54.196,56.4168,0.002193
54.211,56.3994,0.002193
54.227,56.3808,0.002193
54.243,56.3618,0.002193
54.259,56.3425,0.002193
54.276,56.3226,0.002250
54.291,56.3035,0.002250
54.307,56.2837,0.002250
54.325,56.2620,0.002250
54.344,56.2367,0.002250
54.376,56.1971,0.002250
54.392,56.1762,0.002250
54.422,56.1367,0.002250
54.452,56.0956,0.002250
54.483,56.0545,0.002250
54.500,56.0316,0.002250
54.516,56.0082,0.002250
54.531,55.9872,0.002325
54.547,55.9646,0.002325
54.564,55.9398,0.002325
54.579,55.9184,0.002325
54.595,55.8949,0.002325
54.611,55.8719,0.002325
54.628,55.8471,0.002325
54.643,55.8244,0.002325
54.660,55.7990,0.002325
54.676,55.7757,0.002325
54.692,55.7509,0.002325
54.708,55.7266,0.002325
54.723,55.7028,0.002325
54.739,55.6777,0.002325
54.756,55.6513,0.002325
54.771,55.6265,0.002344
54.787,55.6018,0.002344
54.803,55.5753,0.002344
54.820,55.5487,0.002344
54.836,55.5227,0.002344
54.851,55.4973,0.002344
54.868,55.4690,0.002344
54.883,55.4433,0.002344
54.899,55.4164,0.002344
54.915,55.3902,0.002344
54.933,55.3576,0.002344
54.963,55.3079,0.002344
54.979,55.2791,0.002344
54.995,55.2498,0.002344
55.018,55.2109,0.002419
55.034,55.1822,0.002419
55.050,55.1536,0.002419
55.066,55.1244,0.002419
55.082,55.0943,0.002419
55.098,55.0665,0.002419
55.114,55.0366,0.002419
55.130,55.0071,0.002419
55.147,54.9762,0.002419
55.162,54.9472,0.002419
55.178,54.9158,0.002419
55.196,54.8835,0.002419
55.225,54.8267,0.002419
55.242,54.7937,0.002419
55.261,54.7541,0.002419
55.286,54.7060,0.002560
55.306,54.6668,0.002560
55.322,54.6334,0.002560
55.338,54.6034,0.002560
55.354,54.5685,0.002560
55.370,54.5373,0.002560
55.386,54.5043,0.002560
55.403,54.4700,0.002560
55.418,54.4387,0.002560
55.434,54.4051,0.002560
55.450,54.3713,0.002560
55.466,54.3362,0.002560
55.482,54.3050,0.002560
55.498,54.2696,0.002560
55.514,54.2352,0.002560
55.530,54.2023,0.002560
55.546,54.1682,0.002560
55.567,54.1242,0.002655
55.584,54.0897,0.002655
55.613,54.0299,0.002655
55.631,53.9922,0.002655
55.647,53.9596,0.002655
55.663,53.9279,0.002655
55.679,53.8951,0.002655
55.695,53.8629,0.002655
55.711,53.8319,0.002655
55.727,53.8000,0.002655
55.743,53.7694,0.002655
55.759,53.7361,0.002655
55.775,53.7067,0.002655
55.791,53.6766,0.002683
55.807,53.6452,0.002683
55.823,53.6141,0.002683
55.839,53.5856,0.002683
55.855,53.5552,0.002683
55.871,53.5249,0.002683
55.887,53.4952,0.002683
55.903,53.4670,0.002683
55.919,53.4376,0.002683
55.936,53.4062,0.002683
55.951,53.3792,0.002683
55.967,53.3509,0.002683
55.983,53.3225,0.002683
55.999,53.2932,0.002683
56.015,53.2662,0.002683
56.031,53.2385,0.002786
56.047,53.2105,0.002786
56.065,53.1801,0.002786
56.092,53.1333,0.002786
56.122,53.0839,0.002786
56.138,53.0572,0.002786
56.153,53.0306,0.002786
56.184,52.9806,0.002786
56.201,52.9547,0.002786
56.217,52.9289,0.002786
56.233,52.9034,0.002786
56.252,52.8734,0.002786
56.277,52.8335,0.002937
56.297,52.8040,0.002937
56.313,52.7788,0.002937
56.329,52.7539,0.002937
56.345,52.7310,0.002937
56.361,52.7067,0.002937
56.377,52.6829,0.002937
56.393,52.6596,0.002937
56.409,52.6370,0.002937
56.425,52.6138,0.002937
56.441,52.5900,0.002937
56.457,52.5672,0.002937
56.473,52.5459,0.002937
56.489,52.5228,0.002937
56.505,52.5005,0.002937
56.521,52.4792,0.003106
56.536,52.4579,0.003106
56.554,52.4340,0.003106
56.569,52.4140,0.003106
56.589,52.3884,0.003106
56.619,52.3491,0.003106
56.650,52.3087,0.003106
56.678,52.2741,0.003106
56.695,52.2531,0.003106
56.711,52.2327,0.003106
56.742,52.1946,0.003106
56.764,52.1692,0.003106
56.788,52.1421,0.003313
56.805,52.1215,0.003313
56.822,52.1029,0.003313
56.838,52.0843,0.003313
56.854,52.0673,0.003313
56.870,52.0490,0.003313
56.885,52.0319,0.003313
56.902,52.0143,0.003313
56.917,51.9976,0.003313
56.933,51.9807,0.003313
56.950,51.9632,0.003313
56.965,51.9476,0.003313
56.981,51.9311,0.003313
56.997,51.9151,0.003313
57.013,51.8990,0.003417
57.030,51.8828,0.003417
57.046,51.8673,0.003417
57.061,51.8521,0.003417
57.077,51.8372,0.003417
57.093,51.8222,0.003417
57.110,51.8069,0.003417
57.126,51.7923,0.003417
57.141,51.7783,0.003417
57.157,51.7642,0.003417
57.173,51.7495,0.003417
57.190,51.7354,0.003417
57.205,51.7227,0.003417
57.232,51.6994,0.003417
57.249,51.6866,0.003417
57.264,51.6742,0.003492
57.280,51.6613,0.003492
57.297,51.6479,0.003492
57.313,51.6359,0.003492
57.329,51.6243,0.003492
57.344,51.6119,0.003492
57.366,51.5962,0.003492
57.388,51.5801,0.003492
57.408,51.5667,0.003492
57.426,51.5544,0.003492
57.451,51.5374,0.003492
57.472,51.5239,0.003492
57.489,51.5129,0.003492
57.504,51.5037,0.003492
57.520,51.4939,0.003586
57.536,51.4841,0.003586
57.553,51.4743,0.003586
57.568,51.4656,0.003586
57.584,51.4565,0.003586
57.600,51.4475,0.003586
57.617,51.4387,0.003586
57.632,51.4305,0.003586
57.648,51.4221,0.003586
57.664,51.4142,0.003586
57.680,51.4064,0.003586
57.697,51.3985,0.003586
57.713,51.3910,0.003586
57.728,51.3839,0.003586
57.745,51.3765,0.003586
57.761,51.3696,0.003586
57.792,51.3569,0.003718
57.808,51.3503,0.003718
57.824,51.3443,0.003718
57.854,51.3329,0.003718
57.872,51.3270,0.003718
57.901,51.3174,0.003718
57.918,51.3120,0.003718
57.935,51.3071,0.003718
57.951,51.3023,0.003718
57.979,51.2949,0.003718
57.999,51.2899,0.003718
58.015,51.2859,0.003822
58.041,51.2802,0.003822
58.071,51.2740,0.003822
58.102,51.2686,0.003822
58.133,51.2637,0.003822
58.149,51.2615,0.003822
58.164,51.2596,0.003822
58.195,51.2563,0.003822
58.227,51.2536,0.003822
58.243,51.2526,0.003822
58.258,51.2517,0.003822
58.273,51.2509,0.003869
58.289,51.2505,0.003869
58.320,51.2501,0.003869
58.349,51.2501,0.003869
58.366,51.2501,0.003869
58.397,51.2501,0.003869
58.419,51.2501,0.003869
58.444,51.2501,0.003869
58.461,51.2501,0.003869
58.478,51.2501,0.003869
58.508,51.2507,0.003963
58.525,51.2513,0.003963
58.543,51.2523,0.003963
58.570,51.2540,0.003963
58.589,51.2557,0.003963
58.605,51.2573,0.003963
58.621,51.2590,0.003963
58.637,51.2610,0.003963
58.653,51.2631,0.003963
58.670,51.2657,0.003963
58.695,51.2699,0.003963
58.717,51.2736,0.003963
58.733,51.2767,0.003963
58.749,51.2802,0.003963
58.765,51.2836,0.003897
58.781,51.2875,0.003897
58.797,51.2914,0.003897
58.813,51.2952,0.003897
58.829,51.2996,0.003897
58.845,51.3042,0.003897
58.871,51.3117,0.003897
58.887,51.3168,0.003897
58.903,51.3221,0.003897
58.920,51.3277,0.003897
58.941,51.3354,0.003897
58.972,51.3466,0.003897
58.988,51.3529,0.003897
59.018,51.3649,0.003812
59.035,51.3721,0.003812
59.065,51.3858,0.003812
59.081,51.3928,0.003812
59.111,51.4073,0.003812
59.127,51.4148,0.003812
59.143,51.4230,0.003812
59.159,51.4314,0.003812
59.175,51.4397,0.003812
59.191,51.4481,0.003812
59.207,51.4570,0.003812
59.224,51.4667,0.003812
59.250,51.4820,0.003841
59.271,51.4950,0.003841
59.288,51.5056,0.003841
59.312,51.5206,0.003841
59.328,51.5306,0.003841
59.360,51.5515,0.003841
59.389,51.5714,0.003841
59.410,51.5863,0.003841
59.425,51.5977,0.003841
59.441,51.6094,0.003841
59.458,51.6213,0.003841
59.474,51.6337,0.003841
59.490,51.6460,0.003841
59.505,51.6581,0.003709
59.521,51.6708,0.003709
59.537,51.6839,0.003709
59.553,51.6966,0.003709
59.570,51.7102,0.003709
59.586,51.7237,0.003709
59.601,51.7371,0.003709
59.617,51.7509,0.003709
59.633,51.7649,0.003709
59.649,51.7790,0.003709
59.666,51.7939,0.003709
59.682,51.8087,0.003709
59.698,51.8237,0.003709
59.714,51.8380,0.003709
59.729,51.8535,0.003709
59.745,51.8687,0.003709
59.762,51.8843,0.003539
59.778,51.9006,0.003539
59.794,51.9162,0.003539
59.809,51.9320,0.003539
59.825,51.9483,0.003539
59.841,51.9652,0.003539
59.858,51.9817,0.003539
59.874,51.9997,0.003539
59.891,52.0190,0.003539
59.916,52.0447,0.003539
59.944,52.0763,0.003539
59.976,52.1122,0.003539
60.006,52.1469,0.003539
60.036,52.1824,0.003436
60.052,52.2008,0.003436
60.082,52.2374,0.003436
60.098,52.2569,0.003436
60.113,52.2758,0.003436
60.130,52.2971,0.003436
60.148,52.3197,0.003436
60.165,52.3412,0.003436
60.191,52.3753,0.003436
60.210,52.4002,0.003436
60.226,52.4209,0.003436
60.241,52.4415,0.003436
60.257,52.4632,0.003323
60.274,52.4855,0.003323
60.290,52.5074,0.003323
60.305,52.5286,0.003323
60.322,52.5517,0.003323
60.338,52.5755,0.003323
60.354,52.5970,0.003323
60.369,52.6192,0.003323
60.386,52.6439,0.003323
60.402,52.6670,0.003323
60.424,52.6993,0.003323
60.440,52.7242,0.003323
60.470,52.7702,0.003323
60.501,52.8172,0.003323
60.523,52.8495,0.003163
60.547,52.8877,0.003163
60.563,52.9127,0.003163
60.594,52.9615,0.003163
60.609,52.9864,0.003163
60.640,53.0376,0.003163
60.670,53.0869,0.003163
60.685,53.1125,0.003163
60.716,53.1649,0.003163
60.747,53.2182,0.003163
60.778,53.2719,0.003163
60.794,53.2994,0.003040
60.809,53.3256,0.003040
60.827,53.3570,0.003040
60.855,53.4095,0.003040
60.873,53.4410,0.003040
60.890,53.4706,0.003040
60.905,53.4992,0.003040
60.921,53.5293,0.003040
60.938,53.5611,0.003040
60.954,53.5914,0.003040
60.970,53.6214,0.003040
60.995,53.6702,0.003040
61.018,53.7132,0.003040
61.033,53.7425,0.003040
61.049,53.7728,0.003040
61.073,53.8208,0.002871
61.089,53.8525,0.002871
61.119,53.9109,0.002871
61.136,53.9482,0.002871
61.152,53.9790,0.002871
61.168,54.0112,0.002871
61.184,54.0461,0.002871
61.205,54.0910,0.002871
61.229,54.1376,0.002871
61.248,54.1764,0.002871
61.267,54.2197,0.002871
61.290,54.2671,0.002871
61.322,54.3328,0.002711
61.338,54.3678,0.002711
61.360,54.4123,0.002711
61.377,54.4474,0.002711
61.393,54.4808,0.002711
61.415,54.5273,0.002711
61.431,54.5578,0.002711
61.447,54.5918,0.002711
61.478,54.6517,0.002711
61.493,54.6827,0.002711
61.509,54.7146,0.002711
61.540,54.7740,0.002673
61.571,54.8340,0.002673
61.596,54.8817,0.002673
61.617,54.9212,0.002673
61.633,54.9518,0.002673
61.665,55.0090,0.002673
61.680,55.0376,0.002673
61.711,55.0942,0.002673
61.741,55.1474,0.002673
61.771,55.2022,0.002673
61.787,55.2288,0.002664
61.803,55.2559,0.002664
61.821,55.2890,0.002664
61.849,55.3358,0.002664
61.867,55.3658,0.002664
61.883,55.3933,0.002664
61.899,55.4204,0.002664
61.915,55.4473,0.002664
61.931,55.4721,0.002664
61.947,55.4999,0.002664
61.963,55.5254,0.002664
61.979,55.5506,0.002664
61.995,55.5755,0.002664
62.012,55.6031,0.002664
62.027,55.6266,0.002532
62.043,55.6512,0.002532
62.059,55.6764,0.002532
62.075,55.7019,0.002532
62.091,55.7250,0.002532
62.107,55.7498,0.002532
62.137,55.7939,0.002532
62.159,55.8270,0.002532
62.176,55.8514,0.002532
62.198,55.8862,0.002532
62.221,55.9171,0.002532
62.240,55.9435,0.002532
62.256,55.9662,0.002532
62.271,55.9880,0.002532
62.287,56.0097,0.002306
62.304,56.0319,0.002306
62.320,56.0540,0.002306
62.336,56.0752,0.002306
62.351,56.0954,0.002306
62.367,56.1165,0.002306
62.386,56.1427,0.002306
62.406,56.1674,0.002306
62.437,56.2056,0.002306
62.452,56.2259,0.002306
62.467,56.2439,0.002306
62.483,56.2630,0.002306
62.514,56.3008,0.002306
62.544,56.3362,0.002203
62.561,56.3560,0.002203
62.589,56.3890,0.002203
62.608,56.4096,0.002203
62.624,56.4279,0.002203
62.639,56.4449,0.002203
62.655,56.4625,0.002203
62.680,56.4887,0.002203
62.696,56.5062,0.002203
62.711,56.5223,0.002203
62.728,56.5402,0.002203
62.751,56.5639,0.002203
62.773,56.5857,0.002203
62.792,56.6047,0.002146
62.808,56.6200,0.002146
62.823,56.6354,0.002146
62.840,56.6511,0.002146
62.855,56.6654,0.002146
62.874,56.6843,0.002146
62.897,56.7041,0.002146
62.928,56.7319,0.002146
62.959,56.7592,0.002146
62.990,56.7854,0.002146
63.006,56.7991,0.002146
63.036,56.8233,0.002014
63.052,56.8365,0.002014
63.067,56.8483,0.002014
63.083,56.8600,0.002014
63.114,56.8835,0.002014
63.144,56.9059,0.002014
63.174,56.9274,0.002014
63.203,56.9466,0.002014
63.218,56.9575,0.002014
63.234,56.9677,0.002014
63.251,56.9784,0.002014
63.267,56.9889,0.002014
63.282,56.9981,0.002005
63.299,57.0087,0.002005
63.315,57.0180,0.002005
63.330,57.0268,0.002005
63.346,57.0361,0.002005
63.368,57.0490,0.002005
63.391,57.0608,0.002005
63.410,57.0709,0.002005
63.426,57.0793,0.002005
63.442,57.0874,0.002005
63.459,57.0957,0.002005
63.474,57.1029,0.002005
63.491,57.1104,0.002005
63.506,57.1175,0.002005
63.522,57.1245,0.001939
63.538,57.1316,0.001939
63.555,57.1385,0.001939
63.576,57.1469,0.001939
63.592,57.1531,0.001939
63.623,57.1649,0.001939
63.653,57.1751,0.001939
63.687,57.1866,0.001939
63.715,57.1945,0.001939
63.744,57.2028,0.001939
63.760,57.2069,0.001939
63.776,57.2109,0.001676
63.792,57.2146,0.001676
63.809,57.2185,0.001676
63.824,57.2217,0.001676
63.841,57.2253,0.001676
63.869,57.2301,0.001676
63.888,57.2335,0.001676
63.905,57.2361,0.001676
63.921,57.2382,0.001676
63.937,57.2403,0.001676
63.952,57.2420,0.001676
63.968,57.2436,0.001676
63.984,57.2452,0.001676
64.000,57.2465,0.001676
64.016,57.2475,0.001676
64.032,57.2485,0.001243
64.048,57.2491,0.001243
64.065,57.2497,0.001243
64.085,57.2501,0.001243
64.116,57.2501,0.001243
64.132,57.2501,0.001243
64.163,57.2501,0.001243
64.194,57.2501,0.001243
64.209,57.2501,0.001243
64.224,57.2501,0.001243
64.240,57.2501,0.001243
64.256,57.2501,0.001243
64.272,57.2501,0.001243
64.299,57.2501,0.001177
64.315,57.2501,0.001177
64.331,57.2501,0.001177
64.347,57.2501,0.001177
64.368,57.2501,0.001177
64.392,57.2501,0.001177
64.411,57.2501,0.001177
64.427,57.2501,0.001177
64.443,57.2501,0.001177
64.459,57.2501,0.001177
64.475,57.2501,0.001177
64.492,57.2501,0.001177
64.507,57.2501,0.001177
64.523,57.2501,0.001544
64.539,57.2501,0.001544
64.555,57.2501,0.001544
64.571,57.2501,0.001544
64.587,57.2501,0.001544
64.603,57.2501,0.001544
64.619,57.2501,0.001544
64.635,57.2501,0.001544
64.651,57.2501,0.001544
64.667,57.2501,0.001544
64.684,57.2501,0.001544
64.699,57.2501,0.001544
64.715,57.2501,0.001544
64.732,57.2501,0.001544
64.748,57.2501,0.001544
64.763,57.2501,0.001770
64.779,57.2501,0.001770
64.797,57.2501,0.001770
64.825,57.2501,0.001770
64.855,57.2501,0.001770
64.871,57.2501,0.001770
64.887,57.2501,0.001770
64.903,57.2501,0.001770
64.920,57.2501,0.001770
64.948,57.2501,0.001770
64.967,57.2501,0.001770
64.983,57.2501,0.001770
64.999,57.2501,0.001770
65.016,57.2501,0.001798
65.031,57.2501,0.001798
65.047,57.2501,0.001798
65.064,57.2501,0.001798
65.087,57.2501,0.001798
65.103,57.2501,0.001798
65.119,57.2501,0.001798
65.149,57.2501,0.001798
65.165,57.2501,0.001798
65.196,57.2501,0.001798
65.227,57.2501,0.001798
65.258,57.2501,0.001845
65.289,57.2501,0.001845
65.305,57.2501,0.001845
65.321,57.2501,0.001845
65.337,57.2501,0.001845
65.368,57.2501,0.001845
65.398,57.2501,0.001845
65.415,57.2501,0.001845
65.431,57.2501,0.001845
65.446,57.2501,0.001845
65.462,57.2501,0.001845
65.480,57.2501,0.001845
65.507,57.2501,0.001911
65.527,57.2501,0.001911
65.542,57.2501,0.001911
65.558,57.2501,0.001911
65.575,57.2501,0.001911
65.591,57.2501,0.001911
65.607,57.2501,0.001911
65.623,57.2501,0.001911
65.638,57.2501,0.001911
65.654,57.2501,0.001911
65.671,57.2501,0.001911
65.686,57.2501,0.001911
65.702,57.2501,0.001911
65.718,57.2501,0.001911
65.736,57.2501,0.001911
65.756,57.2501,0.001911
65.771,57.2501,0.001873
65.802,57.2501,0.001873
65.833,57.2501,0.001873
65.863,57.2501,0.001873
65.894,57.2501,0.001873
65.910,57.2501,0.001873
65.933,57.2501,0.001873
65.950,57.2501,0.001873
65.966,57.2501,0.001873
65.982,57.2501,0.001873
65.999,57.2501,0.001873
66.018,57.2501,0.001864
66.050,57.2501,0.001864
66.081,57.2501,0.001864
66.096,57.2501,0.001864
66.112,57.2501,0.001864
66.143,57.2501,0.001864
66.173,57.2501,0.001864
66.190,57.2501,0.001864
66.206,57.2501,0.001864
66.221,57.2501,0.001864
66.240,57.2501,0.001864
66.265,57.2501,0.001873
66.285,57.2501,0.001873
66.303,57.2501,0.001873
66.327,57.2501,0.001873
66.357,57.2501,0.001873
66.373,57.2501,0.001873
66.404,57.2501,0.001873
66.434,57.2501,0.001873
66.464,57.2501,0.001873
66.480,57.2501,0.001873
66.510,57.2501,0.001826
66.525,57.2501,0.001826
66.542,57.2501,0.001826
66.557,57.2501,0.001826
66.573,57.2501,0.001826
66.589,57.2501,0.001826
66.608,57.2501,0.001826
66.633,57.2501,0.001826
66.653,57.2501,0.001826
66.673,57.2501,0.001826
66.696,57.2501,0.001826
66.712,57.2501,0.001826
66.735,57.2501,0.001826
66.758,57.2501,0.001826
66.790,57.2501,0.001854
66.805,57.2501,0.001854
66.821,57.2501,0.001854
66.837,57.2501,0.001854
66.868,57.2501,0.001854
66.883,57.2501,0.001854
66.914,57.2501,0.001854
66.931,57.2501,0.001854
66.961,57.2501,0.001854
66.991,57.2501,0.001854
67.006,57.2501,0.001854
67.036,57.2501,0.001901
67.052,57.2501,0.001901
67.068,57.2501,0.001901
67.084,57.2501,0.001901
67.101,57.2501,0.001901
67.130,57.2501,0.001901
67.148,57.2501,0.001901
67.171,57.2501,0.001901
67.193,57.2501,0.001901
67.212,57.2501,0.001901
67.228,57.2501,0.001901
67.244,57.2501,0.001901
67.260,57.2501,0.001892
67.276,57.2501,0.001892
67.292,57.2501,0.001892
67.308,57.2501,0.001892
67.324,57.2501,0.001892
67.340,57.2501,0.001892
67.356,57.2501,0.001892
67.373,57.2501,0.001892
67.396,57.2501,0.001892
67.411,57.2501,0.001892
67.427,57.2501,0.001892
67.442,57.2501,0.001892
67.473,57.2501,0.001892
67.504,57.2501,0.001892
67.535,57.2501,0.001901
67.558,57.2501,0.001901
67.574,57.2501,0.001901
67.590,57.2501,0.001901
67.607,57.2501,0.001901
67.622,57.2501,0.001901
67.637,57.2501,0.001901
67.655,57.2501,0.001901
67.670,57.2501,0.001901
67.686,57.2501,0.001901
67.702,57.2501,0.001901
67.718,57.2501,0.001901
67.734,57.2501,0.001901
67.750,57.2501,0.001901
67.766,57.2501,0.001911
67.784,57.2501,0.001911
67.814,57.2501,0.001911
67.830,57.2501,0.001911
67.846,57.2501,0.001911
67.862,57.2501,0.001911
67.878,57.2501,0.001911
67.894,57.2501,0.001911
67.910,57.2501,0.001911
67.926,57.2501,0.001911
67.942,57.2501,0.001911
67.958,57.2501,0.001911
67.975,57.2501,0.001911
68.000,57.2501,0.001854
68.022,57.2501,0.001854
68.039,57.2501,0.001854
68.061,57.2501,0.001854
68.076,57.2501,0.001854
68.099,57.2501,0.001854
68.114,57.2501,0.001854
68.131,57.2501,0.001854
68.154,57.2501,0.001854
68.184,57.2501,0.001854
68.199,57.2501,0.001854
68.230,57.2501,0.001854
68.261,57.2501,0.001807
68.276,57.2501,0.001807
68.307,57.2501,0.001807
68.323,57.2501,0.001807
68.339,57.2501,0.001807
68.369,57.2501,0.001807
68.385,57.2501,0.001807
68.401,57.2501,0.001807
68.418,57.2501,0.001807
68.433,57.2501,0.001807
68.450,57.2501,0.001807
68.466,57.2501,0.001807
68.481,57.2501,0.001807
68.498,57.2501,0.001807
68.514,57.2501,0.001704
68.529,57.2501,0.001704
68.546,57.2501,0.001704
68.562,57.2501,0.001704
68.579,57.2501,0.001704
68.600,57.2501,0.001704
68.616,57.2501,0.001704
68.641,57.2501,0.001704
68.656,57.2501,0.001704
68.672,57.2501,0.001704
68.687,57.2501,0.001704
68.704,57.2501,0.001704
68.719,57.2501,0.001704
68.735,57.2501,0.001704
68.752,57.2501,0.001704
68.769,57.2500,0.001591
68.787,57.2497,0.001591
68.803,57.2492,0.001591
68.834,57.2477,0.001591
68.859,57.2460,0.001591
68.879,57.2443,0.001591
68.895,57.2426,0.001591
68.912,57.2408,0.001591
68.929,57.2387,0.001591
68.951,57.2356,0.001591
68.974,57.2320,0.001591
68.991,57.2290,0.001591
69.007,57.2260,0.002193
69.024,57.2226,0.002193
69.040,57.2195,0.002193
69.055,57.2161,0.002193
69.071,57.2123,0.002193
69.088,57.2080,0.002193
69.105,57.2040,0.002193
69.129,57.1970,0.002193
69.151,57.1907,0.002193
69.167,57.1858,0.002193
69.184,57.1806,0.002193
69.199,57.1755,0.002193
69.216,57.1697,0.002193
69.232,57.1643,0.002193
69.247,57.1587,0.002193
69.263,57.1524,0.005121
69.279,57.1463,0.005121
69.296,57.1397,0.005121
69.311,57.1329,0.005121
69.328,57.1258,0.005121
69.343,57.1194,0.005121
69.361,57.1114,0.005121
69.377,57.1040,0.005121
69.392,57.0964,0.005121
69.407,57.0892,0.005121
69.423,57.0814,0.005121
69.439,57.0730,0.005121
69.455,57.0648,0.005121
69.471,57.0559,0.005121
69.487,57.0474,0.005121
69.503,57.0383,0.005121
69.519,57.0293,0.005121
69.535,57.0200,0.005121
69.551,57.0103,0.006815
69.567,57.0006,0.006815
69.584,56.9901,0.006815
69.599,56.9803,0.006815
69.615,56.9699,0.006815
69.631,56.9600,0.006815
69.648,56.9481,0.006815
69.665,56.9373,0.006815
69.686,56.9220,0.006815
69.710,56.9049,0.006815
69.726,56.8935,0.006815
69.743,56.8810,0.006815
69.758,56.8698,0.006815
69.775,56.8567,0.006815
69.795,56.8409,0.004161
69.810,56.8288,0.004161
69.827,56.8159,0.004161
69.857,56.7900,0.004161
69.888,56.7645,0.004161
69.905,56.7503,0.004161
69.936,56.7224,0.004161
69.966,56.6950,0.004161
69.982,56.6807,0.004161
69.998,56.6659,0.004161
70.014,56.6506,0.004161
70.031,56.6339,0.004161
70.060,56.6060,0.002174
70.079,56.5873,0.002174
70.107,56.5584,0.002174
70.126,56.5393,0.002174
70.143,56.5211,0.002174
70.168,56.4944,0.002174
70.190,56.4710,0.002174
70.207,56.4522,0.002174
70.231,56.4261,0.002174
70.261,56.3910,0.002174
70.292,56.3553,0.002193
70.324,56.3187,0.002193
70.354,56.2818,0.002193
70.385,56.2454,0.002193
70.415,56.2074,0.002193
70.431,56.1872,0.002193
70.446,56.1685,0.002193
70.462,56.1481,0.002193
70.478,56.1277,0.002193
70.494,56.1050,0.002193
70.510,56.0855,0.002193
70.526,56.0636,0.002203
70.542,56.0426,0.002203
70.560,56.0169,0.002203
70.586,55.9806,0.002203
70.606,55.9544,0.002203
70.622,55.9316,0.002203
70.638,55.9093,0.002203
70.655,55.8843,0.002203
70.671,55.8609,0.002203
70.687,55.8370,0.002203
70.703,55.8148,0.002203
70.718,55.7926,0.002203
70.734,55.7688,0.002203
70.751,55.7421,0.002203
70.773,55.7088,0.002203
70.789,55.6838,0.002203
70.809,55.6546,0.002287
70.824,55.6293,0.002287
70.841,55.6040,0.002287
70.857,55.5786,0.002287
70.874,55.5513,0.002287
70.898,55.5120,0.002287
70.931,55.4581,0.002287
70.953,55.4221,0.002287
70.968,55.3966,0.002287
70.985,55.3693,0.002287
71.001,55.3419,0.002287
71.017,55.3127,0.002287
71.033,55.2865,0.002382
71.049,55.2583,0.002382
71.066,55.2295,0.002382
71.084,55.1982,0.002382
71.114,55.1426,0.002382
71.145,55.0882,0.002382
71.161,55.0601,0.002382
71.177,55.0297,0.002382
71.192,55.0023,0.002382
71.209,54.9717,0.002382
71.224,54.9431,0.002382
71.243,54.9073,0.002382
71.269,54.8567,0.002447
71.289,54.8208,0.002447
71.305,54.7902,0.002447
71.321,54.7587,0.002447
71.337,54.7273,0.002447
71.361,54.6809,0.002447
71.378,54.6473,0.002447
71.408,54.5872,0.002447
71.425,54.5522,0.002447
71.455,54.4924,0.002447
71.473,54.4556,0.002447
71.489,54.4217,0.002447
71.505,54.3894,0.002447
71.520,54.3567,0.002579
71.536,54.3225,0.002579
71.553,54.2869,0.002579
71.578,54.2337,0.002579
71.609,54.1687,0.002579
71.625,54.1344,0.002579
71.656,54.0705,0.002579
71.687,54.0063,0.002579
71.717,53.9439,0.002579
71.748,53.8811,0.002579
71.764,53.8484,0.002636
71.779,53.8186,0.002636
71.796,53.7845,0.002636
71.826,53.7245,0.002636
71.841,53.6964,0.002636
71.873,53.6354,0.002636
71.888,53.6059,0.002636
71.918,53.5503,0.002636
71.948,53.4933,0.002636
71.965,53.4629,0.002636
71.981,53.4331,0.002636
71.997,53.4035,0.002636
72.013,53.3749,0.002683
72.028,53.3464,0.002683
72.045,53.3163,0.002683
72.061,53.2869,0.002683
72.077,53.2604,0.002683
72.093,53.2306,0.002683
72.109,53.2028,0.002683
72.124,53.1764,0.002683
72.140,53.1495,0.002683
72.156,53.1215,0.002683
72.173,53.0927,0.002683
72.188,53.0674,0.002683
72.204,53.0410,0.002683
72.221,53.0117,0.002683
72.237,52.9869,0.002683
72.253,52.9614,0.002880
72.268,52.9352,0.002880
72.284,52.9094,0.002880
72.300,52.8843,0.002880
72.318,52.8563,0.002880
72.334,52.8310,0.002880
72.350,52.8057,0.002880
72.365,52.7815,0.002880
72.381,52.7572,0.002880
72.396,52.7336,0.002880
72.415,52.7056,0.002880
72.443,52.6635,0.002880
72.473,52.6184,0.002880
72.490,52.5954,0.002880
72.505,52.5727,0.003059
72.521,52.5500,0.003059
72.539,52.5248,0.003059
72.566,52.4861,0.003059
72.585,52.4596,0.003059
72.602,52.4364,0.003059
72.617,52.4165,0.003059
72.634,52.3933,0.003059
72.649,52.3731,0.003059
72.666,52.3497,0.003059
72.682,52.3303,0.003059
72.697,52.3099,0.003059
72.713,52.2890,0.003059
72.730,52.2669,0.003059
72.745,52.2478,0.003059
72.761,52.2289,0.003238
72.777,52.2084,0.003238
72.793,52.1879,0.003238
72.809,52.1698,0.003238
72.825,52.1501,0.003238
72.841,52.1311,0.003238
72.857,52.1117,0.003238
72.873,52.0939,0.003238
72.890,52.0741,0.003238
72.905,52.0571,0.003238
72.921,52.0389,0.003238
72.938,52.0198,0.003238
72.955,52.0012,0.003238
72.971,51.9832,0.003238
72.987,51.9653,0.003238
73.017,51.9346,0.003417
73.039,51.9104,0.003417
73.063,51.8855,0.003417
73.081,51.8683,0.003417
73.098,51.8497,0.003417
73.113,51.8353,0.003417
73.129,51.8206,0.003417
73.145,51.8053,0.003417
73.162,51.7891,0.003417
73.177,51.7753,0.003417
73.193,51.7604,0.003417
73.209,51.7458,0.003417
73.226,51.7288,0.003417
73.249,51.7097,0.003417
73.265,51.6958,0.003586
73.281,51.6827,0.003586
73.312,51.6564,0.003586
73.342,51.6316,0.003586
73.358,51.6186,0.003586
73.388,51.5952,0.003586
73.404,51.5830,0.003586
73.435,51.5593,0.003586
73.466,51.5372,0.003586
73.481,51.5259,0.003586
73.497,51.5151,0.003586
73.513,51.5047,0.003699
73.539,51.4866,0.003699
73.558,51.4746,0.003699
73.589,51.4552,0.003699
73.604,51.4455,0.003699
73.620,51.4360,0.003699
73.636,51.4267,0.003699
73.666,51.4090,0.003699
73.689,51.3964,0.003699
73.712,51.3840,0.003699
73.730,51.3750,0.003699
73.747,51.3664,0.003699
73.762,51.3587,0.003756
73.778,51.3513,0.003756
73.795,51.3431,0.003756
73.811,51.3357,0.003756
73.826,51.3290,0.003756
73.842,51.3216,0.003756
73.859,51.3148,0.003756
73.882,51.3056,0.003756
73.913,51.2931,0.003756
73.928,51.2877,0.003756
73.959,51.2769,0.003756
73.990,51.2668,0.003756
74.020,51.2575,0.003831
74.036,51.2527,0.003831
74.061,51.2461,0.003831
74.077,51.2418,0.003831
74.093,51.2381,0.003831
74.110,51.2341,0.003831
74.125,51.2306,0.003831
74.140,51.2275,0.003831
74.157,51.2243,0.003831
74.172,51.2214,0.003831
74.189,51.2185,0.003831
74.205,51.2160,0.003831
74.221,51.2136,0.003831
74.237,51.2114,0.003831
74.252,51.2094,0.003944
74.269,51.2077,0.003944
74.285,51.2059,0.003944
74.301,51.2046,0.003944
74.317,51.2033,0.003944
74.332,51.2023,0.003944
74.351,51.2015,0.003944
74.376,51.2005,0.003944
74.400,51.2001,0.003944
74.415,51.2001,0.003944
74.439,51.2001,0.003944
74.469,51.2001,0.003944
74.500,51.2001,0.003944
74.530,51.2001,0.004001
74.561,51.2001,0.004001
74.577,51.2001,0.004001
74.593,51.2001,0.004001
74.623,51.2005,0.004001
74.654,51.2016,0.004001
74.669,51.2025,0.004001
74.684,51.2034,0.004001
74.701,51.2046,0.004001
74.718,51.2062,0.004001
74.747,51.2093,0.004001
74.765,51.2114,0.003991
74.780,51.2136,0.003991
74.797,51.2160,0.003991
74.812,51.2186,0.003991
74.829,51.2217,0.003991
74.857,51.2268,0.003991
74.876,51.2307,0.003991
74.892,51.2345,0.003991
74.909,51.2384,0.003991
74.933,51.2443,0.003991
74.965,51.2527,0.003991
74.994,51.2616,0.003991
75.011,51.2668,0.003991
75.041,51.2764,0.003963
75.073,51.2879,0.003963
75.103,51.2991,0.003963
75.118,51.3050,0.003963
75.134,51.3116,0.003963
75.164,51.3246,0.003963
75.180,51.3312,0.003963
75.197,51.3391,0.003963
75.227,51.3528,0.003963
75.244,51.3615,0.003963
75.261,51.3695,0.003963
75.276,51.3775,0.003963
75.292,51.3860,0.003888
75.309,51.3947,0.003888
75.326,51.4042,0.003888
75.351,51.4188,0.003888
75.372,51.4309,0.003888
75.389,51.4410,0.003888
75.404,51.4500,0.003888
75.420,51.4601,0.003888
75.436,51.4702,0.003888
75.454,51.4814,0.003888
75.476,51.4961,0.003888
75.507,51.5175,0.003888
75.538,51.5387,0.003888
75.553,51.5501,0.003756
75.569,51.5622,0.003756
75.584,51.5729,0.003756
75.615,51.5967,0.003756
75.633,51.6107,0.003756
75.654,51.6276,0.003756
75.671,51.6416,0.003756
75.687,51.6541,0.003756
75.704,51.6683,0.003756
75.725,51.6860,0.003756
75.740,51.6997,0.003756
75.772,51.7278,0.003756
75.788,51.7415,0.003633
75.803,51.7555,0.003633
75.819,51.7702,0.003633
75.849,51.7989,0.003633
75.879,51.8279,0.003633
75.896,51.8453,0.003633
75.926,51.8737,0.003633
75.943,51.8919,0.003633
75.973,51.9232,0.003633
75.990,51.9406,0.003633
76.006,51.9579,0.003633
76.022,51.9751,0.003633
76.038,51.9917,0.003521
76.054,52.0094,0.003521
76.070,52.0280,0.003521
76.086,52.0452,0.003521
76.102,52.0637,0.003521
76.118,52.0818,0.003521
76.135,52.1020,0.003521
76.160,52.1315,0.003521
76.190,52.1685,0.003521
76.221,52.2048,0.003521
76.251,52.2435,0.003521
76.282,52.2820,0.003398
76.316,52.3265,0.003398
76.343,52.3621,0.003398
76.359,52.3824,0.003398
76.375,52.4041,0.003398
76.405,52.4449,0.003398
76.423,52.4694,0.003398
76.452,52.5102,0.003398
76.470,52.5358,0.003398
76.487,52.5601,0.003398
76.514,52.5991,0.003257
76.534,52.6286,0.003257
76.550,52.6534,0.003257
76.566,52.6752,0.003257
76.582,52.6990,0.003257
76.598,52.7234,0.003257
76.614,52.7480,0.003257
76.630,52.7733,0.003257
76.646,52.7994,0.003257
76.662,52.8220,0.003257
76.679,52.8492,0.003257
76.694,52.8740,0.003257
76.710,52.8984,0.003257
76.739,52.9459,0.003257
76.755,52.9726,0.003257
76.771,52.9976,0.003106
76.787,53.0252,0.003106
76.814,53.0709,0.003106
76.836,53.1070,0.003106
76.857,53.1423,0.003106
76.888,53.1949,0.003106
76.903,53.2227,0.003106
76.919,53.2511,0.003106
76.949,53.3045,0.003106
76.965,53.3332,0.003106
76.981,53.3616,0.003106
76.997,53.3892,0.003106
77.012,53.4179,0.002946
77.028,53.4475,0.002946
77.058,53.5045,0.002946
77.075,53.5352,0.002946
77.092,53.5663,0.002946
77.120,53.6204,0.002946
77.143,53.6662,0.002946
77.166,53.7095,0.002946
77.186,53.7485,0.002946
77.204,53.7836,0.002946
77.228,53.8315,0.002946
77.259,53.8941,0.002946
77.289,53.9549,0.002786
77.305,53.9869,0.002786
77.336,54.0521,0.002786
77.366,54.1147,0.002786
77.382,54.1481,0.002786
77.398,54.1829,0.002786
77.429,54.2479,0.002786
77.449,54.2885,0.002786
77.475,54.3450,0.002786
77.491,54.3784,0.002786
77.521,54.4390,0.002626
77.539,54.4744,0.002626
77.554,54.5066,0.002626
77.570,54.5386,0.002626
77.587,54.5728,0.002626
77.602,54.6021,0.002626
77.620,54.6364,0.002626
77.644,54.6857,0.002626
77.676,54.7462,0.002626
77.707,54.8050,0.002626
77.740,54.8670,0.002626
77.769,54.9229,0.002626
77.800,54.9796,0.002607
77.830,55.0342,0.002607
77.861,55.0905,0.002607
77.891,55.1447,0.002607
77.906,55.1696,0.002607
77.922,55.1994,0.002607
77.938,55.2254,0.002607
77.954,55.2529,0.002607
77.971,55.2820,0.002607
77.998,55.3277,0.002626
78.018,55.3617,0.002626
78.035,55.3892,0.002626
78.050,55.4145,0.002626
78.067,55.4419,0.002626
78.094,55.4870,0.002626
78.115,55.5185,0.002626
78.131,55.5443,0.002626
78.146,55.5686,0.002626
78.163,55.5941,0.002626
78.178,55.6192,0.002626
78.194,55.6436,0.002626
78.210,55.6682,0.002626
78.227,55.6935,0.002626
78.242,55.7160,0.002626
78.258,55.7399,0.002495
78.274,55.7634,0.002495
78.290,55.7867,0.002495
78.306,55.8124,0.002495
78.330,55.8456,0.002495
78.356,55.8830,0.002495
78.377,55.9117,0.002495
78.393,55.9338,0.002495
78.409,55.9566,0.002495
78.425,55.9774,0.002495
78.441,55.9997,0.002495
78.458,56.0220,0.002495
78.473,56.0417,0.002495
78.489,56.0631,0.002495
78.505,56.0841,0.002495
78.521,56.1046,0.002495
78.537,56.1251,0.002278
78.553,56.1453,0.002278
78.570,56.1674,0.002278
78.587,56.1884,0.002278
78.617,56.2259,0.002278
78.633,56.2455,0.002278
78.649,56.2630,0.002278
78.665,56.2821,0.002278
78.682,56.3025,0.002278
78.699,56.3226,0.002278
78.725,56.3517,0.002278
78.745,56.3744,0.002278
78.761,56.3925,0.002278
78.778,56.4103,0.002278
78.793,56.4274,0.002193
78.809,56.4444,0.002193
78.825,56.4619,0.002193
78.841,56.4782,0.002193
78.857,56.4952,0.002193
78.880,56.5185,0.002193
78.896,56.5342,0.002193
78.912,56.5500,0.002193
78.928,56.5666,0.002193
78.944,56.5826,0.002193
78.960,56.5971,0.002193
78.976,56.6122,0.002193
78.993,56.6281,0.002193
79.008,56.6421,0.002193
79.024,56.6571,0.002193
79.041,56.6715,0.002184
79.056,56.6850,0.002184
79.072,56.6995,0.002184
79.088,56.7134,0.002184
79.104,56.7265,0.002184
79.120,56.7404,0.002184
79.137,56.7544,0.002184
79.152,56.7664,0.002184
79.168,56.7794,0.002184
79.184,56.7919,0.002184
79.200,56.8047,0.002184
79.216,56.8166,0.002184
79.232,56.8289,0.002184
79.248,56.8409,0.002184
79.264,56.8526,0.002184
79.280,56.8644,0.002052
79.295,56.8755,0.002052
79.316,56.8894,0.002052
79.333,56.9012,0.002052
79.359,56.9178,0.002052
79.376,56.9295,0.002052
79.392,56.9393,0.002052
79.408,56.9491,0.002052
79.434,56.9648,0.002052
79.451,56.9746,0.002052
79.466,56.9833,0.002052
79.482,56.9925,0.002052
79.504,57.0053,0.002052
79.527,57.0174,0.002052
79.546,57.0270,0.001939
79.562,57.0350,0.001939
79.578,57.0431,0.001939
79.594,57.0510,0.001939
79.610,57.0582,0.001939
79.626,57.0655,0.001939
79.643,57.0730,0.001939
79.668,57.0839,0.001939
79.690,57.0929,0.001939
79.706,57.0990,0.001939
79.722,57.1051,0.001939
79.738,57.1113,0.001939
79.754,57.1171,0.001939
79.770,57.1226,0.001789
79.786,57.1278,0.001789
79.801,57.1331,0.001789
79.817,57.1382,0.001789
79.833,57.1428,0.001789
79.849,57.1475,0.001789
79.865,57.1519,0.001789
79.881,57.1562,0.001789
79.897,57.1602,0.001789
79.914,57.1641,0.001789
79.929,57.1679,0.001789
79.945,57.1711,0.001789
79.962,57.1743,0.001789
79.990,57.1796,0.001789
80.006,57.1824,0.001789
80.022,57.1849,0.001393
80.038,57.1872,0.001393
80.054,57.1893,0.001393
80.070,57.1913,0.001393
80.086,57.1930,0.001393
80.102,57.1946,0.001393
80.119,57.1961,0.001393
80.149,57.1981,0.001393
80.166,57.1989,0.001393
80.181,57.1995,0.001393
80.198,57.1999,0.001393
80.215,57.2001,0.001393
80.243,57.2001,0.001393
80.262,57.2001,0.001393
80.278,57.2001,0.001120
80.295,57.2001,0.001120
80.312,57.2001,0.001120
80.328,57.2001,0.001120
80.351,57.2001,0.001120
80.366,57.2001,0.001120
80.382,57.2001,0.001120
80.413,57.2001,0.001120
80.444,57.2001,0.001120
80.475,57.2001,0.001120
80.506,57.2001,0.001120
80.537,57.2001,0.001374
80.552,57.2001,0.001374
80.568,57.2001,0.001374
80.599,57.2001,0.001374
80.630,57.2001,0.001374
80.645,57.2001,0.001374
80.661,57.2001,0.001374
80.680,57.2001,0.001374
80.706,57.2001,0.001374
80.725,57.2001,0.001374
80.742,57.2001,0.001374
80.758,57.2001,0.001374
80.774,57.2001,0.001704
80.789,57.2001,0.001704
80.806,57.2001,0.001704
80.821,57.2001,0.001704
80.838,57.2001,0.001704
80.854,57.2001,0.001704
80.869,57.2001,0.001704
80.885,57.2001,0.001704
80.901,57.2001,0.001704
80.918,57.2001,0.001704
80.933,57.2001,0.001704
80.949,57.2001,0.001704
80.965,57.2001,0.001704
80.982,57.2001,0.001704
80.997,57.2001,0.001704
81.028,57.2001,0.001789
81.045,57.2001,0.001789
81.060,57.2001,0.001789
81.076,57.2001,0.001789
81.092,57.2001,0.001789
81.108,57.2001,0.001789
81.124,57.2001,0.001789
81.140,57.2001,0.001789
81.158,57.2001,0.001789
81.187,57.2001,0.001789
81.204,57.2001,0.001789
81.221,57.2001,0.001789
81.237,57.2001,0.001789
81.252,57.2001,0.001854
81.268,57.2001,0.001854
81.286,57.2001,0.001854
81.310,57.2001,0.001854
81.341,57.2001,0.001854
81.371,57.2001,0.001854
81.402,57.2001,0.001854
81.432,57.2001,0.001854
81.448,57.2001,0.001854
81.464,57.2001,0.001854
81.480,57.2001,0.001854
81.511,57.2001,0.001864
81.526,57.2001,0.001864
81.557,57.2001,0.001864
81.580,57.2001,0.001864
81.596,57.2001,0.001864
81.612,57.2001,0.001864
81.628,57.2001,0.001864
81.645,57.2001,0.001864
81.666,57.2001,0.001864
81.682,57.2001,0.001864
81.713,57.2001,0.001864
81.744,57.2001,0.001864
81.775,57.2001,0.001864
81.790,57.2001,0.001826
81.823,57.2001,0.001826
81.852,57.2001,0.001826
81.868,57.2001,0.001826
81.884,57.2001,0.001826
81.900,57.2001,0.001826
81.916,57.2001,0.001826
81.932,57.2001,0.001826
81.950,57.2001,0.001826
81.978,57.2001,0.001826
81.996,57.2001,0.001826
82.012,57.2001,0.001826
82.028,57.2001,0.001826
82.044,57.2001,0.001817
82.060,57.2001,0.001817
82.076,57.2001,0.001817
82.092,57.2001,0.001817
82.108,57.2001,0.001817
82.131,57.2001,0.001817
82.146,57.2001,0.001817
82.163,57.2001,0.001817
82.179,57.2001,0.001817
82.195,57.2001,0.001817
82.211,57.2001,0.001817
82.227,57.2001,0.001817
82.243,57.2001,0.001817
82.260,57.2001,0.001817
82.275,57.2001,0.001817
82.291,57.2001,0.001798
82.307,57.2001,0.001798
82.323,57.2001,0.001798
82.339,57.2001,0.001798
82.355,57.2001,0.001798
82.372,57.2001,0.001798
82.388,57.2001,0.001798
82.403,57.2001,0.001798
82.419,57.2001,0.001798
82.435,57.2001,0.001798
82.451,57.2001,0.001798
82.467,57.2001,0.001798
82.483,57.2001,0.001798
82.499,57.2001,0.001798
82.516,57.2001,0.001798
82.535,57.2001,0.001845
82.565,57.2001,0.001845
82.596,57.2001,0.001845
82.611,57.2001,0.001845
82.634,57.2001,0.001845
82.657,57.2001,0.001845
82.675,57.2001,0.001845
82.690,57.2001,0.001845
82.707,57.2001,0.001845
82.723,57.2001,0.001845
82.739,57.2001,0.001845
82.754,57.2001,0.001845
82.771,57.2001,0.001845
82.786,57.2001,0.001911
82.803,57.2001,0.001911
82.819,57.2001,0.001911
82.834,57.2001,0.001911
82.851,57.2001,0.001911
82.867,57.2001,0.001911
82.883,57.2001,0.001911
82.905,57.2001,0.001911
82.935,57.2001,0.001911
82.951,57.2001,0.001911
82.982,57.2001,0.001911
82.998,57.2001,0.001911
83.014,57.2001,0.001911
83.045,57.2001,0.001883
83.061,57.2001,0.001883
83.081,57.2001,0.001883
83.106,57.2001,0.001883
83.123,57.2001,0.001883
83.139,57.2001,0.001883
83.154,57.2001,0.001883
83.183,57.2001,0.001883
83.200,57.2001,0.001883
83.216,57.2001,0.001883
83.232,57.2001,0.001883
83.263,57.2001,0.001883
83.278,57.2001,0.001854
83.293,57.2001,0.001854
83.310,57.2001,0.001854
83.326,57.2001,0.001854
83.341,57.2001,0.001854
83.357,57.2001,0.001854
83.374,57.2001,0.001854
83.389,57.2001,0.001854
83.406,57.2001,0.001854
83.421,57.2001,0.001854
83.437,57.2001,0.001854
83.453,57.2001,0.001854
83.469,57.2001,0.001854
83.485,57.2001,0.001854
83.502,57.2001,0.001854
83.517,57.2001,0.001854
83.533,57.2001,0.001836
83.549,57.2001,0.001836
83.566,57.2001,0.001836
83.582,57.2001,0.001836
83.598,57.2001,0.001836
83.614,57.2001,0.001836
83.630,57.2001,0.001836
83.645,57.2001,0.001836
83.661,57.2001,0.001836
83.678,57.2001,0.001836
83.696,57.2001,0.001836
83.712,57.2001,0.001836
83.741,57.2001,0.001836
83.757,57.2001,0.001836
83.773,57.2001,0.001817
83.788,57.2001,0.001817
83.805,57.2001,0.001817
83.821,57.2001,0.001817
83.836,57.2001,0.001817
83.852,57.2001,0.001817
83.870,57.2001,0.001817
83.899,57.2001,0.001817
83.916,57.2001,0.001817
83.938,57.2001,0.001817
83.961,57.2001,0.001817
83.981,57.2001,0.001817
83.999,57.2001,0.001817
84.022,57.2001,0.001817
84.037,57.2001,0.001826
84.068,57.2001,0.001826
84.099,57.2001,0.001826
84.135,57.2001,0.001826
84.156,57.2001,0.001826
84.172,57.2001,0.001826
84.188,57.2001,0.001826
84.205,57.2001,0.001826
84.220,57.2001,0.001826
84.238,57.2001,0.001826
84.268,57.2001,0.001826
84.298,57.2001,0.001836
84.316,57.2001,0.001836
84.344,57.2001,0.001836
84.360,57.2001,0.001836
84.376,57.2001,0.001836
84.392,57.2001,0.001836
84.408,57.2001,0.001836
84.425,57.2001,0.001836
84.440,57.2001,0.001836
84.456,57.2001,0.001836
84.472,57.2001,0.001836
84.488,57.2001,0.001836
84.504,57.2001,0.001836
84.520,57.2001,0.001779
84.536,57.2001,0.001779
84.552,57.2001,0.001779
84.568,57.2001,0.001779
84.584,57.2001,0.001779
84.600,57.2001,0.001779
84.618,57.2001,0.001779
84.637,57.2001,0.001779
84.653,57.2001,0.001779
84.671,57.2001,0.001779
84.701,57.2001,0.001779
84.716,57.2001,0.001779
84.747,57.2001,0.001779
84.778,57.2001,0.001676
84.794,57.2001,0.001676
84.810,57.2001,0.001676
84.841,57.2001,0.001676
84.858,57.2001,0.001676
84.888,57.2001,0.001676
84.904,57.2001,0.001676
84.920,57.2000,0.001676
84.936,57.1996,0.001676
84.952,57.1991,0.001676
84.969,57.1984,0.001676
84.989,57.1971,0.001676
85.011,57.1955,0.001676
85.032,57.1937,0.001600
85.048,57.1920,0.001600
85.064,57.1902,0.001600
85.080,57.1882,0.001600
85.096,57.1858,0.001600
85.113,57.1832,0.001600
85.129,57.1806,0.001600
85.150,57.1768,0.001600
85.166,57.1737,0.001600
85.182,57.1703,0.001600
85.213,57.1635,0.001600
85.229,57.1597,0.001600
85.250,57.1541,0.001600
85.272,57.1484,0.003125
85.288,57.1439,0.003125
85.304,57.1391,0.003125
85.320,57.1341,0.003125
85.336,57.1290,0.003125
85.352,57.1235,0.003125
85.376,57.1150,0.003125
85.392,57.1092,0.003125
85.408,57.1034,0.003125
85.424,57.0970,0.003125
85.440,57.0906,0.003125
85.456,57.0841,0.003125
85.472,57.0772,0.003125
85.488,57.0701,0.003125
85.504,57.0632,0.006410
85.520,57.0554,0.006410
85.536,57.0482,0.006410
85.552,57.0404,0.006410
85.568,57.0322,0.006410
85.583,57.0240,0.006410
85.603,57.0138,0.006410
85.619,57.0056,0.006410
85.647,56.9904,0.006410
85.664,56.9805,0.006410
85.680,56.9710,0.006410
85.696,56.9614,0.006410
85.712,56.9522,0.006410
85.730,56.9398,0.006410
85.754,56.9251,0.006410
85.786,56.9041,0.005422
85.809,56.8888,0.005422
85.832,56.8727,0.005422
85.848,56.8616,0.005422
85.864,56.8500,0.005422
85.894,56.8280,0.005422
85.914,56.8122,0.005422
85.931,56.7990,0.005422
85.946,56.7871,0.005422
85.963,56.7742,0.005422
85.978,56.7614,0.005422
85.994,56.7485,0.005422
86.010,56.7353,0.002419
86.027,56.7205,0.002419
86.050,56.7013,0.002419
86.081,56.6742,0.002419
86.112,56.6451,0.002419
86.128,56.6312,0.002419
86.159,56.6021,0.002419
86.175,56.5867,0.002419
86.206,56.5569,0.002419
86.222,56.5410,0.002419
86.253,56.5097,0.002419
86.284,56.4770,0.002099
86.300,56.4587,0.002099
86.331,56.4273,0.002099
86.347,56.4093,0.002099
86.362,56.3932,0.002099
86.378,56.3752,0.002099
86.394,56.3574,0.002099
86.413,56.3363,0.002099
86.438,56.3078,0.002099
86.473,56.2658,0.002099
86.489,56.2467,0.002099
86.505,56.2270,0.002109
86.521,56.2078,0.002109
86.538,56.1873,0.002109
86.554,56.1677,0.002109
86.569,56.1484,0.002109
86.585,56.1274,0.002109
86.602,56.1066,0.002109
86.617,56.0867,0.002109
86.634,56.0654,0.002109
86.649,56.0446,0.002109
86.666,56.0225,0.002109
86.681,56.0024,0.002109
86.697,55.9800,0.002109
86.713,55.9581,0.002109
86.730,55.9353,0.002109
86.746,55.9137,0.002109
86.762,55.8899,0.002165
86.778,55.8686,0.002165
86.793,55.8465,0.002165
86.809,55.8232,0.002165
86.831,55.7905,0.002165
86.848,55.7659,0.002165
86.870,55.7334,0.002165
86.890,55.7048,0.002165
86.905,55.6813,0.002165
86.921,55.6575,0.002165
86.937,55.6323,0.002165
86.954,55.6060,0.002165
86.970,55.5821,0.002165
86.985,55.5579,0.002165
87.008,55.5200,0.002165
87.024,55.4948,0.002165
87.040,55.4701,0.002250
87.056,55.4434,0.002250
87.074,55.4134,0.002250
87.104,55.3658,0.002250
87.120,55.3379,0.002250
87.137,55.3095,0.002250
87.152,55.2830,0.002250
87.168,55.2569,0.002250
87.184,55.2271,0.002250
87.202,55.1971,0.002250
87.228,55.1516,0.002250
87.248,55.1160,0.002250
87.265,55.0871,0.002250
87.280,55.0601,0.002250
87.297,55.0303,0.002372
87.312,55.0020,0.002372
87.327,54.9726,0.002372
87.344,54.9428,0.002372
87.360,54.9139,0.002372
87.376,54.8836,0.002372
87.392,54.8522,0.002372
87.408,54.8237,0.002372
87.424,54.7922,0.002372
87.440,54.7625,0.002372
87.456,54.7308,0.002372
87.472,54.7009,0.002372
87.488,54.6687,0.002372
87.504,54.6370,0.002372
87.530,54.5866,0.002372
87.546,54.5541,0.002372
87.562,54.5216,0.002532
87.579,54.4881,0.002532
87.594,54.4579,0.002532
87.610,54.4252,0.002532
87.627,54.3899,0.002532
87.642,54.3572,0.002532
87.658,54.3250,0.002532
87.674,54.2927,0.002532
87.690,54.2591,0.002532
87.706,54.2235,0.002532
87.722,54.1909,0.002532
87.739,54.1545,0.002532
87.754,54.1212,0.002532
87.770,54.0879,0.002532
87.786,54.0555,0.002692
87.802,54.0218,0.002692
87.818,53.9867,0.002692
87.834,53.9550,0.002692
87.850,53.9225,0.002692
87.866,53.8900,0.002692
87.885,53.8492,0.002692
87.910,53.8007,0.002692
87.930,53.7604,0.002692
87.946,53.7282,0.002692
87.963,53.6963,0.002692
87.987,53.6488,0.002692
88.004,53.6151,0.002692
88.034,53.5587,0.002692
88.049,53.5299,0.002692
88.071,53.4870,0.002720
88.096,53.4406,0.002720
88.111,53.4134,0.002720
88.142,53.3551,0.002720
88.157,53.3276,0.002720
88.173,53.3003,0.002720
88.204,53.2431,0.002720
88.236,53.1887,0.002720
88.251,53.1615,0.002720
88.282,53.1075,0.002786
88.313,53.0547,0.002786
88.329,53.0272,0.002786
88.359,52.9774,0.002786
88.390,52.9269,0.002786
88.406,52.9008,0.002786
88.422,52.8748,0.002786
88.439,52.8474,0.002786
88.454,52.8231,0.002786
88.470,52.7970,0.002786
88.485,52.7733,0.002786
88.506,52.7403,0.002786
88.521,52.7172,0.002786
88.545,52.6817,0.002965
88.566,52.6491,0.002965
88.582,52.6255,0.002965
88.597,52.6024,0.002965
88.621,52.5671,0.002965
88.636,52.5450,0.002965
88.652,52.5218,0.002965
88.668,52.4989,0.002965
88.685,52.4749,0.002965
88.702,52.4522,0.002965
88.730,52.4130,0.002965
88.748,52.3861,0.002965
88.764,52.3652,0.002965
88.781,52.3431,0.003153
88.797,52.3219,0.003153
88.813,52.2989,0.003153
88.839,52.2665,0.003153
88.860,52.2387,0.003153
88.876,52.2176,0.003153
88.893,52.1979,0.003153
88.908,52.1780,0.003153
88.925,52.1571,0.003153
88.941,52.1378,0.003153
88.956,52.1189,0.003153
88.972,52.0998,0.003153
88.989,52.0800,0.003153
89.004,52.0614,0.003153
89.020,52.0428,0.003323
89.037,52.0241,0.003323
89.052,52.0059,0.003323
89.069,51.9873,0.003323
89.084,51.9702,0.003323
89.101,51.9514,0.003323
89.117,51.9332,0.003323
89.133,51.9167,0.003323
89.148,51.9002,0.003323
89.175,51.8713,0.003323
89.191,51.8551,0.003323
89.208,51.8384,0.003323
89.223,51.8227,0.003323
89.239,51.8066,0.003323
89.255,51.7906,0.003323
89.271,51.7749,0.003473
89.287,51.7598,0.003473
89.304,51.7433,0.003473
89.319,51.7293,0.003473
89.336,51.7134,0.003473
89.352,51.6993,0.003473
89.368,51.6845,0.003473
89.384,51.6701,0.003473
89.400,51.6561,0.003473
89.415,51.6430,0.003473
89.432,51.6277,0.003473
89.457,51.6074,0.003473
89.488,51.5817,0.003473
89.503,51.5692,0.003473
89.519,51.5570,0.003473
89.549,51.5338,0.003596
89.566,51.5212,0.003596
89.596,51.4990,0.003596
89.628,51.4767,0.003596
89.658,51.4552,0.003596
89.689,51.4346,0.003596
89.719,51.4153,0.003596
89.736,51.4046,0.003596
89.766,51.3866,0.003709
89.783,51.3765,0.003709
89.805,51.3629,0.003709
89.828,51.3509,0.003709
89.847,51.3402,0.003709
89.864,51.3317,0.003709
89.880,51.3236,0.003709
89.895,51.3157,0.003709
89.911,51.3076,0.003709
89.928,51.2996,0.003709
89.943,51.2924,0.003709
89.959,51.2852,0.003709
89.975,51.2779,0.003709
89.991,51.2710,0.003709
90.007,51.2643,0.003822
90.023,51.2576,0.003822
90.039,51.2513,0.003822
90.056,51.2450,0.003822
90.071,51.2393,0.003822
90.087,51.2335,0.003822
90.103,51.2279,0.003822
90.119,51.2224,0.003822
90.136,51.2168,0.003822
90.151,51.2121,0.003822
90.170,51.2063,0.003822
90.199,51.1984,0.003822
90.215,51.1943,0.003822
90.231,51.1899,0.003822
90.254,51.1846,0.003822
90.271,51.1809,0.003822
90.286,51.1778,0.003869
90.302,51.1747,0.003869
90.318,51.1716,0.003869
90.334,51.1688,0.003869
90.350,51.1662,0.003869
90.367,51.1636,0.003869
90.382,51.1615,0.003869
90.398,51.1597,0.003869
90.414,51.1577,0.003869
90.431,51.1561,0.003869
90.447,51.1546,0.003869
90.462,51.1535,0.003869
90.478,51.1525,0.003869
90.496,51.1515,0.003869
90.525,51.1505,0.003954
90.542,51.1502,0.003954
90.558,51.1501,0.003954
90.574,51.1501,0.003954
90.590,51.1501,0.003954
90.606,51.1501,0.003954
90.623,51.1501,0.003954
90.649,51.1501,0.003954
90.670,51.1501,0.003954
90.686,51.1501,0.003954
90.702,51.1501,0.003954
90.717,51.1501,0.003954
90.734,51.1502,0.003954
90.750,51.1505,0.003954
90.766,51.1509,0.003954
90.782,51.1515,0.003954
90.805,51.1528,0.004029
90.822,51.1540,0.004029
90.837,51.1552,0.004029
90.853,51.1567,0.004029
90.870,51.1586,0.004029
90.896,51.1618,0.004029
90.917,51.1646,0.004029
90.933,51.1671,0.004029
90.950,51.1698,0.004029
90.965,51.1726,0.004029
90.981,51.1757,0.004029
90.997,51.1789,0.004029
91.014,51.1825,0.004029
91.029,51.1858,0.003935
91.045,51.1897,0.003935
91.061,51.1939,0.003935
91.076,51.1979,0.003935
91.093,51.2025,0.003935
91.109,51.2070,0.003935
91.125,51.2118,0.003935
91.141,51.2167,0.003935
91.157,51.2219,0.003935
91.173,51.2274,0.003935
91.189,51.2330,0.003935
91.205,51.2388,0.003935
91.221,51.2446,0.003935
91.237,51.2511,0.003935
91.253,51.2570,0.003935
91.268,51.2635,0.003812
91.284,51.2702,0.003812
91.302,51.2776,0.003812
91.317,51.2844,0.003812
91.332,51.2916,0.003812
91.359,51.3047,0.003812
91.375,51.3125,0.003812
91.391,51.3203,0.003812
91.407,51.3283,0.003812
91.424,51.3374,0.003812
91.439,51.3456,0.003812
91.455,51.3541,0.003812
91.472,51.3634,0.003812
91.488,51.3731,0.003812
91.504,51.3820,0.003812
91.520,51.3920,0.003822
91.535,51.4010,0.003822
91.552,51.4116,0.003822
91.569,51.4219,0.003822
91.592,51.4374,0.003822
91.623,51.4583,0.003822
91.638,51.4691,0.003822
91.654,51.4795,0.003822
91.685,51.5017,0.003822
91.715,51.5243,0.003822
91.731,51.5362,0.003822
91.761,51.5601,0.003784
91.791,51.5837,0.003784
91.808,51.5971,0.003784
91.823,51.6101,0.003784
91.839,51.6236,0.003784
91.856,51.6378,0.003784
91.886,51.6636,0.003784
91.914,51.6896,0.003784
91.931,51.7040,0.003784
91.946,51.7181,0.003784
91.962,51.7330,0.003784
91.981,51.7516,0.003784
92.010,51.7787,0.003615
92.026,51.7950,0.003615
92.043,51.8117,0.003615
92.059,51.8272,0.003615
92.075,51.8438,0.003615
92.091,51.8599,0.003615
92.106,51.8765,0.003615
92.126,51.8986,0.003615
92.148,51.9213,0.003615
92.164,51.9383,0.003615
92.179,51.9555,0.003615
92.195,51.9729,0.003615
92.226,52.0071,0.003615
92.257,52.0432,0.003615
92.287,52.0783,0.003483
92.318,52.1159,0.003483
92.334,52.1346,0.003483
92.349,52.1542,0.003483
92.368,52.1769,0.003483
92.397,52.2128,0.003483
92.428,52.2527,0.003483
92.458,52.2931,0.003483
92.475,52.3151,0.003483
92.490,52.3347,0.003483
92.506,52.3560,0.003370
92.522,52.3777,0.003370
92.540,52.4029,0.003370
92.568,52.4403,0.003370
92.586,52.4665,0.003370
92.602,52.4896,0.003370
92.618,52.5121,0.003370
92.634,52.5352,0.003370
92.650,52.5589,0.003370
92.667,52.5832,0.003370
92.683,52.6070,0.003370
92.699,52.6311,0.003370
92.715,52.6554,0.003370
92.733,52.6818,0.003370
92.754,52.7145,0.003370
92.785,52.7634,0.003248
92.816,52.8117,0.003248
92.846,52.8598,0.003248
92.862,52.8843,0.003248
92.878,52.9114,0.003248
92.894,52.9364,0.003248
92.910,52.9638,0.003248
92.941,53.0156,0.003248
92.966,53.0580,0.003248
92.982,53.0848,0.003248
92.998,53.1120,0.003248
93.014,53.1400,0.003078
93.030,53.1676,0.003078
93.046,53.1976,0.003078
93.062,53.2239,0.003078
93.078,53.2531,0.003078
93.094,53.2821,0.003078
93.110,53.3102,0.003078
93.126,53.3390,0.003078
93.142,53.3694,0.003078
93.158,53.3979,0.003078
93.174,53.4271,0.003078
93.190,53.4577,0.003078
93.206,53.4888,0.003078
93.222,53.5172,0.003078
93.238,53.5475,0.003078
93.254,53.5796,0.003078
93.272,53.6121,0.003078
93.295,53.6571,0.003078
93.326,53.7177,0.002928
93.356,53.7782,0.002928
93.372,53.8118,0.002928
93.388,53.8419,0.002928
93.420,53.9065,0.002928
93.450,53.9679,0.002928
93.466,54.0018,0.002928
93.481,54.0353,0.002928
93.497,54.0678,0.002928
93.518,54.1112,0.002739
93.534,54.1454,0.002739
93.550,54.1799,0.002739
93.566,54.2123,0.002739
93.582,54.2459,0.002739
93.598,54.2791,0.002739
93.614,54.3132,0.002739
93.630,54.3465,0.002739
93.646,54.3797,0.002739
93.662,54.4114,0.002739
93.678,54.4434,0.002739
93.694,54.4780,0.002739
93.710,54.5090,0.002739
93.726,54.5402,0.002739
93.742,54.5723,0.002739
93.758,54.6038,0.002739
93.774,54.6351,0.002739
93.790,54.6652,0.002664
93.806,54.6966,0.002664
93.821,54.7267,0.002664
93.838,54.7593,0.002664
93.854,54.7880,0.002664
93.870,54.8184,0.002664
93.886,54.8506,0.002664
93.903,54.8793,0.002664
93.918,54.9073,0.002664
93.934,54.9367,0.002664
93.950,54.9679,0.002664
93.966,54.9956,0.002664
93.983,55.0254,0.002664
94.009,55.0724,0.002664
94.030,55.1098,0.002664
94.046,55.1373,0.002664
94.070,55.1794,0.002645
94.086,55.2066,0.002645
94.102,55.2336,0.002645
94.118,55.2605,0.002645
94.134,55.2892,0.002645
94.150,55.3146,0.002645
94.166,55.3419,0.002645
94.182,55.3673,0.002645
94.198,55.3956,0.002645
94.214,55.4209,0.002645
94.230,55.4457,0.002645
94.246,55.4731,0.002645
94.264,55.5031,0.002645
94.284,55.5335,0.002645
94.300,55.5570,0.002645
94.332,55.6058,0.002542
94.363,55.6528,0.002542
94.378,55.6764,0.002542
94.395,55.7017,0.002542
94.425,55.7449,0.002542
94.455,55.7887,0.002542
94.486,55.8330,0.002542
94.504,55.8584,0.002542
94.532,55.8972,0.002391
94.549,55.9203,0.002391
94.566,55.9434,0.002391
94.581,55.9637,0.002391
94.598,55.9854,0.002391
94.624,56.0208,0.002391
94.639,56.0401,0.002391
94.656,56.0616,0.002391
94.672,56.0817,0.002391
94.689,56.1035,0.002391
94.719,56.1411,0.002391
94.736,56.1614,0.002391
94.751,56.1808,0.002391
94.768,56.2001,0.002391
94.783,56.2188,0.002212
94.800,56.2390,0.002212
94.827,56.2705,0.002212
94.850,56.2977,0.002212
94.874,56.3230,0.002212
94.904,56.3575,0.002212
94.936,56.3910,0.002212
94.966,56.4235,0.002212
94.997,56.4553,0.002212
95.013,56.4718,0.002212
95.044,56.5031,0.002137
95.059,56.5181,0.002137
95.076,56.5336,0.002137
95.107,56.5639,0.002137
95.138,56.5928,0.002137
95.154,56.6071,0.002137
95.182,56.6323,0.002137
95.198,56.6465,0.002137
95.214,56.6602,0.002137
95.230,56.6739,0.002137
95.246,56.6878,0.002137
95.262,56.7004,0.002137
95.278,56.7139,0.002080
95.294,56.7268,0.002080
95.311,56.7397,0.002080
95.326,56.7523,0.002080
95.342,56.7643,0.002080
95.358,56.7762,0.002080
95.380,56.7927,0.002080
95.402,56.8091,0.002080
95.422,56.8227,0.002080
95.438,56.8341,0.002080
95.454,56.8459,0.002080
95.470,56.8557,0.002080
95.486,56.8665,0.002080
95.503,56.8774,0.002080
95.526,56.8919,0.002080
95.556,56.9101,0.002043
95.587,56.9290,0.002043
95.602,56.9375,0.002043
95.634,56.9549,0.002043
95.649,56.9633,0.002043
95.664,56.9710,0.002043
95.680,56.9795,0.002043
95.711,56.9945,0.002043
95.739,57.0081,0.002043
95.756,57.0158,0.002043
95.773,57.0232,0.001977
95.789,57.0299,0.001977
95.804,57.0368,0.001977
95.820,57.0430,0.001977
95.835,57.0490,0.001977
95.851,57.0551,0.001977
95.868,57.0616,0.001977
95.884,57.0673,0.001977
95.899,57.0724,0.001977
95.915,57.0778,0.001977
95.934,57.0839,0.001977
95.959,57.0920,0.001977
95.979,57.0974,0.001977
95.995,57.1021,0.001977
96.011,57.1062,0.001977
96.027,57.1103,0.001704
96.043,57.1140,0.001704
96.059,57.1176,0.001704
96.076,57.1212,0.001704
96.098,57.1258,0.001704
96.114,57.1287,0.001704
96.144,57.1338,0.001704
96.160,57.1362,0.001704
96.176,57.1383,0.001704
96.191,57.1405,0.001704
96.207,57.1422,0.001704
96.238,57.1453,0.001704
96.262,57.1470,0.001704
96.278,57.1480,0.001704
96.294,57.1489,0.001252
96.310,57.1495,0.001252
96.326,57.1499,0.001252
96.342,57.1501,0.001252
96.358,57.1501,0.001252
96.374,57.1501,0.001252
96.391,57.1501,0.001252
96.406,57.1501,0.001252
96.422,57.1501,0.001252
96.439,57.1501,0.001252
96.469,57.1501,0.001252
96.487,57.1501,0.001252
96.502,57.1501,0.001252
96.518,57.1501,0.001139
96.534,57.1501,0.001139
96.552,57.1501,0.001139
96.578,57.1501,0.001139
96.598,57.1501,0.001139
96.616,57.1501,0.001139
96.641,57.1501,0.001139
96.662,57.1501,0.001139
96.678,57.1501,0.001139
96.694,57.1501,0.001139
96.710,57.1501,0.001139
96.726,57.1501,0.001139
96.742,57.1501,0.001139
96.759,57.1501,0.001139
96.774,57.1501,0.001139
96.797,57.1501,0.001516
96.812,57.1501,0.001516
96.829,57.1501,0.001516
96.845,57.1501,0.001516
96.861,57.1501,0.001516
96.877,57.1501,0.001516
96.893,57.1501,0.001516
96.909,57.1501,0.001516
96.925,57.1501,0.001516
96.941,57.1501,0.001516
96.957,57.1501,0.001516
96.973,57.1501,0.001516
96.989,57.1501,0.001516
97.005,57.1501,0.001516
97.021,57.1501,0.001798
97.037,57.1501,0.001798
97.054,57.1501,0.001798
97.074,57.1501,0.001798
97.090,57.1501,0.001798
97.108,57.1501,0.001798
