Elapsed Time (s),Position (mm),Force (N)
-0.015,59.4500,0.001158
0.001,59.4500,0.001158
0.032,59.4500,0.001158
0.050,59.4500,0.001158
0.079,59.4500,0.001158
0.095,59.4500,0.001158
0.112,59.4500,0.001158
0.128,59.4500,0.001158
0.144,59.4500,0.001158
0.162,59.4500,0.001158
0.187,59.4500,0.001403
0.207,59.4500,0.001403
0.225,59.4500,0.001403
0.240,59.4500,0.001403
0.255,59.4500,0.001403
0.271,59.4500,0.001403
0.287,59.4500,0.001403
0.303,59.4500,0.001403
0.320,59.4500,0.001403
0.335,59.4500,0.001403
0.352,59.4500,0.001403
0.368,59.4500,0.001403
0.383,59.4500,0.001403
0.400,59.4500,0.001403
0.416,59.4500,0.001403
0.432,59.4500,0.001403
0.448,59.4500,0.001459
0.464,59.4500,0.001459
0.480,59.4500,0.001459
0.497,59.4500,0.001459
0.528,59.4500,0.001459
0.544,59.4500,0.001459
0.559,59.4500,0.001459
0.576,59.4500,0.001459
0.593,59.4500,0.001459
0.620,59.4500,0.001459
0.640,59.4500,0.001459
0.657,59.4500,0.001459
0.682,59.4500,0.001459
0.703,59.4500,0.001459
0.721,59.4500,0.001459
0.743,59.4500,0.001459
0.774,59.4500,0.001459
0.805,59.4500,0.001459
0.837,59.4500,0.001459
0.866,59.4500,0.001459
0.894,59.4500,0.001459
0.909,59.4500,0.001459
0.926,59.4500,0.001478
0.941,59.4500,0.001478
0.957,59.4500,0.001478
0.974,59.4500,0.001478
1.005,59.4500,0.001478
1.025,59.4500,0.001478
1.051,59.4500,0.001478
1.069,59.4500,0.001478
1.086,59.4500,0.001478
1.101,59.4500,0.001478
1.117,59.4500,0.001478
1.133,59.4500,0.001478
1.150,59.4500,0.001478
1.166,59.4500,0.001478
1.181,59.4500,0.001487
1.197,59.4500,0.001487
1.213,59.4500,0.001487
1.229,59.4500,0.001487
1.245,59.4500,0.001487
1.261,59.4500,0.001487
1.277,59.4500,0.001487
1.294,59.4500,0.001487
1.309,59.4500,0.001487
1.326,59.4500,0.001487
1.341,59.4500,0.001487
1.358,59.4500,0.001487
1.373,59.4500,0.001487
1.389,59.4500,0.001487
1.405,59.4500,0.001487
1.422,59.4500,0.001487
1.450,59.4500,0.001497
1.466,59.4500,0.001497
1.482,59.4500,0.001497
1.498,59.4500,0.001497
1.514,59.4500,0.001497
1.530,59.4500,0.001497
1.546,59.4500,0.001497
1.562,59.4500,0.001497
1.578,59.4500,0.001497
1.594,59.4500,0.001497
1.610,59.4500,0.001497
1.626,59.4500,0.001497
1.643,59.4500,0.001497
1.670,59.4500,0.001468
1.690,59.4500,0.001468
1.706,59.4500,0.001468
1.722,59.4500,0.001468
1.739,59.4500,0.001468
1.754,59.4500,0.001468
1.771,59.4500,0.001468
1.787,59.4500,0.001468
1.810,59.4500,0.001468
1.826,59.4500,0.001468
1.856,59.4500,0.001468
1.872,59.4500,0.001468
1.887,59.4500,0.001468
1.902,59.4500,0.001468
1.917,59.4500,0.001468
1.934,59.4500,0.001478
1.949,59.4500,0.001478
1.964,59.4500,0.001478
1.980,59.4500,0.001478
2.007,59.4500,0.001478
2.023,59.4500,0.001478
2.039,59.4500,0.001478
2.055,59.4500,0.001478
2.071,59.4500,0.001478
2.087,59.4500,0.001478
2.103,59.4500,0.001478
2.119,59.4500,0.001478
2.135,59.4500,0.001478
2.151,59.4500,0.001478
2.167,59.4500,0.001478
2.183,59.4500,0.001487
2.200,59.4500,0.001487
2.227,59.4500,0.001487
2.251,59.4500,0.001487
2.273,59.4500,0.001487
2.304,59.4500,0.001487
2.334,59.4500,0.001487
2.350,59.4500,0.001487
2.380,59.4500,0.001487
2.396,59.4500,0.001487
2.427,59.4500,0.001487
2.458,59.4500,0.001468
2.474,59.4500,0.001468
2.503,59.4500,0.001468
2.519,59.4500,0.001468
2.546,59.4500,0.001468
2.562,59.4500,0.001468
2.578,59.4500,0.001468
2.594,59.4500,0.001468
2.610,59.4500,0.001468
2.626,59.4500,0.001468
2.642,59.4500,0.001468
2.658,59.4500,0.001468
2.674,59.4500,0.001468
2.690,59.4500,0.001497
2.706,59.4500,0.001497
2.723,59.4500,0.001497
2.738,59.4500,0.001497
2.754,59.4500,0.001497
2.770,59.4500,0.001497
2.787,59.4500,0.001497
2.813,59.4500,0.001497
2.834,59.4500,0.001497
2.850,59.4500,0.001497
2.876,59.4500,0.001497
2.906,59.4500,0.001497
2.922,59.4500,0.001497
2.953,59.4500,0.001516
2.983,59.4500,0.001516
3.000,59.4500,0.001516
3.030,59.4500,0.001516
3.061,59.4500,0.001516
3.091,59.4500,0.001516
3.107,59.4500,0.001516
3.122,59.4500,0.001516
3.137,59.4500,0.001516
3.155,59.4500,0.001516
3.184,59.4500,0.001525
3.202,59.4500,0.001525
3.219,59.4500,0.001525
3.246,59.4500,0.001525
3.266,59.4500,0.001525
3.282,59.4500,0.001525
3.308,59.4500,0.001525
3.329,59.4500,0.001525
3.347,59.4500,0.001525
3.370,59.4500,0.001525
3.386,59.4500,0.001525
3.401,59.4500,0.001525
3.416,59.4500,0.001525
3.432,59.4500,0.001487
3.448,59.4500,0.001487
3.464,59.4500,0.001487
3.494,59.4500,0.001487
3.510,59.4500,0.001487
3.526,59.4500,0.001487
3.542,59.4500,0.001487
3.573,59.4500,0.001487
3.603,59.4500,0.001487
3.635,59.4500,0.001487
3.651,59.4500,0.001487
3.681,59.4500,0.001440
3.698,59.4500,0.001440
3.714,59.4500,0.001440
3.730,59.4500,0.001440
3.746,59.4500,0.001440
3.763,59.4500,0.001440
3.790,59.4500,0.001440
3.809,59.4500,0.001440
3.828,59.4500,0.001440
3.852,59.4500,0.001440
3.873,59.4500,0.001440
3.890,59.4500,0.001440
3.905,59.4500,0.001440
3.921,59.4500,0.001393
3.939,59.4500,0.001393
3.960,59.4500,0.001393
3.976,59.4500,0.001393
4.007,59.4500,0.001393
4.022,59.4500,0.001393
4.038,59.4500,0.001393
4.057,59.4500,0.001393
4.085,59.4500,0.001393
4.100,59.4500,0.001393
4.116,59.4499,0.001393
4.137,59.4495,0.001393
4.153,59.4490,0.001393
4.169,59.4483,0.001393
4.186,59.4473,0.001308
4.203,59.4462,0.001308
4.223,59.4444,0.001308
4.253,59.4412,0.001308
4.284,59.4375,0.001308
4.300,59.4353,0.001308
4.331,59.4300,0.001308
4.361,59.4246,0.001308
4.378,59.4211,0.001308
4.394,59.4178,0.001308
4.422,59.4111,0.002033
4.442,59.4061,0.002033
4.458,59.4020,0.002033
4.484,59.3945,0.002033
4.507,59.3879,0.002033
4.531,59.3803,0.002033
4.562,59.3699,0.002033
4.577,59.3644,0.002033
4.593,59.3587,0.002033
4.624,59.3467,0.002033
4.654,59.3344,0.002033
4.671,59.3272,0.002033
4.691,59.3184,0.004744
4.708,59.3110,0.004744
4.732,59.2998,0.004744
4.748,59.2919,0.004744
4.779,59.2765,0.004744
4.809,59.2606,0.004744
4.824,59.2526,0.004744
4.855,59.2355,0.004744
4.872,59.2258,0.004744
4.902,59.2074,0.004744
4.918,59.1982,0.004744
4.934,59.1877,0.004744
4.949,59.1780,0.004744
4.965,59.1675,0.004603
4.996,59.1473,0.004603
5.011,59.1369,0.004603
5.027,59.1263,0.004603
5.043,59.1147,0.004603
5.060,59.1020,0.004603
5.090,59.0802,0.004603
5.108,59.0670,0.004603
5.129,59.0503,0.004603
5.144,59.0389,0.004603
5.167,59.0199,0.004603
5.187,59.0044,0.004603
5.203,58.9909,0.004603
5.219,58.9779,0.004603
5.242,58.9571,0.002137
5.258,58.9442,0.002137
5.274,58.9304,0.002137
5.290,58.9161,0.002137
5.308,58.8989,0.002137
5.338,58.8716,0.002137
5.354,58.8567,0.002137
5.371,58.8402,0.002137
5.399,58.8130,0.002137
5.418,58.7946,0.002137
5.435,58.7769,0.002137
5.462,58.7490,0.001826
5.482,58.7289,0.001826
5.499,58.7110,0.001826
5.524,58.6842,0.001826
5.540,58.6668,0.001826
5.563,58.6413,0.001826
5.586,58.6168,0.001826
5.602,58.5978,0.001826
5.633,58.5631,0.001826
5.664,58.5254,0.001826
5.695,58.4895,0.001826
5.711,58.4701,0.001826
5.742,58.4322,0.001826
5.757,58.4123,0.001826
5.773,58.3926,0.001826
5.801,58.3574,0.001826
5.817,58.3359,0.001826
5.832,58.3164,0.001826
5.849,58.2950,0.001826
5.865,58.2728,0.001826
5.881,58.2526,0.001826
5.896,58.2309,0.001826
5.912,58.2094,0.001826
5.932,58.1815,0.001826
5.959,58.1445,0.001836
5.976,58.1199,0.001836
5.993,58.0952,0.001836
6.008,58.0742,0.001836
6.025,58.0504,0.001836
6.041,58.0277,0.001836
6.060,57.9981,0.001836
6.082,57.9661,0.001836
6.113,57.9189,0.001836
6.143,57.8728,0.001836
6.174,57.8253,0.001836
6.189,57.7996,0.001836
6.205,57.7764,0.001892
6.236,57.7266,0.001892
6.252,57.7002,0.001892
6.283,57.6496,0.001892
6.299,57.6234,0.001892
6.329,57.5732,0.001892
6.357,57.5247,0.001892
6.373,57.4974,0.001892
6.388,57.4702,0.001892
6.405,57.4431,0.001892
6.422,57.4124,0.001892
6.437,57.3848,0.001892
6.468,57.3305,0.001977
6.487,57.2973,0.001977
6.514,57.2480,0.001977
6.532,57.2141,0.001977
6.549,57.1825,0.001977
6.565,57.1546,0.001977
6.581,57.1230,0.001977
6.597,57.0944,0.001977
6.612,57.0644,0.001977
6.629,57.0324,0.001977
6.644,57.0037,0.001977
6.660,56.9728,0.001977
6.683,56.9273,0.001977
6.714,56.8681,0.002090
6.744,56.8070,0.002090
6.775,56.7452,0.002090
6.805,56.6842,0.002090
6.821,56.6518,0.002090
6.836,56.6186,0.002090
6.854,56.5841,0.002090
6.869,56.5521,0.002090
6.885,56.5181,0.002090
6.910,56.4651,0.002090
6.927,56.4295,0.002090
6.942,56.3956,0.002174
6.958,56.3621,0.002174
6.974,56.3291,0.002174
6.990,56.2960,0.002174
7.007,56.2590,0.002174
7.022,56.2283,0.002174
7.046,56.1788,0.002174
7.069,56.1333,0.002174
7.086,56.0982,0.002174
7.103,56.0638,0.002174
7.119,56.0330,0.002174
7.135,56.0004,0.002174
7.150,55.9704,0.002174
7.173,55.9220,0.002174
7.192,55.8872,0.002174
7.223,55.8290,0.002165
7.238,55.7978,0.002165
7.269,55.7412,0.002165
7.285,55.7116,0.002165
7.315,55.6545,0.002165
7.331,55.6258,0.002165
7.346,55.5977,0.002165
7.377,55.5414,0.002165
7.392,55.5143,0.002165
7.423,55.4567,0.002165
7.454,55.4062,0.002203
7.473,55.3716,0.002203
7.500,55.3245,0.002203
7.518,55.2950,0.002203
7.537,55.2631,0.002203
7.562,55.2211,0.002203
7.582,55.1891,0.002203
7.598,55.1624,0.002203
7.614,55.1359,0.002203
7.631,55.1096,0.002203
7.646,55.0854,0.002203
7.663,55.0580,0.002203
7.679,55.0334,0.002363
7.694,55.0096,0.002363
7.710,54.9841,0.002363
7.727,54.9573,0.002363
7.747,54.9284,0.002363
7.762,54.9039,0.002363
7.778,54.8815,0.002363
7.809,54.8358,0.002363
7.841,54.7887,0.002363
7.870,54.7462,0.002363
7.886,54.7239,0.002363
7.903,54.6999,0.002363
7.931,54.6606,0.002476
7.950,54.6349,0.002476
7.970,54.6071,0.002476
7.995,54.5739,0.002476
8.010,54.5542,0.002476
8.027,54.5311,0.002476
8.042,54.5118,0.002476
8.058,54.4907,0.002476
8.074,54.4712,0.002476
8.090,54.4505,0.002476
8.106,54.4304,0.002476
8.122,54.4102,0.002476
8.138,54.3911,0.002476
8.154,54.3714,0.002476
8.170,54.3520,0.002476
8.186,54.3334,0.002560
8.202,54.3145,0.002560
8.218,54.2957,0.002560
8.234,54.2771,0.002560
8.250,54.2589,0.002560
8.266,54.2395,0.002560
8.283,54.2217,0.002560
8.298,54.2043,0.002560
8.314,54.1872,0.002560
8.330,54.1690,0.002560
8.347,54.1512,0.002560
8.363,54.1344,0.002560
8.379,54.1176,0.002560
8.408,54.0874,0.002560
8.426,54.0699,0.002560
8.442,54.0529,0.002626
8.458,54.0379,0.002626
8.475,54.0209,0.002626
8.491,54.0059,0.002626
8.515,53.9828,0.002626
8.536,53.9637,0.002626
8.552,53.9483,0.002626
8.569,53.9338,0.002626
8.592,53.9131,0.002626
8.607,53.8992,0.002626
8.638,53.8733,0.002626
8.672,53.8438,0.002626
8.699,53.8227,0.002796
8.729,53.7994,0.002796
8.744,53.7878,0.002796
8.760,53.7756,0.002796
8.776,53.7630,0.002796
8.793,53.7510,0.002796
8.810,53.7392,0.002796
8.837,53.7193,0.002796
8.858,53.7050,0.002796
8.874,53.6946,0.002796
8.899,53.6777,0.002796
8.920,53.6646,0.002796
8.935,53.6548,0.002956
8.952,53.6448,0.002956
8.968,53.6351,0.002956
8.983,53.6259,0.002956
9.000,53.6166,0.002956
9.016,53.6075,0.002956
9.033,53.5981,0.002956
9.055,53.5859,0.002956
9.086,53.5699,0.002956
9.117,53.5548,0.002956
9.133,53.5466,0.002956
9.148,53.5398,0.002956
9.164,53.5326,0.002956
9.180,53.5257,0.002993
9.196,53.5185,0.002993
9.226,53.5063,0.002993
9.243,53.4994,0.002993
9.272,53.4883,0.002993
9.288,53.4831,0.002993
9.306,53.4764,0.002993
9.325,53.4701,0.002993
9.348,53.4628,0.002993
9.368,53.4568,0.002993
9.384,53.4524,0.002993
9.399,53.4483,0.002993
9.416,53.4439,0.002993
9.433,53.4396,0.002993
9.457,53.4339,0.002993
9.473,53.4304,0.002993
9.489,53.4269,0.002993
9.520,53.4212,0.002993
9.551,53.4158,0.002993
9.582,53.4114,0.002993
9.598,53.4096,0.002993
9.614,53.4076,0.002993
9.645,53.4047,0.002993
9.675,53.4025,0.002993
9.707,53.4010,0.003022
9.723,53.4004,0.003022
9.753,53.4000,0.003022
9.785,53.4000,0.003022
9.800,53.4000,0.003022
9.815,53.4000,0.003022
9.831,53.4000,0.003022
9.850,53.4000,0.003022
9.877,53.4000,0.003022
9.895,53.4000,0.003022
9.912,53.4000,0.003022
9.928,53.4000,0.003022
9.944,53.4000,0.003153
9.959,53.4000,0.003153
9.976,53.4003,0.003153
9.992,53.4008,0.003153
10.016,53.4018,0.003153
10.032,53.4028,0.003153
10.062,53.4049,0.003153
10.078,53.4064,0.003153
10.109,53.4098,0.003153
10.139,53.4138,0.003153
10.156,53.4164,0.003153
10.187,53.4216,0.003172
10.217,53.4276,0.003172
10.249,53.4341,0.003172
10.279,53.4415,0.003172
10.296,53.4457,0.003172
10.313,53.4503,0.003172
10.342,53.4587,0.003172
10.359,53.4639,0.003172
10.375,53.4690,0.003172
10.391,53.4743,0.003172
10.408,53.4801,0.003172
10.423,53.4855,0.003172
10.440,53.4916,0.003050
10.455,53.4971,0.003050
10.472,53.5041,0.003050
10.487,53.5099,0.003050
10.503,53.5166,0.003050
10.519,53.5234,0.003050
10.536,53.5309,0.003050
10.557,53.5404,0.003050
10.573,53.5480,0.003050
10.589,53.5558,0.003050
10.619,53.5706,0.003050
10.635,53.5790,0.003050
10.666,53.5949,0.003050
10.682,53.6040,0.003050
10.712,53.6210,0.002984
10.743,53.6388,0.002984
10.763,53.6515,0.002984
10.790,53.6682,0.002984
10.807,53.6792,0.002984
10.823,53.6896,0.002984
10.839,53.7007,0.002984
10.855,53.7112,0.002984
10.871,53.7222,0.002984
10.888,53.7344,0.002984
10.915,53.7539,0.002984
10.936,53.7694,0.002899
10.960,53.7877,0.002899
10.992,53.8119,0.002899
11.023,53.8371,0.002899
11.039,53.8505,0.002899
11.074,53.8804,0.002899
11.095,53.8975,0.002899
11.111,53.9119,0.002899
11.127,53.9261,0.002899
11.143,53.9401,0.002899
11.159,53.9549,0.002899
11.183,53.9770,0.002899
11.199,53.9922,0.002899
11.215,54.0071,0.002824
11.231,54.0225,0.002824
11.247,54.0389,0.002824
11.263,54.0543,0.002824
11.279,54.0704,0.002824
11.295,54.0874,0.002824
11.312,54.1041,0.002824
11.332,54.1248,0.002824
11.363,54.1583,0.002824
11.394,54.1908,0.002824
11.410,54.2084,0.002824
11.426,54.2273,0.002824
11.456,54.2600,0.002749
11.486,54.2950,0.002749
11.503,54.3152,0.002749
11.520,54.3355,0.002749
11.549,54.3696,0.002749
11.568,54.3925,0.002749
11.583,54.4116,0.002749
11.599,54.4313,0.002749
11.615,54.4519,0.002749
11.631,54.4716,0.002749
11.647,54.4916,0.002749
11.663,54.5129,0.002749
11.679,54.5343,0.002749
11.696,54.5556,0.002749
11.718,54.5866,0.002749
11.738,54.6117,0.002626
11.757,54.6382,0.002626
11.778,54.6674,0.002626
11.809,54.7098,0.002626
11.824,54.7319,0.002626
11.840,54.7549,0.002626
11.871,54.7993,0.002626
11.902,54.8447,0.002626
11.933,54.8910,0.002626
11.964,54.9378,0.002513
11.995,54.9864,0.002513
12.026,55.0332,0.002513
12.043,55.0612,0.002513
12.058,55.0849,0.002513
12.074,55.1106,0.002513
12.090,55.1352,0.002513
12.109,55.1671,0.002513
12.134,55.2088,0.002513
12.154,55.2405,0.002513
12.170,55.2683,0.002513
12.185,55.2944,0.002513
12.201,55.3213,0.002400
12.217,55.3489,0.002400
12.233,55.3766,0.002400
12.249,55.4041,0.002400
12.266,55.4328,0.002400
12.288,55.4726,0.002400
12.304,55.5005,0.002400
12.319,55.5276,0.002400
12.336,55.5587,0.002400
12.355,55.5946,0.002400
12.374,55.6279,0.002400
12.397,55.6702,0.002400
12.415,55.7040,0.002400
12.432,55.7345,0.002400
12.448,55.7649,0.002269
12.463,55.7942,0.002269
12.479,55.8247,0.002269
12.496,55.8561,0.002269
12.511,55.8864,0.002269
12.528,55.9199,0.002269
12.543,55.9495,0.002269
12.559,55.9802,0.002269
12.575,56.0121,0.002269
12.591,56.0442,0.002269
12.608,56.0776,0.002269
12.624,56.1085,0.002269
12.640,56.1418,0.002269
12.656,56.1744,0.002269
12.672,56.2075,0.002269
12.688,56.2407,0.002156
12.703,56.2724,0.002156
12.720,56.3089,0.002156
12.736,56.3404,0.002156
12.751,56.3749,0.002156
12.767,56.4078,0.002156
12.784,56.4429,0.002156
12.799,56.4756,0.002156
12.815,56.5089,0.002156
12.841,56.5631,0.002156
12.858,56.5980,0.002156
12.874,56.6313,0.002156
12.890,56.6643,0.002156
12.922,56.7281,0.002156
12.938,56.7602,0.002156
12.953,56.7903,0.002156
12.971,56.8253,0.002156
12.999,56.8807,0.002156
13.018,56.9167,0.002156
13.035,56.9493,0.002156
13.050,56.9793,0.002156
13.065,57.0081,0.002156
13.082,57.0414,0.002156
13.098,57.0693,0.002156
13.114,57.0999,0.002156
13.130,57.1300,0.002156
13.146,57.1587,0.002156
13.161,57.1880,0.002156
13.178,57.2176,0.002146
13.193,57.2457,0.002146
13.209,57.2756,0.002146
13.226,57.3049,0.002146
13.241,57.3313,0.002146
13.257,57.3596,0.002146
13.273,57.3874,0.002146
13.289,57.4158,0.002146
13.305,57.4428,0.002146
13.321,57.4708,0.002146
13.337,57.4981,0.002146
13.362,57.5401,0.002146
13.378,57.5668,0.002146
13.395,57.5952,0.002146
13.411,57.6205,0.002146
13.427,57.6467,0.002109
13.442,57.6716,0.002109
13.458,57.6972,0.002109
13.475,57.7236,0.002109
13.491,57.7490,0.002109
13.506,57.7736,0.002109
13.522,57.7984,0.002109
13.538,57.8234,0.002109
13.554,57.8487,0.002109
13.571,57.8748,0.002109
13.589,57.9007,0.002109
13.619,57.9459,0.002109
13.634,57.9691,0.002109
13.650,57.9919,0.002109
13.666,58.0152,0.002109
13.682,58.0390,0.001986
13.699,58.0624,0.001986
13.715,58.0849,0.001986
13.742,58.1226,0.001986
13.762,58.1509,0.001986
13.778,58.1728,0.001986
13.795,58.1948,0.001986
13.810,58.2154,0.001986
13.826,58.2372,0.001986
13.843,58.2595,0.001986
13.866,58.2897,0.001986
13.897,58.3301,0.001986
13.913,58.3496,0.001986
13.944,58.3875,0.001854
13.960,58.4087,0.001854
13.991,58.4452,0.001854
14.021,58.4808,0.001854
14.051,58.5164,0.001854
14.074,58.5435,0.001854
14.097,58.5686,0.001854
14.115,58.5885,0.001854
14.134,58.6103,0.001854
14.159,58.6373,0.001854
14.178,58.6573,0.001845
14.194,58.6739,0.001845
14.211,58.6914,0.001845
14.226,58.7072,0.001845
14.242,58.7234,0.001845
14.258,58.7394,0.001845
14.274,58.7551,0.001845
14.290,58.7710,0.001845
14.306,58.7867,0.001845
14.322,58.8024,0.001845
14.338,58.8169,0.001845
14.354,58.8320,0.001845
14.370,58.8475,0.001845
14.387,58.8619,0.001845
14.402,58.8754,0.001845
14.419,58.8908,0.001845
14.434,58.9039,0.001845
14.450,58.9180,0.001807
14.465,58.9307,0.001807
14.482,58.9442,0.001807
14.498,58.9578,0.001807
14.514,58.9703,0.001807
14.530,58.9841,0.001807
14.546,58.9960,0.001807
14.562,59.0086,0.001807
14.578,59.0209,0.001807
14.594,59.0327,0.001807
14.611,59.0455,0.001807
14.626,59.0562,0.001807
14.643,59.0680,0.001807
14.671,59.0876,0.001807
14.690,59.1006,0.001807
14.707,59.1119,0.001741
14.722,59.1220,0.001741
14.738,59.1324,0.001741
14.755,59.1427,0.001741
14.780,59.1582,0.001741
14.795,59.1675,0.001741
14.826,59.1853,0.001741
14.856,59.2023,0.001741
14.872,59.2111,0.001741
14.904,59.2273,0.001741
14.934,59.2426,0.001741
14.965,59.2570,0.001666
14.995,59.2710,0.001666
15.011,59.2777,0.001666
15.040,59.2901,0.001666
15.058,59.2971,0.001666
15.073,59.3033,0.001666
15.090,59.3092,0.001666
15.106,59.3153,0.001666
15.122,59.3209,0.001666
15.137,59.3261,0.001666
15.155,59.3319,0.001666
15.178,59.3391,0.001666
15.209,59.3483,0.001497
15.239,59.3563,0.001497
15.255,59.3602,0.001497
15.270,59.3641,0.001497
15.287,59.3677,0.001497
15.318,59.3742,0.001497
15.349,59.3799,0.001497
15.379,59.3849,0.001497
15.395,59.3874,0.001497
15.410,59.3894,0.001497
15.426,59.3911,0.001497
15.441,59.3928,0.001497
15.470,59.3956,0.001186
15.488,59.3969,0.001186
15.519,59.3987,0.001186
15.549,59.3997,0.001186
15.564,59.3999,0.001186
15.581,59.4000,0.001186
15.596,59.4000,0.001186
15.613,59.4000,0.001186
15.629,59.4000,0.001186
15.645,59.4000,0.001186
15.660,59.4000,0.001186
15.676,59.4000,0.001186
15.693,59.4000,0.001092
15.709,59.4000,0.001092
15.725,59.4000,0.001092
15.752,59.4000,0.001092
15.772,59.4000,0.001092
15.790,59.4000,0.001092
15.814,59.4000,0.001092
15.845,59.4000,0.001092
15.861,59.4000,0.001092
15.892,59.4000,0.001092
15.923,59.4000,0.001092
15.953,59.4000,0.001299
15.983,59.4000,0.001299
16.000,59.4000,0.001299
16.026,59.4000,0.001299
16.041,59.4000,0.001299
16.057,59.4000,0.001299
16.074,59.4000,0.001299
16.089,59.4000,0.001299
16.105,59.4000,0.001299
16.121,59.4000,0.001299
16.137,59.4000,0.001299
16.157,59.4000,0.001299
16.185,59.4000,0.001459
16.201,59.4000,0.001459
16.218,59.4000,0.001459
16.234,59.4000,0.001459
16.250,59.4000,0.001459
16.265,59.4000,0.001459
16.281,59.4000,0.001459
16.297,59.4000,0.001459
16.313,59.4000,0.001459
16.329,59.4000,0.001459
16.346,59.4000,0.001459
16.362,59.4000,0.001459
16.377,59.4000,0.001459
16.393,59.4000,0.001459
16.410,59.4000,0.001459
16.425,59.4000,0.001516
16.441,59.4000,0.001516
16.458,59.4000,0.001516
16.474,59.4000,0.001516
16.490,59.4000,0.001516
16.505,59.4000,0.001516
16.522,59.4000,0.001516
16.538,59.4000,0.001516
16.562,59.4000,0.001516
16.587,59.4000,0.001516
16.619,59.4000,0.001516
16.640,59.4000,0.001516
16.656,59.4000,0.001516
16.672,59.4000,0.001506
16.688,59.4000,0.001506
16.704,59.4000,0.001506
16.721,59.4000,0.001506
16.736,59.4000,0.001506
16.752,59.4000,0.001506
16.768,59.4000,0.001506
16.784,59.4000,0.001506
16.800,59.4000,0.001506
16.816,59.4000,0.001506
16.832,59.4000,0.001506
16.848,59.4000,0.001506
16.864,59.4000,0.001506
16.880,59.4000,0.001506
16.898,59.4000,0.001506
16.928,59.4000,0.001516
16.945,59.4000,0.001516
16.961,59.4000,0.001516
16.990,59.4000,0.001516
17.008,59.4000,0.001516
17.026,59.4000,0.001516
17.051,59.4000,0.001516
17.072,59.4000,0.001516
17.088,59.4000,0.001516
17.104,59.4000,0.001516
17.120,59.4000,0.001516
17.136,59.4000,0.001516
17.152,59.4000,0.001516
17.168,59.4000,0.001516
17.184,59.4000,0.001525
17.200,59.4000,0.001525
17.216,59.4000,0.001525
17.232,59.4000,0.001525
17.248,59.4000,0.001525
17.265,59.4000,0.001525
17.280,59.4000,0.001525
17.296,59.4000,0.001525
17.312,59.4000,0.001525
17.329,59.4000,0.001525
17.347,59.4000,0.001525
17.378,59.4000,0.001525
17.409,59.4000,0.001525
17.424,59.4000,0.001478
17.440,59.4000,0.001478
17.456,59.4000,0.001478
17.472,59.4000,0.001478
17.488,59.4000,0.001478
17.504,59.4000,0.001478
17.520,59.4000,0.001478
17.536,59.4000,0.001478
17.552,59.4000,0.001478
17.568,59.4000,0.001478
17.584,59.4000,0.001478
17.605,59.4000,0.001478
17.621,59.4000,0.001478
17.637,59.4000,0.001478
17.653,59.4000,0.001478
17.669,59.4000,0.001478
17.685,59.4000,0.001459
17.702,59.4000,0.001459
17.733,59.4000,0.001459
17.749,59.4000,0.001459
17.765,59.4000,0.001459
17.781,59.4000,0.001459
17.797,59.4000,0.001459
17.813,59.4000,0.001459
17.830,59.4000,0.001459
17.857,59.4000,0.001459
17.877,59.4000,0.001459
17.893,59.4000,0.001459
17.909,59.4000,0.001459
17.925,59.4000,0.001478
17.941,59.4000,0.001478
17.957,59.4000,0.001478
17.973,59.4000,0.001478
17.989,59.4000,0.001478
18.005,59.4000,0.001478
18.022,59.4000,0.001478
18.037,59.4000,0.001478
18.053,59.4000,0.001478
18.069,59.4000,0.001478
18.085,59.4000,0.001478
18.101,59.4000,0.001478
18.131,59.4000,0.001478
18.146,59.4000,0.001478
18.162,59.4000,0.001478
18.178,59.4000,0.001497
18.194,59.4000,0.001497
18.210,59.4000,0.001497
18.225,59.4000,0.001497
18.242,59.4000,0.001497
18.259,59.4000,0.001497
18.274,59.4000,0.001497
18.289,59.4000,0.001497
18.306,59.4000,0.001497
18.321,59.4000,0.001497
18.337,59.4000,0.001497
18.353,59.4000,0.001497
18.371,59.4000,0.001497
18.396,59.4000,0.001497
18.426,59.4000,0.001497
18.456,59.4000,0.001459
18.486,59.4000,0.001459
18.502,59.4000,0.001459
18.517,59.4000,0.001459
18.533,59.4000,0.001459
18.549,59.4000,0.001459
18.580,59.4000,0.001459
18.610,59.4000,0.001459
18.626,59.4000,0.001459
18.642,59.4000,0.001459
18.667,59.4000,0.001459
18.684,59.4000,0.001459
18.700,59.4000,0.001487
18.716,59.4000,0.001487
18.731,59.4000,0.001487
18.747,59.4000,0.001487
18.763,59.4000,0.001487
18.779,59.4000,0.001487
18.796,59.4000,0.001487
18.811,59.4000,0.001487
18.828,59.4000,0.001487
18.845,59.4000,0.001487
18.860,59.4000,0.001487
18.876,59.4000,0.001487
18.891,59.4000,0.001487
18.908,59.4000,0.001487
18.936,59.4000,0.001525
18.955,59.4000,0.001525
18.972,59.4000,0.001525
18.987,59.4000,0.001525
19.004,59.4000,0.001525
19.020,59.4000,0.001525
19.035,59.4000,0.001525
19.052,59.4000,0.001525
19.067,59.4000,0.001525
19.083,59.4000,0.001525
19.100,59.4000,0.001525
19.120,59.4000,0.001525
19.152,59.4000,0.001525
19.172,59.4000,0.001525
19.199,59.4000,0.001525
19.226,59.4000,0.001525
19.242,59.4000,0.001525
19.257,59.4000,0.001525
19.273,59.4000,0.001525
19.290,59.4000,0.001525
19.306,59.4000,0.001525
19.321,59.4000,0.001525
19.337,59.4000,0.001525
19.354,59.4000,0.001525
19.376,59.4000,0.001525
19.401,59.4000,0.001525
19.419,59.4000,0.001525
19.447,59.4000,0.001478
19.466,59.4000,0.001478
19.482,59.4000,0.001478
19.497,59.4000,0.001478
19.513,59.4000,0.001478
19.529,59.4000,0.001478
19.547,59.4000,0.001478
19.572,59.4000,0.001478
19.594,59.4000,0.001478
19.610,59.4000,0.001478
19.626,59.4000,0.001478
19.641,59.4000,0.001478
19.658,59.4000,0.001478
19.674,59.4000,0.001478
19.689,59.4000,0.001365
19.705,59.4000,0.001365
19.722,59.4000,0.001365
19.738,59.4000,0.001365
19.763,59.4000,0.001365
19.791,59.4000,0.001365
19.810,59.4000,0.001365
19.825,59.4000,0.001365
19.841,59.4000,0.001365
19.858,59.3999,0.001365
19.873,59.3997,0.001365
19.889,59.3992,0.001365
19.905,59.3984,0.001365
19.922,59.3976,0.001365
19.938,59.3964,0.001280
19.962,59.3945,0.001280
19.992,59.3912,0.001280
20.008,59.3895,0.001280
20.038,59.3853,0.001280
20.070,59.3802,0.001280
20.101,59.3744,0.001280
20.118,59.3710,0.001280
20.149,59.3641,0.001280
20.164,59.3603,0.001280
20.180,59.3563,0.001280
20.196,59.3524,0.002137
20.211,59.3482,0.002137
20.229,59.3430,0.002137
20.257,59.3342,0.002137
20.282,59.3264,0.002137
20.298,59.3207,0.002137
20.315,59.3150,0.002137
20.330,59.3094,0.002137
20.346,59.3033,0.002137
20.362,59.2972,0.002137
20.378,59.2908,0.002137
20.394,59.2839,0.002137
20.410,59.2771,0.002137
20.426,59.2703,0.004951
20.442,59.2631,0.004951
20.458,59.2557,0.004951
20.474,59.2480,0.004951
20.490,59.2402,0.004951
20.506,59.2320,0.004951
20.529,59.2206,0.004951
20.551,59.2087,0.004951
20.570,59.1985,0.004951
20.586,59.1894,0.004951
20.602,59.1808,0.004951
20.618,59.1715,0.004951
20.635,59.1612,0.004951
20.660,59.1459,0.004951
20.676,59.1352,0.004518
20.698,59.1214,0.004518
20.714,59.1114,0.004518
20.730,59.1006,0.004518
20.746,59.0896,0.004518
20.762,59.0786,0.004518
20.779,59.0665,0.004518
20.800,59.0513,0.004518
20.816,59.0401,0.004518
20.832,59.0283,0.004518
20.863,59.0046,0.004518
20.879,58.9921,0.004518
20.909,58.9678,0.004518
20.941,58.9419,0.001996
20.971,58.9156,0.001996
21.002,58.8894,0.001996
21.018,58.8749,0.001996
21.034,58.8613,0.001996
21.050,58.8464,0.001996
21.066,58.8316,0.001996
21.083,58.8164,0.001996
21.111,58.7891,0.001996
21.131,58.7704,0.001996
21.146,58.7549,0.001996
21.162,58.7395,0.001996
21.180,58.7199,0.001996
21.203,58.6972,0.001996
21.234,58.6652,0.001770
21.250,58.6480,0.001770
21.266,58.6313,0.001770
21.282,58.6136,0.001770
21.313,58.5791,0.001770
21.344,58.5450,0.001770
21.360,58.5262,0.001770
21.390,58.4914,0.001770
21.420,58.4556,0.001770
21.450,58.4200,0.001789
21.466,58.3993,0.001789
21.482,58.3802,0.001789
21.498,58.3602,0.001789
21.514,58.3407,0.001789
21.533,58.3166,0.001789
21.559,58.2817,0.001789
21.578,58.2580,0.001789
21.594,58.2363,0.001789
21.611,58.2134,0.001789
21.636,58.1798,0.001789
21.651,58.1588,0.001789
21.682,58.1168,0.001836
21.698,58.0946,0.001836
21.728,58.0503,0.001836
21.744,58.0271,0.001836
21.775,57.9827,0.001836
21.806,57.9379,0.001836
21.837,57.8922,0.001836
21.867,57.8438,0.001836
21.894,57.8043,0.001836
21.909,57.7799,0.001836
21.926,57.7540,0.001864
21.941,57.7296,0.001864
21.958,57.7019,0.001864
21.978,57.6710,0.001864
22.007,57.6228,0.001864
22.037,57.5739,0.001864
22.053,57.5459,0.001864
22.069,57.5190,0.001864
22.086,57.4917,0.001864
22.102,57.4644,0.001864
22.118,57.4374,0.001864
22.133,57.4106,0.001864
22.150,57.3817,0.001864
22.166,57.3532,0.001864
22.191,57.3085,0.001930
22.223,57.2502,0.001930
22.253,57.1960,0.001930
22.283,57.1407,0.001930
22.300,57.1112,0.001930
22.330,57.0543,0.001930
22.350,57.0166,0.001930
22.376,56.9663,0.001930
22.408,56.9049,0.001930
22.438,56.8453,0.002061
22.454,56.8139,0.002061
22.470,56.7835,0.002061
22.485,56.7528,0.002061
22.501,56.7211,0.002061
22.518,56.6852,0.002061
22.547,56.6264,0.002061
22.565,56.5892,0.002061
22.582,56.5553,0.002061
22.598,56.5213,0.002061
22.624,56.4681,0.002061
22.639,56.4336,0.002061
22.664,56.3840,0.002061
22.686,56.3363,0.002061
22.716,56.2719,0.002231
22.748,56.2058,0.002231
22.779,56.1416,0.002231
22.810,56.0779,0.002231
22.826,56.0442,0.002231
22.841,56.0148,0.002231
22.872,55.9523,0.002231
22.889,55.9192,0.002231
22.905,55.8883,0.002231
22.935,55.8296,0.002222
22.966,55.7692,0.002222
22.981,55.7410,0.002222
22.997,55.7106,0.002222
23.013,55.6796,0.002222
23.029,55.6509,0.002222
23.045,55.6215,0.002222
23.062,55.5894,0.002222
23.077,55.5611,0.002222
23.093,55.5334,0.002222
23.109,55.5043,0.002222
23.125,55.4754,0.002222
23.142,55.4450,0.002222
23.157,55.4184,0.002222
23.173,55.3904,0.002203
23.189,55.3616,0.002203
23.205,55.3333,0.002203
23.221,55.3066,0.002203
23.237,55.2795,0.002203
23.254,55.2496,0.002203
23.269,55.2238,0.002203
23.285,55.1984,0.002203
23.302,55.1690,0.002203
23.318,55.1429,0.002203
23.339,55.1088,0.002203
23.368,55.0607,0.002203
23.384,55.0369,0.002203
23.414,54.9888,0.002203
23.429,54.9647,0.002203
23.456,54.9224,0.002344
23.475,54.8939,0.002344
23.491,54.8697,0.002344
23.506,54.8455,0.002344
23.537,54.7999,0.002344
23.553,54.7774,0.002344
23.569,54.7537,0.002344
23.585,54.7301,0.002344
23.600,54.7081,0.002344
23.616,54.6855,0.002344
23.632,54.6637,0.002344
23.647,54.6420,0.002344
23.664,54.6182,0.002344
23.694,54.5770,0.002523
23.712,54.5528,0.002523
23.741,54.5128,0.002523
23.759,54.4902,0.002523
23.775,54.4691,0.002523
23.791,54.4485,0.002523
23.807,54.4278,0.002523
23.823,54.4081,0.002523
23.839,54.3871,0.002523
23.855,54.3678,0.002523
23.871,54.3486,0.002523
23.888,54.3270,0.002523
23.907,54.3033,0.002523
23.929,54.2779,0.002523
23.960,54.2403,0.002626
23.983,54.2150,0.002626
23.999,54.1964,0.002626
24.015,54.1791,0.002626
24.031,54.1614,0.002626
24.051,54.1383,0.002626
24.069,54.1199,0.002626
24.100,54.0865,0.002626
24.131,54.0538,0.002626
24.162,54.0223,0.002626
24.179,54.0058,0.002626
24.209,53.9759,0.002645
24.240,53.9459,0.002645
24.270,53.9177,0.002645
24.288,53.9011,0.002645
24.304,53.8872,0.002645
24.320,53.8723,0.002645
24.336,53.8584,0.002645
24.363,53.8344,0.002645
24.382,53.8184,0.002645
24.398,53.8050,0.002645
24.415,53.7914,0.002645
24.430,53.7787,0.002815
24.446,53.7660,0.002815
24.464,53.7523,0.002815
24.479,53.7407,0.002815
24.494,53.7287,0.002815
24.511,53.7167,0.002815
24.537,53.6973,0.002815
24.552,53.6859,0.002815
24.568,53.6752,0.002815
24.584,53.6641,0.002815
24.600,53.6528,0.002815
24.615,53.6426,0.002815
24.631,53.6322,0.002815
24.648,53.6218,0.002815
24.663,53.6116,0.002815
24.679,53.6017,0.002909
24.695,53.5919,0.002909
24.712,53.5815,0.002909
24.739,53.5660,0.002909
24.759,53.5548,0.002909
24.775,53.5460,0.002909
24.791,53.5373,0.002909
24.807,53.5288,0.002909
24.823,53.5203,0.002909
24.840,53.5120,0.002909
24.856,53.5045,0.002909
24.871,53.4971,0.002909
24.887,53.4896,0.002909
24.904,53.4816,0.002909
24.920,53.4751,0.002909
24.935,53.4685,0.002928
24.951,53.4619,0.002928
24.969,53.4540,0.002928
24.988,53.4472,0.002928
25.011,53.4386,0.002928
25.032,53.4312,0.002928
25.047,53.4258,0.002928
25.063,53.4205,0.002928
25.087,53.4130,0.002928
25.105,53.4075,0.002928
25.122,53.4026,0.002928
25.153,53.3943,0.002928
25.175,53.3889,0.002928
25.199,53.3832,0.003003
25.229,53.3767,0.003003
25.246,53.3735,0.003003
25.262,53.3706,0.003003
25.278,53.3678,0.003003
25.294,53.3653,0.003003
25.310,53.3629,0.003003
25.325,53.3610,0.003003
25.344,53.3586,0.003003
25.369,53.3560,0.003003
25.389,53.3543,0.003003
25.406,53.3530,0.003003
25.422,53.3520,0.003003
25.437,53.3513,0.003088
25.454,53.3507,0.003088
25.469,53.3503,0.003088
25.486,53.3500,0.003088
25.501,53.3500,0.003088
25.518,53.3500,0.003088
25.534,53.3500,0.003088
25.550,53.3500,0.003088
25.566,53.3500,0.003088
25.582,53.3500,0.003088
25.607,53.3500,0.003088
25.624,53.3500,0.003088
25.640,53.3500,0.003088
25.656,53.3500,0.003088
25.671,53.3500,0.003182
25.687,53.3500,0.003182
25.703,53.3503,0.003182
25.719,53.3507,0.003182
25.735,53.3512,0.003182
25.751,53.3519,0.003182
25.769,53.3530,0.003182
25.784,53.3541,0.003182
25.805,53.3559,0.003182
25.821,53.3576,0.003182
25.852,53.3613,0.003182
25.882,53.3657,0.003182
25.914,53.3708,0.003182
25.944,53.3765,0.003144
25.975,53.3832,0.003144
25.991,53.3869,0.003144
26.008,53.3910,0.003144
26.037,53.3985,0.003144
26.055,53.4034,0.003144
26.071,53.4081,0.003144
26.087,53.4128,0.003144
26.103,53.4178,0.003144
26.120,53.4233,0.003144
26.140,53.4302,0.003144
26.156,53.4360,0.003144
26.172,53.4417,0.003088
26.188,53.4478,0.003088
26.204,53.4540,0.003088
26.221,53.4608,0.003088
26.238,53.4679,0.003088
26.255,53.4754,0.003088
26.284,53.4885,0.003088
26.300,53.4955,0.003088
26.319,53.5056,0.003088
26.338,53.5136,0.003088
26.361,53.5259,0.003088
26.380,53.5358,0.003088
26.396,53.5444,0.003088
26.412,53.5528,0.003088
26.428,53.5620,0.003059
26.444,53.5713,0.003059
26.460,53.5806,0.003059
26.476,53.5898,0.003059
26.493,53.6003,0.003059
26.509,53.6100,0.003059
26.524,53.6198,0.003059
26.540,53.6301,0.003059
26.556,53.6405,0.003059
26.572,53.6515,0.003059
26.588,53.6623,0.003059
26.604,53.6737,0.003059
26.621,53.6854,0.003059
26.636,53.6961,0.003059
26.652,53.7079,0.003059
26.682,53.7301,0.003059
26.698,53.7426,0.003059
26.714,53.7551,0.002956
26.730,53.7673,0.002956
26.747,53.7810,0.002956
26.762,53.7931,0.002956
26.778,53.8062,0.002956
26.794,53.8201,0.002956
26.810,53.8341,0.002956
26.826,53.8471,0.002956
26.842,53.8616,0.002956
26.858,53.8753,0.002956
26.874,53.8900,0.002956
26.890,53.9048,0.002956
26.906,53.9187,0.002956
26.922,53.9341,0.002956
26.938,53.9497,0.002956
26.954,53.9647,0.002956
26.970,53.9796,0.002833
26.986,53.9958,0.002833
27.002,54.0123,0.002833
27.018,54.0273,0.002833
27.034,54.0436,0.002833
27.050,54.0606,0.002833
27.066,54.0782,0.002833
27.082,54.0938,0.002833
27.098,54.1112,0.002833
27.114,54.1285,0.002833
27.130,54.1462,0.002833
27.146,54.1635,0.002833
27.162,54.1816,0.002833
27.178,54.1995,0.002833
27.205,54.2309,0.002777
27.221,54.2481,0.002777
27.244,54.2755,0.002777
27.274,54.3118,0.002777
27.305,54.3500,0.002777
27.327,54.3772,0.002777
27.348,54.4029,0.002777
27.364,54.4228,0.002777
27.380,54.4442,0.002777
27.395,54.4643,0.002777
27.412,54.4849,0.002777
27.428,54.5078,0.002777
27.444,54.5285,0.002777
27.460,54.5495,0.002720
27.475,54.5702,0.002720
27.492,54.5936,0.002720
27.508,54.6147,0.002720
27.523,54.6364,0.002720
27.539,54.6587,0.002720
27.556,54.6819,0.002720
27.572,54.7048,0.002720
27.587,54.7270,0.002720
27.605,54.7525,0.002720
27.621,54.7754,0.002720
27.636,54.7986,0.002720
27.651,54.8211,0.002720
27.667,54.8449,0.002720
27.683,54.8700,0.002720
27.699,54.8944,0.002720
27.716,54.9186,0.002720
27.732,54.9436,0.002560
27.748,54.9687,0.002560
27.763,54.9929,0.002560
27.780,55.0189,0.002560
27.796,55.0448,0.002560
27.811,55.0699,0.002560
27.828,55.0968,0.002560
27.843,55.1216,0.002560
27.860,55.1485,0.002560
27.876,55.1751,0.002560
27.891,55.2008,0.002560
27.908,55.2296,0.002560
27.929,55.2678,0.002560
27.955,55.3090,0.002429
27.973,55.3404,0.002429
28.002,55.3906,0.002429
28.019,55.4214,0.002429
28.036,55.4516,0.002429
28.051,55.4788,0.002429
28.068,55.5088,0.002429
28.083,55.5362,0.002429
28.100,55.5670,0.002429
28.117,55.5986,0.002429
28.140,55.6429,0.002429
28.156,55.6703,0.002429
28.188,55.7309,0.002259
28.218,55.7886,0.002259
28.249,55.8485,0.002259
28.279,55.9079,0.002259
28.295,55.9388,0.002259
28.310,55.9687,0.002259
28.326,56.0013,0.002259
28.356,56.0610,0.002259
28.371,56.0916,0.002259
28.388,56.1266,0.002259
28.406,56.1648,0.002259
28.434,56.2212,0.002165
28.452,56.2577,0.002165
28.468,56.2925,0.002165
28.483,56.3249,0.002165
28.500,56.3608,0.002165
28.515,56.3921,0.002165
28.531,56.4271,0.002165
28.548,56.4610,0.002165
28.563,56.4926,0.002165
28.579,56.5265,0.002165
28.596,56.5595,0.002165
28.611,56.5918,0.002165
28.627,56.6244,0.002165
28.643,56.6565,0.002165
28.659,56.6891,0.002165
28.675,56.7221,0.002203
28.691,56.7528,0.002203
28.707,56.7849,0.002203
28.724,56.8189,0.002203
28.744,56.8574,0.002203
28.774,56.9144,0.002203
28.797,56.9588,0.002203
28.813,56.9900,0.002203
28.829,57.0193,0.002203
28.845,57.0492,0.002203
28.861,57.0796,0.002203
28.877,57.1087,0.002203
28.893,57.1381,0.002203
28.910,57.1686,0.002203
28.929,57.2033,0.002193
28.959,57.2578,0.002193
28.991,57.3145,0.002193
29.007,57.3426,0.002193
29.038,57.3954,0.002193
29.069,57.4475,0.002193
29.086,57.4767,0.002193
29.101,57.5025,0.002193
29.117,57.5284,0.002193
29.133,57.5549,0.002193
29.155,57.5914,0.002193
29.177,57.6267,0.002080
29.197,57.6594,0.002080
29.213,57.6859,0.002080
29.229,57.7097,0.002080
29.245,57.7354,0.002080
29.261,57.7598,0.002080
29.277,57.7844,0.002080
29.293,57.8091,0.002080
29.309,57.8339,0.002080
29.325,57.8583,0.002080
29.341,57.8820,0.002080
29.357,57.9053,0.002080
29.373,57.9289,0.002080
29.389,57.9527,0.002080
29.405,57.9755,0.002080
29.421,57.9983,0.002080
29.437,58.0219,0.001939
29.453,58.0437,0.001939
29.469,58.0676,0.001939
29.485,58.0892,0.001939
29.503,58.1128,0.001939
29.518,58.1338,0.001939
29.533,58.1547,0.001939
29.549,58.1748,0.001939
29.566,58.1984,0.001939
29.595,58.2356,0.001939
29.613,58.2593,0.001939
29.629,58.2797,0.001939
29.645,58.2997,0.001939
29.661,58.3202,0.001939
29.677,58.3394,0.001873
29.693,58.3600,0.001873
29.709,58.3788,0.001873
29.725,58.3982,0.001873
29.741,58.4171,0.001873
29.758,58.4379,0.001873
29.780,58.4637,0.001873
29.810,58.4978,0.001873
29.826,58.5160,0.001873
29.857,58.5500,0.001873
29.873,58.5683,0.001873
29.904,58.6016,0.001873
29.935,58.6342,0.001873
29.952,58.6509,0.001873
29.982,58.6822,0.001798
29.998,58.6978,0.001798
30.013,58.7129,0.001798
30.029,58.7283,0.001798
30.044,58.7432,0.001798
30.062,58.7596,0.001798
30.092,58.7876,0.001798
30.109,58.8035,0.001798
30.125,58.8180,0.001798
30.141,58.8319,0.001798
30.157,58.8459,0.001798
30.173,58.8600,0.001798
30.189,58.8737,0.001798
30.205,58.8872,0.001760
30.221,58.9001,0.001760
30.237,58.9135,0.001760
30.253,58.9268,0.001760
30.269,58.9395,0.001760
30.284,58.9514,0.001760
30.300,58.9637,0.001760
30.317,58.9764,0.001760
30.332,58.9878,0.001760
30.349,58.9998,0.001760
30.364,59.0111,0.001760
30.391,59.0302,0.001760
30.407,59.0414,0.001760
30.424,59.0528,0.001760
30.440,59.0633,0.001760
30.455,59.0731,0.001704
30.471,59.0834,0.001704
30.487,59.0934,0.001704
30.504,59.1037,0.001704
30.519,59.1130,0.001704
30.535,59.1226,0.001704
30.553,59.1326,0.001704
30.568,59.1413,0.001704
30.583,59.1499,0.001704
30.599,59.1584,0.001704
30.616,59.1672,0.001704
30.632,59.1757,0.001704
30.647,59.1836,0.001704
30.663,59.1914,0.001704
30.680,59.1992,0.001704
30.696,59.2069,0.001704
30.711,59.2141,0.001647
30.727,59.2212,0.001647
30.747,59.2299,0.001647
30.770,59.2395,0.001647
30.791,59.2480,0.001647
30.807,59.2542,0.001647
30.823,59.2603,0.001647
30.839,59.2658,0.001647
30.856,59.2715,0.001647
30.872,59.2771,0.001647
30.888,59.2823,0.001647
30.903,59.2872,0.001647
30.927,59.2941,0.001647
30.942,59.2986,0.001647
30.960,59.3034,0.001487
30.988,59.3106,0.001487
31.008,59.3156,0.001487
31.028,59.3197,0.001487
31.050,59.3244,0.001487
31.071,59.3283,0.001487
31.086,59.3310,0.001487
31.102,59.3337,0.001487
31.119,59.3362,0.001487
31.135,59.3383,0.001487
31.150,59.3404,0.001487
31.166,59.3421,0.001487
31.183,59.3440,0.001487
31.199,59.3453,0.001167
31.214,59.3465,0.001167
31.231,59.3477,0.001167
31.255,59.3489,0.001167
31.282,59.3497,0.001167
31.299,59.3501,0.001167
31.329,59.3501,0.001167
31.345,59.3501,0.001167
31.375,59.3501,0.001167
31.390,59.3501,0.001167
31.407,59.3501,0.001167
31.422,59.3501,0.001167
31.438,59.3501,0.001167
31.463,59.3501,0.001111
31.486,59.3501,0.001111
31.513,59.3501,0.001111
31.529,59.3501,0.001111
31.545,59.3501,0.001111
31.575,59.3501,0.001111
31.597,59.3501,0.001111
31.622,59.3501,0.001111
31.638,59.3501,0.001111
31.654,59.3501,0.001111
31.671,59.3501,0.001327
31.686,59.3501,0.001327
31.702,59.3501,0.001327
31.718,59.3501,0.001327
31.734,59.3501,0.001327
31.750,59.3501,0.001327
31.766,59.3501,0.001327
31.782,59.3501,0.001327
31.798,59.3501,0.001327
31.814,59.3501,0.001327
31.830,59.3501,0.001327
31.846,59.3501,0.001327
31.862,59.3501,0.001327
31.878,59.3501,0.001327
31.895,59.3501,0.001327
31.910,59.3501,0.001327
31.926,59.3501,0.001516
31.942,59.3501,0.001516
31.958,59.3501,0.001516
31.974,59.3501,0.001516
31.990,59.3501,0.001516
32.006,59.3501,0.001516
32.022,59.3501,0.001516
32.038,59.3501,0.001516
32.055,59.3501,0.001516
32.070,59.3501,0.001516
32.086,59.3501,0.001516
32.102,59.3501,0.001516
32.118,59.3501,0.001516
32.137,59.3501,0.001516
32.163,59.3501,0.001516
32.182,59.3501,0.001553
32.203,59.3501,0.001553
32.227,59.3501,0.001553
32.247,59.3501,0.001553
32.262,59.3501,0.001553
32.278,59.3501,0.001553
32.294,59.3501,0.001553
32.310,59.3501,0.001553
32.326,59.3501,0.001553
32.342,59.3501,0.001553
32.358,59.3501,0.001553
32.374,59.3501,0.001553
32.391,59.3501,0.001553
32.406,59.3501,0.001553
32.422,59.3501,0.001534
32.439,59.3501,0.001534
32.458,59.3501,0.001534
32.489,59.3501,0.001534
32.520,59.3501,0.001534
32.546,59.3501,0.001534
32.562,59.3501,0.001534
32.578,59.3501,0.001534
32.594,59.3501,0.001534
32.610,59.3501,0.001534
32.626,59.3501,0.001534
32.643,59.3501,0.001534
32.660,59.3501,0.001534
32.675,59.3501,0.001534
32.691,59.3501,0.001487
32.706,59.3501,0.001487
32.722,59.3501,0.001487
32.738,59.3501,0.001487
32.755,59.3501,0.001487
32.770,59.3501,0.001487
32.787,59.3501,0.001487
32.803,59.3501,0.001487
32.819,59.3501,0.001487
32.834,59.3501,0.001487
32.850,59.3501,0.001487
32.867,59.3501,0.001487
32.882,59.3501,0.001487
32.898,59.3501,0.001487
32.914,59.3501,0.001487
32.930,59.3501,0.001468
32.946,59.3501,0.001468
32.962,59.3501,0.001468
32.978,59.3501,0.001468
32.993,59.3501,0.001468
33.010,59.3501,0.001468
33.026,59.3501,0.001468
33.042,59.3501,0.001468
33.057,59.3501,0.001468
33.073,59.3501,0.001468
33.090,59.3501,0.001468
33.105,59.3501,0.001468
33.122,59.3501,0.001468
33.138,59.3501,0.001468
33.155,59.3501,0.001468
33.184,59.3501,0.001534
33.202,59.3501,0.001534
33.218,59.3501,0.001534
33.233,59.3501,0.001534
33.250,59.3501,0.001534
33.266,59.3501,0.001534
33.282,59.3501,0.001534
33.298,59.3501,0.001534
33.313,59.3501,0.001534
33.329,59.3501,0.001534
33.346,59.3501,0.001534
33.362,59.3501,0.001534
33.378,59.3501,0.001534
33.394,59.3501,0.001534
33.410,59.3501,0.001534
33.425,59.3501,0.001544
33.442,59.3501,0.001544
33.458,59.3501,0.001544
33.474,59.3501,0.001544
33.490,59.3501,0.001544
33.505,59.3501,0.001544
33.521,59.3501,0.001544
33.538,59.3501,0.001544
33.553,59.3501,0.001544
33.570,59.3501,0.001544
33.585,59.3501,0.001544
33.610,59.3501,0.001544
33.626,59.3501,0.001544
33.643,59.3501,0.001544
33.659,59.3501,0.001544
33.674,59.3501,0.001525
33.690,59.3501,0.001525
33.707,59.3501,0.001525
33.722,59.3501,0.001525
33.738,59.3501,0.001525
33.754,59.3501,0.001525
33.770,59.3501,0.001525
33.786,59.3501,0.001525
33.803,59.3501,0.001525
33.818,59.3501,0.001525
33.834,59.3501,0.001525
33.851,59.3501,0.001525
33.866,59.3501,0.001525
33.882,59.3501,0.001525
33.898,59.3501,0.001525
33.914,59.3501,0.001525
33.930,59.3501,0.001534
33.946,59.3501,0.001534
33.963,59.3501,0.001534
33.978,59.3501,0.001534
33.995,59.3501,0.001534
34.011,59.3501,0.001534
34.026,59.3501,0.001534
34.043,59.3501,0.001534
34.059,59.3501,0.001534
34.074,59.3501,0.001534
34.091,59.3501,0.001534
34.106,59.3501,0.001534
34.122,59.3501,0.001534
34.138,59.3501,0.001534
34.155,59.3501,0.001534
34.171,59.3501,0.001534
34.186,59.3501,0.001534
34.203,59.3501,0.001516
34.218,59.3501,0.001516
34.234,59.3501,0.001516
34.250,59.3501,0.001516
34.266,59.3501,0.001516
34.282,59.3501,0.001516
34.298,59.3501,0.001516
34.314,59.3501,0.001516
34.330,59.3501,0.001516
34.346,59.3501,0.001516
34.362,59.3501,0.001516
34.378,59.3501,0.001516
34.394,59.3501,0.001516
34.410,59.3501,0.001516
34.433,59.3501,0.001516
34.456,59.3501,0.001487
34.474,59.3501,0.001487
34.490,59.3501,0.001487
34.506,59.3501,0.001487
34.522,59.3501,0.001487
34.538,59.3501,0.001487
34.555,59.3501,0.001487
34.572,59.3501,0.001487
34.596,59.3501,0.001487
34.627,59.3501,0.001487
34.656,59.3501,0.001487
34.672,59.3501,0.001487
34.687,59.3501,0.001487
34.718,59.3501,0.001468
34.740,59.3501,0.001468
34.764,59.3501,0.001468
34.795,59.3501,0.001468
34.810,59.3501,0.001468
34.826,59.3501,0.001468
34.845,59.3501,0.001468
34.873,59.3501,0.001468
34.890,59.3501,0.001468
34.906,59.3501,0.001468
34.927,59.3501,0.001468
34.951,59.3501,0.001478
34.975,59.3501,0.001478
34.998,59.3501,0.001478
35.018,59.3501,0.001478
35.034,59.3501,0.001478
35.050,59.3501,0.001478
35.066,59.3501,0.001478
35.082,59.3501,0.001478
35.098,59.3501,0.001478
35.114,59.3501,0.001478
35.130,59.3501,0.001478
35.146,59.3501,0.001478
35.163,59.3501,0.001478
35.183,59.3501,0.001478
35.198,59.3501,0.001478
35.214,59.3501,0.001450
35.229,59.3501,0.001450
35.245,59.3501,0.001450
35.261,59.3501,0.001450
35.291,59.3501,0.001450
35.322,59.3501,0.001450
35.339,59.3501,0.001450
35.369,59.3501,0.001450
35.387,59.3501,0.001450
35.402,59.3501,0.001450
35.418,59.3501,0.001450
35.434,59.3501,0.001450
35.450,59.3501,0.001450
35.466,59.3501,0.001327
35.482,59.3501,0.001327
35.499,59.3501,0.001327
35.524,59.3501,0.001327
35.556,59.3501,0.001327
35.586,59.3501,0.001327
35.616,59.3499,0.001327
35.647,59.3492,0.001327
35.678,59.3476,0.001327
35.694,59.3465,0.001327
35.724,59.3440,0.001261
35.756,59.3405,0.001261
35.786,59.3367,0.001261
35.803,59.3342,0.001261
35.818,59.3317,0.001261
35.834,59.3290,0.001261
35.850,59.3260,0.001261
35.867,59.3226,0.001261
35.894,59.3167,0.001261
35.914,59.3120,0.001261
35.930,59.3083,0.001261
35.945,59.3043,0.002061
35.962,59.2999,0.002061
35.977,59.2955,0.002061
35.993,59.2906,0.002061
36.009,59.2858,0.002061
36.026,59.2806,0.002061
36.041,59.2754,0.002061
36.058,59.2698,0.002061
36.073,59.2644,0.002061
36.090,59.2584,0.002061
36.106,59.2519,0.002061
36.129,59.2429,0.002061
36.155,59.2321,0.002061
36.171,59.2255,0.002061
36.187,59.2183,0.002061
36.203,59.2105,0.004838
36.234,59.1969,0.004838
36.258,59.1851,0.004838
36.274,59.1769,0.004838
36.296,59.1653,0.004838
36.312,59.1567,0.004838
36.344,59.1390,0.004838
36.374,59.1215,0.004838
36.405,59.1027,0.004838
36.421,59.0934,0.004838
36.452,59.0735,0.004518
36.482,59.0533,0.004518
36.497,59.0435,0.004518
36.513,59.0327,0.004518
36.530,59.0208,0.004518
36.545,59.0101,0.004518
36.563,58.9971,0.004518
36.591,58.9762,0.004518
36.610,58.9624,0.004518
36.626,58.9496,0.004518
36.643,58.9366,0.004518
36.669,58.9155,0.004518
36.690,58.8987,0.004518
36.706,58.8855,0.002024
36.721,58.8721,0.002024
36.738,58.8576,0.002024
36.754,58.8435,0.002024
36.770,58.8294,0.002024
36.785,58.8161,0.002024
36.810,58.7941,0.002024
36.825,58.7795,0.002024
36.842,58.7640,0.002024
36.857,58.7494,0.002024
36.873,58.7334,0.002024
36.890,58.7177,0.002024
36.905,58.7029,0.002024
36.921,58.6870,0.002024
36.938,58.6698,0.002024
36.953,58.6544,0.002024
36.969,58.6379,0.001770
36.986,58.6207,0.001770
37.001,58.6042,0.001770
37.017,58.5872,0.001770
37.033,58.5701,0.001770
37.050,58.5516,0.001770
37.065,58.5346,0.001770
37.082,58.5161,0.001770
37.097,58.4990,0.001770
37.114,58.4789,0.001770
37.130,58.4609,0.001770
37.145,58.4432,0.001770
37.161,58.4247,0.001770
37.177,58.4049,0.001770
37.193,58.3865,0.001770
37.210,58.3656,0.001760
37.225,58.3463,0.001760
37.241,58.3279,0.001760
37.257,58.3076,0.001760
37.274,58.2866,0.001760
37.289,58.2671,0.001760
37.309,58.2405,0.001760
37.334,58.2085,0.001760
37.349,58.1889,0.001760
37.366,58.1665,0.001760
37.382,58.1455,0.001760
37.397,58.1242,0.001760
37.413,58.1025,0.001760
37.429,58.0804,0.001760
37.446,58.0564,0.001760
37.472,58.0198,0.001836
37.494,57.9891,0.001836
37.509,57.9657,0.001836
37.525,57.9440,0.001836
37.542,57.9184,0.001836
37.557,57.8959,0.001836
37.573,57.8732,0.001836
37.589,57.8485,0.001836
37.605,57.8247,0.001836
37.621,57.8003,0.001836
37.637,57.7761,0.001836
37.653,57.7511,0.001836
37.670,57.7240,0.001836
37.685,57.7005,0.001836
37.701,57.6754,0.001901
37.717,57.6493,0.001901
37.733,57.6241,0.001901
37.749,57.5976,0.001901
37.765,57.5714,0.001901
37.782,57.5437,0.001901
37.810,57.4970,0.001901
37.829,57.4658,0.001901
37.846,57.4369,0.001901
37.862,57.4083,0.001901
37.886,57.3669,0.001901
37.918,57.3126,0.001901
37.948,57.2573,0.001939
37.978,57.2038,0.001939
38.009,57.1480,0.001939
38.024,57.1211,0.001939
38.055,57.0636,0.001939
38.086,57.0055,0.001939
38.105,56.9692,0.001939
38.132,56.9184,0.001939
38.149,56.8865,0.001939
38.166,56.8526,0.001939
38.182,56.8222,0.001939
38.197,56.7923,0.002099
38.213,56.7613,0.002099
38.230,56.7268,0.002099
38.249,56.6890,0.002099
38.271,56.6441,0.002099
38.287,56.6127,0.002099
38.318,56.5485,0.002099
38.349,56.4857,0.002099
38.365,56.4509,0.002099
38.396,56.3873,0.002099
38.412,56.3522,0.002099
38.442,56.2878,0.002231
38.472,56.2239,0.002231
38.503,56.1604,0.002231
38.519,56.1271,0.002231
38.534,56.0947,0.002231
38.550,56.0618,0.002231
38.566,56.0308,0.002231
38.584,55.9936,0.002231
38.612,55.9369,0.002231
38.629,55.9034,0.002231
38.645,55.8711,0.002231
38.661,55.8399,0.002231
38.677,55.8088,0.002203
38.693,55.7761,0.002203
38.709,55.7469,0.002203
38.725,55.7172,0.002203
38.741,55.6870,0.002203
38.758,55.6543,0.002203
38.773,55.6262,0.002203
38.789,55.5962,0.002203
38.805,55.5655,0.002203
38.821,55.5368,0.002203
38.837,55.5059,0.002203
38.859,55.4653,0.002203
38.875,55.4386,0.002203
38.890,55.4107,0.002203
38.907,55.3803,0.002203
38.937,55.3281,0.002174
38.953,55.3008,0.002174
38.969,55.2719,0.002174
39.000,55.2191,0.002174
39.015,55.1929,0.002174
39.031,55.1648,0.002174
39.047,55.1386,0.002174
39.063,55.1130,0.002174
39.093,55.0633,0.002174
39.124,55.0123,0.002174
39.149,54.9729,0.002174
39.171,54.9392,0.002278
39.188,54.9115,0.002278
39.205,54.8852,0.002278
39.221,54.8604,0.002278
39.248,54.8202,0.002278
39.269,54.7880,0.002278
39.284,54.7648,0.002278
39.300,54.7412,0.002278
39.316,54.7177,0.002278
39.333,54.6937,0.002278
39.349,54.6705,0.002278
39.364,54.6484,0.002278
39.380,54.6256,0.002278
39.397,54.6021,0.002278
39.413,54.5801,0.002278
39.429,54.5579,0.002278
39.456,54.5190,0.002476
39.475,54.4947,0.002476
39.494,54.4684,0.002476
39.510,54.4477,0.002476
39.541,54.4077,0.002476
39.572,54.3677,0.002476
39.587,54.3489,0.002476
39.617,54.3114,0.002476
39.633,54.2920,0.002476
39.649,54.2718,0.002476
39.665,54.2532,0.002476
39.681,54.2340,0.002617
39.696,54.2159,0.002617
39.715,54.1924,0.002617
39.740,54.1649,0.002617
39.760,54.1421,0.002617
39.777,54.1232,0.002617
39.792,54.1063,0.002617
39.808,54.0884,0.002617
39.825,54.0709,0.002617
39.843,54.0502,0.002617
39.864,54.0286,0.002617
39.895,53.9960,0.002617
39.926,53.9656,0.002617
39.957,53.9346,0.002673
39.980,53.9116,0.002673
39.996,53.8962,0.002673
40.013,53.8809,0.002673
40.028,53.8667,0.002673
40.044,53.8515,0.002673
40.060,53.8375,0.002673
40.077,53.8220,0.002673
40.093,53.8088,0.002673
40.108,53.7952,0.002673
40.125,53.7802,0.002673
40.143,53.7655,0.002673
40.174,53.7395,0.002796
40.204,53.7154,0.002796
40.221,53.7024,0.002796
40.237,53.6901,0.002796
40.252,53.6783,0.002796
40.269,53.6657,0.002796
40.284,53.6540,0.002796
40.301,53.6425,0.002796
40.316,53.6312,0.002796
40.332,53.6200,0.002796
40.348,53.6091,0.002796
40.364,53.5985,0.002796
40.381,53.5873,0.002796
40.397,53.5768,0.002796
40.412,53.5670,0.002796
40.428,53.5567,0.002937
40.444,53.5469,0.002937
40.461,53.5367,0.002937
40.482,53.5241,0.002937
40.512,53.5068,0.002937
40.527,53.4986,0.002937
40.544,53.4897,0.002937
40.575,53.4734,0.002937
40.605,53.4579,0.002937
40.620,53.4510,0.002937
40.636,53.4432,0.002937
40.652,53.4362,0.002937
40.669,53.4287,0.002937
40.684,53.4220,0.003069
40.702,53.4140,0.003069
40.731,53.4026,0.003069
40.748,53.3962,0.003069
40.766,53.3889,0.003069
40.793,53.3796,0.003069
40.812,53.3731,0.003069
40.828,53.3680,0.003069
40.845,53.3627,0.003069
40.869,53.3556,0.003069
40.884,53.3512,0.003069
40.914,53.3432,0.003069
40.930,53.3393,0.003125
40.947,53.3352,0.003125
40.978,53.3285,0.003125
40.995,53.3251,0.003125
41.024,53.3197,0.003125
41.049,53.3156,0.003125
41.065,53.3132,0.003125
41.080,53.3112,0.003125
41.096,53.3092,0.003125
41.112,53.3074,0.003125
41.128,53.3058,0.003125
41.144,53.3045,0.003125
41.161,53.3032,0.003125
41.176,53.3023,0.003125
41.192,53.3014,0.003125
41.208,53.3008,0.003135
41.224,53.3003,0.003135
41.239,53.3001,0.003135
41.256,53.3001,0.003135
41.273,53.3001,0.003135
41.288,53.3001,0.003135
41.306,53.3001,0.003135
41.334,53.3001,0.003135
41.352,53.3001,0.003135
41.368,53.3001,0.003135
41.384,53.3001,0.003135
41.400,53.3001,0.003135
41.415,53.3001,0.003135
41.433,53.3003,0.003135
41.449,53.3008,0.003135
41.464,53.3014,0.003210
41.479,53.3022,0.003210
41.496,53.3033,0.003210
41.512,53.3044,0.003210
41.528,53.3058,0.003210
41.544,53.3074,0.003210
41.569,53.3102,0.003210
41.585,53.3123,0.003210
41.601,53.3146,0.003210
41.617,53.3171,0.003210
41.633,53.3198,0.003210
41.649,53.3226,0.003210
41.665,53.3257,0.003210
41.681,53.3290,0.003069
41.697,53.3324,0.003069
41.713,53.3359,0.003069
41.730,53.3401,0.003069
41.750,53.3455,0.003069
41.781,53.3536,0.003069
41.797,53.3582,0.003069
41.828,53.3679,0.003069
41.859,53.3783,0.003069
41.889,53.3892,0.003069
41.913,53.3980,0.003069
41.936,53.4068,0.003069
41.952,53.4137,0.003003
41.969,53.4210,0.003003
41.984,53.4273,0.003003
42.001,53.4348,0.003003
42.017,53.4423,0.003003
42.037,53.4520,0.003003
42.059,53.4623,0.003003
42.090,53.4777,0.003003
42.121,53.4942,0.003003
42.151,53.5113,0.003003
42.182,53.5288,0.003040
42.213,53.5475,0.003040
42.228,53.5572,0.003040
42.245,53.5673,0.003040
42.275,53.5869,0.003040
42.293,53.5992,0.003040
42.322,53.6188,0.003040
42.352,53.6404,0.003040
42.368,53.6518,0.003040
42.385,53.6636,0.003040
42.400,53.6755,0.003040
42.416,53.6876,0.003040
42.432,53.6998,0.002937
42.449,53.7127,0.002937
42.466,53.7266,0.002937
42.481,53.7391,0.002937
42.497,53.7515,0.002937
42.512,53.7645,0.002937
42.529,53.7784,0.002937
42.545,53.7926,0.002937
42.560,53.8055,0.002937
42.576,53.8196,0.002937
42.594,53.8353,0.002937
42.616,53.8554,0.002937
42.646,53.8837,0.002937
42.676,53.9119,0.002880
42.691,53.9269,0.002880
42.708,53.9442,0.002880
42.738,53.9731,0.002880
42.769,54.0049,0.002880
42.784,54.0211,0.002880
42.801,54.0376,0.002880
42.816,54.0543,0.002880
42.832,54.0725,0.002880
42.849,54.0892,0.002880
42.865,54.1068,0.002880
42.881,54.1246,0.002880
42.896,54.1422,0.002880
42.912,54.1603,0.002880
42.929,54.1790,0.002767
42.945,54.1977,0.002767
42.961,54.2163,0.002767
42.977,54.2358,0.002767
42.992,54.2537,0.002767
43.009,54.2748,0.002767
43.034,54.3053,0.002767
43.049,54.3239,0.002767
43.080,54.3634,0.002767
43.110,54.4008,0.002767
43.125,54.4204,0.002767
43.155,54.4612,0.002767
43.187,54.5019,0.002617
43.218,54.5443,0.002617
43.233,54.5656,0.002617
43.248,54.5867,0.002617
43.265,54.6105,0.002617
43.280,54.6317,0.002617
43.296,54.6551,0.002617
43.312,54.6771,0.002617
43.328,54.7018,0.002617
43.344,54.7237,0.002617
43.360,54.7484,0.002617
43.376,54.7716,0.002617
43.392,54.7949,0.002617
43.408,54.8190,0.002617
43.424,54.8433,0.002532
43.440,54.8686,0.002532
43.456,54.8941,0.002532
43.472,54.9182,0.002532
43.488,54.9430,0.002532
43.504,54.9683,0.002532
43.520,54.9935,0.002532
43.536,55.0195,0.002532
43.552,55.0450,0.002532
43.569,55.0729,0.002532
43.584,55.0983,0.002532
43.600,55.1238,0.002532
43.616,55.1514,0.002532
43.632,55.1777,0.002532
43.648,55.2047,0.002532
43.664,55.2331,0.002532
43.693,55.2818,0.002410
43.709,55.3104,0.002410
43.725,55.3383,0.002410
43.741,55.3659,0.002410
43.757,55.3948,0.002410
43.773,55.4233,0.002410
43.789,55.4516,0.002410
43.805,55.4824,0.002410
43.824,55.5179,0.002410
43.843,55.5507,0.002410
43.867,55.5952,0.002410
43.885,55.6326,0.002410
43.901,55.6591,0.002410
43.917,55.6904,0.002410
43.934,55.7217,0.002240
43.962,55.7766,0.002240
43.981,55.8127,0.002240
43.997,55.8442,0.002240
44.013,55.8757,0.002240
44.029,55.9072,0.002240
44.045,55.9389,0.002240
44.061,55.9728,0.002240
44.077,56.0034,0.002240
44.093,56.0347,0.002240
44.109,56.0684,0.002240
44.126,56.1025,0.002240
44.141,56.1349,0.002240
44.157,56.1666,0.002240
44.173,56.2010,0.002240
44.190,56.2367,0.002240
44.212,56.2828,0.002240
44.243,56.3478,0.002118
44.273,56.4135,0.002118
44.304,56.4759,0.002118
44.334,56.5387,0.002118
44.365,56.6023,0.002118
44.381,56.6349,0.002118
44.397,56.6644,0.002118
44.413,56.6963,0.002118
44.430,56.7297,0.002118
44.445,56.7595,0.002118
44.465,56.8000,0.002118
44.488,56.8458,0.002118
44.509,56.8841,0.002118
44.525,56.9146,0.002118
44.541,56.9446,0.002118
44.558,56.9782,0.002118
44.573,57.0065,0.002118
44.589,57.0344,0.002118
44.606,57.0660,0.002118
44.621,57.0947,0.002118
44.637,57.1230,0.002118
44.653,57.1514,0.002118
44.669,57.1805,0.002118
44.685,57.2095,0.002118
44.700,57.2371,0.002146
44.717,57.2652,0.002146
44.732,57.2926,0.002146
44.758,57.3378,0.002146
44.775,57.3664,0.002146
44.791,57.3933,0.002146
44.806,57.4200,0.002146
44.823,57.4477,0.002146
44.839,57.4738,0.002146
44.855,57.5012,0.002146
44.870,57.5264,0.002146
44.886,57.5522,0.002146
44.903,57.5791,0.002146
44.918,57.6044,0.002146
44.934,57.6294,0.002118
44.951,57.6554,0.002118
44.967,57.6803,0.002118
44.983,57.7065,0.002118
44.999,57.7307,0.002118
45.015,57.7551,0.002118
45.034,57.7849,0.002118
45.055,57.8153,0.002118
45.077,57.8484,0.002118
45.095,57.8757,0.002118
45.110,57.8979,0.002118
45.127,57.9225,0.002118
45.143,57.9442,0.002118
45.159,57.9673,0.002118
45.174,57.9893,0.002118
45.190,58.0116,0.002071
45.207,58.0344,0.002071
45.222,58.0560,0.002071
45.238,58.0777,0.002071
45.254,58.0995,0.002071
45.284,58.1390,0.002071
45.300,58.1602,0.002071
45.315,58.1804,0.002071
45.332,58.2016,0.002071
45.347,58.2226,0.002071
45.364,58.2425,0.002071
45.380,58.2625,0.002071
45.396,58.2825,0.002071
45.412,58.3025,0.002071
45.427,58.3216,0.001930
45.444,58.3411,0.001930
45.459,58.3601,0.001930
45.476,58.3808,0.001930
45.492,58.3985,0.001930
45.507,58.4163,0.001930
45.524,58.4361,0.001930
45.540,58.4537,0.001930
45.555,58.4715,0.001930
45.572,58.4898,0.001930
45.587,58.5064,0.001930
45.604,58.5253,0.001930
45.633,58.5564,0.001930
45.652,58.5765,0.001930
45.668,58.5921,0.001930
45.683,58.6080,0.001770
45.700,58.6248,0.001770
45.716,58.6408,0.001770
45.732,58.6570,0.001770
45.747,58.6719,0.001770
45.763,58.6879,0.001770
45.780,58.7036,0.001770
45.796,58.7182,0.001770
45.811,58.7332,0.001770
45.827,58.7479,0.001770
45.843,58.7622,0.001770
45.859,58.7764,0.001770
45.875,58.7905,0.001770
45.891,58.8046,0.001770
45.907,58.8184,0.001770
45.923,58.8318,0.001732
45.940,58.8454,0.001732
45.956,58.8589,0.001732
45.971,58.8714,0.001732
45.988,58.8852,0.001732
46.004,58.8974,0.001732
46.019,58.9094,0.001732
46.035,58.9216,0.001732
46.053,58.9353,0.001732
46.082,58.9559,0.001732
46.100,58.9684,0.001732
46.116,58.9801,0.001732
46.132,58.9909,0.001732
46.147,59.0018,0.001732
46.163,59.0120,0.001732
46.179,59.0230,0.001732
46.195,59.0328,0.001732
46.211,59.0427,0.001723
46.227,59.0529,0.001723
46.243,59.0624,0.001723
46.259,59.0725,0.001723
46.275,59.0814,0.001723
46.291,59.0902,0.001723
46.307,59.0995,0.001723
46.323,59.1081,0.001723
46.354,59.1243,0.001723
46.370,59.1329,0.001723
46.386,59.1403,0.001723
46.402,59.1484,0.001723
46.418,59.1562,0.001723
46.434,59.1634,0.001619
46.450,59.1703,0.001619
46.467,59.1779,0.001619
46.483,59.1847,0.001619
46.503,59.1927,0.001619
46.533,59.2049,0.001619
46.565,59.2164,0.001619
46.595,59.2269,0.001619
46.626,59.2367,0.001619
46.642,59.2415,0.001619
46.659,59.2464,0.001619
46.675,59.2508,0.001619
46.691,59.2552,0.001497
46.706,59.2589,0.001497
46.722,59.2631,0.001497
46.738,59.2666,0.001497
46.755,59.2703,0.001497
46.770,59.2734,0.001497
46.790,59.2775,0.001497
46.813,59.2815,0.001497
46.834,59.2847,0.001497
46.850,59.2872,0.001497
46.866,59.2893,0.001497
46.882,59.2913,0.001497
46.904,59.2936,0.001497
46.920,59.2951,0.001497
46.937,59.2963,0.001158
46.953,59.2975,0.001158
46.970,59.2985,0.001158
47.000,59.2996,0.001158
47.017,59.2999,0.001158
47.035,59.3001,0.001158
47.050,59.3001,0.001158
47.065,59.3001,0.001158
47.081,59.3001,0.001158
47.097,59.3001,0.001158
47.113,59.3001,0.001158
47.129,59.3001,0.001158
47.145,59.3001,0.001158
47.161,59.3001,0.001158
47.177,59.3001,0.001158
47.195,59.3001,0.001064
47.210,59.3001,0.001064
47.227,59.3001,0.001064
47.249,59.3001,0.001064
47.265,59.3001,0.001064
47.281,59.3001,0.001064
47.312,59.3001,0.001064
47.343,59.3001,0.001064
47.374,59.3001,0.001064
47.405,59.3001,0.001064
47.429,59.3001,0.001064
47.445,59.3001,0.001064
47.461,59.3001,0.001337
47.478,59.3001,0.001337
47.493,59.3001,0.001337
47.509,59.3001,0.001337
47.525,59.3001,0.001337
47.541,59.3001,0.001337
47.557,59.3001,0.001337
47.573,59.3001,0.001337
47.589,59.3001,0.001337
47.605,59.3001,0.001337
47.621,59.3001,0.001337
47.637,59.3001,0.001337
47.660,59.3001,0.001337
47.685,59.3001,0.001337
47.701,59.3001,0.001337
47.717,59.3001,0.001440
47.733,59.3001,0.001440
47.749,59.3001,0.001440
47.765,59.3001,0.001440
47.781,59.3001,0.001440
47.797,59.3001,0.001440
47.813,59.3001,0.001440
47.829,59.3001,0.001440
47.846,59.3001,0.001440
47.870,59.3001,0.001440
47.885,59.3001,0.001440
47.901,59.3001,0.001440
47.916,59.3001,0.001440
47.933,59.3001,0.001440
47.963,59.3001,0.001506
47.979,59.3001,0.001506
47.995,59.3001,0.001506
48.010,59.3001,0.001506
48.026,59.3001,0.001506
48.042,59.3001,0.001506
48.073,59.3001,0.001506
48.103,59.3001,0.001506
48.134,59.3001,0.001506
48.150,59.3001,0.001506
48.166,59.3001,0.001506
48.182,59.3001,0.001544
48.197,59.3001,0.001544
48.216,59.3001,0.001544
48.243,59.3001,0.001544
48.261,59.3001,0.001544
48.277,59.3001,0.001544
48.292,59.3001,0.001544
48.308,59.3001,0.001544
48.325,59.3001,0.001544
48.341,59.3001,0.001544
48.356,59.3001,0.001544
48.372,59.3001,0.001544
48.388,59.3001,0.001544
48.405,59.3001,0.001544
48.421,59.3001,0.001506
48.436,59.3001,0.001506
48.452,59.3001,0.001506
48.482,59.3001,0.001506
48.499,59.3001,0.001506
48.521,59.3001,0.001506
48.537,59.3001,0.001506
48.553,59.3001,0.001506
48.568,59.3001,0.001506
48.599,59.3001,0.001506
48.615,59.3001,0.001506
48.646,59.3001,0.001506
48.677,59.3001,0.001506
48.708,59.3001,0.001506
48.725,59.3001,0.001506
48.755,59.3001,0.001506
48.771,59.3001,0.001506
48.786,59.3001,0.001506
48.816,59.3001,0.001506
48.834,59.3001,0.001506
48.850,59.3001,0.001506
48.865,59.3001,0.001506
48.881,59.3001,0.001506
48.898,59.3001,0.001506
48.913,59.3001,0.001506
48.930,59.3001,0.001487
48.945,59.3001,0.001487
48.962,59.3001,0.001487
48.977,59.3001,0.001487
48.993,59.3001,0.001487
49.017,59.3001,0.001487
49.033,59.3001,0.001487
49.048,59.3001,0.001487
49.064,59.3001,0.001487
49.080,59.3001,0.001487
49.096,59.3001,0.001487
49.112,59.3001,0.001487
49.128,59.3001,0.001487
49.145,59.3001,0.001487
49.160,59.3001,0.001487
49.176,59.3001,0.001506
49.193,59.3001,0.001506
49.209,59.3001,0.001506
49.228,59.3001,0.001506
49.251,59.3001,0.001506
49.273,59.3001,0.001506
49.288,59.3001,0.001506
49.304,59.3001,0.001506
49.320,59.3001,0.001506
49.336,59.3001,0.001506
49.353,59.3001,0.001506
49.368,59.3001,0.001506
49.384,59.3001,0.001506
49.400,59.3001,0.001506
49.416,59.3001,0.001506
49.432,59.3001,0.001553
49.448,59.3001,0.001553
49.464,59.3001,0.001553
49.480,59.3001,0.001553
49.496,59.3001,0.001553
49.512,59.3001,0.001553
49.528,59.3001,0.001553
49.544,59.3001,0.001553
49.572,59.3001,0.001553
49.588,59.3001,0.001553
49.604,59.3001,0.001553
49.620,59.3001,0.001553
49.636,59.3001,0.001553
49.652,59.3001,0.001553
49.668,59.3001,0.001553
49.685,59.3001,0.001534
49.702,59.3001,0.001534
49.729,59.3001,0.001534
49.748,59.3001,0.001534
49.764,59.3001,0.001534
49.780,59.3001,0.001534
49.796,59.3001,0.001534
49.812,59.3001,0.001534
49.828,59.3001,0.001534
49.844,59.3001,0.001534
49.860,59.3001,0.001534
49.876,59.3001,0.001534
49.893,59.3001,0.001534
49.915,59.3001,0.001534
49.946,59.3001,0.001516
49.976,59.3001,0.001516
49.993,59.3001,0.001516
50.010,59.3001,0.001516
50.039,59.3001,0.001516
50.076,59.3001,0.001516
50.101,59.3001,0.001516
50.130,59.3001,0.001516
50.146,59.3001,0.001516
50.162,59.3001,0.001516
50.178,59.3001,0.001506
50.195,59.3001,0.001506
50.223,59.3001,0.001506
50.244,59.3001,0.001506
50.269,59.3001,0.001506
50.290,59.3001,0.001506
50.307,59.3001,0.001506
50.331,59.3001,0.001506
50.347,59.3001,0.001506
50.364,59.3001,0.001506
50.393,59.3001,0.001506
50.424,59.3001,0.001506
50.440,59.3001,0.001506
50.471,59.3001,0.001516
50.504,59.3001,0.001516
50.532,59.3001,0.001516
50.562,59.3001,0.001516
50.577,59.3001,0.001516
50.594,59.3001,0.001516
50.610,59.3001,0.001516
50.625,59.3001,0.001516
50.642,59.3001,0.001516
50.668,59.3001,0.001516
50.683,59.3001,0.001516
50.699,59.3001,0.001468
50.715,59.3001,0.001468
50.731,59.3001,0.001468
50.746,59.3001,0.001468
50.762,59.3001,0.001468
50.779,59.3001,0.001468
50.800,59.3001,0.001468
50.826,59.3001,0.001468
50.843,59.3001,0.001468
50.859,59.3001,0.001468
50.875,59.3001,0.001468
50.891,59.3001,0.001468
50.907,59.3001,0.001468
50.924,59.3001,0.001468
50.950,59.3001,0.001384
50.971,59.3001,0.001384
50.987,59.3001,0.001384
51.003,59.3001,0.001384
51.018,59.3001,0.001384
51.035,59.3001,0.001384
51.051,59.3001,0.001384
51.067,59.3001,0.001384
51.083,59.3001,0.001384
51.099,59.3001,0.001384
51.115,59.3001,0.001384
51.130,59.3001,0.001384
51.147,59.3001,0.001384
51.163,59.3001,0.001384
51.178,59.3001,0.001384
51.200,59.3001,0.001384
51.216,59.3001,0.001384
51.232,59.3001,0.001308
51.247,59.3001,0.001308
51.264,59.3001,0.001308
51.282,59.3001,0.001308
51.306,59.2998,0.001308
51.337,59.2988,0.001308
51.368,59.2971,0.001308
51.383,59.2960,0.001308
51.399,59.2947,0.001308
51.416,59.2930,0.001308
51.446,59.2895,0.001290
51.476,59.2853,0.001290
51.507,59.2805,0.001290
51.522,59.2777,0.001290
51.539,59.2744,0.001290
51.569,59.2681,0.001290
51.585,59.2647,0.001290
51.601,59.2608,0.001290
51.631,59.2533,0.001290
51.648,59.2487,0.001290
51.663,59.2440,0.001290
51.680,59.2394,0.001290
51.696,59.2343,0.001290
51.723,59.2255,0.002758
51.755,59.2145,0.002758
51.770,59.2090,0.002758
51.786,59.2027,0.002758
51.802,59.1966,0.002758
51.818,59.1902,0.002758
51.833,59.1840,0.002758
51.850,59.1768,0.002758
51.866,59.1700,0.002758
51.881,59.1629,0.002758
51.898,59.1551,0.002758
51.913,59.1480,0.002758
51.930,59.1400,0.002758
51.945,59.1323,0.005422
51.961,59.1240,0.005422
51.978,59.1149,0.005422
52.001,59.1027,0.005422
52.031,59.0856,0.005422
52.061,59.0683,0.005422
52.092,59.0499,0.005422
52.109,59.0395,0.005422
52.138,59.0201,0.005422
52.157,59.0081,0.005422
52.176,58.9956,0.005422
52.200,58.9793,0.004245
52.218,58.9666,0.004245
52.233,58.9555,0.004245
52.249,58.9435,0.004245
52.274,58.9255,0.004245
52.290,58.9130,0.004245
52.306,58.9012,0.004245
52.322,58.8883,0.004245
52.338,58.8757,0.004245
52.354,58.8630,0.004245
52.370,58.8495,0.004245
52.386,58.8362,0.004245
52.405,58.8201,0.004245
52.433,58.7958,0.001836
52.450,58.7812,0.001836
52.466,58.7669,0.001836
52.482,58.7526,0.001836
52.498,58.7377,0.001836
52.514,58.7230,0.001836
52.530,58.7077,0.001836
52.546,58.6930,0.001836
52.562,58.6776,0.001836
52.578,58.6618,0.001836
52.594,58.6450,0.001836
52.610,58.6298,0.001836
52.626,58.6138,0.001836
52.643,58.5960,0.001836
52.665,58.5727,0.001836
52.696,58.5404,0.001864
52.727,58.5072,0.001864
52.742,58.4901,0.001864
52.758,58.4723,0.001864
52.774,58.4531,0.001864
52.798,58.4269,0.001864
52.820,58.4020,0.001864
52.851,58.3644,0.001864
52.882,58.3280,0.001864
52.914,58.2885,0.001864
52.944,58.2512,0.001883
52.959,58.2320,0.001883
52.990,58.1922,0.001883
53.005,58.1729,0.001883
53.022,58.1496,0.001883
53.052,58.1109,0.001883
53.069,58.0879,0.001883
53.085,58.0649,0.001883
53.101,58.0441,0.001883
53.117,58.0215,0.001883
53.133,57.9996,0.001883
53.149,57.9764,0.001883
53.165,57.9545,0.001883
53.181,57.9316,0.001920
53.197,57.9083,0.001920
53.214,57.8829,0.001920
53.237,57.8490,0.001920
53.267,57.8040,0.001920
53.285,57.7782,0.001920
53.314,57.7329,0.001920
53.331,57.7067,0.001920
53.362,57.6585,0.001920
53.394,57.6069,0.001920
53.424,57.5594,0.001920
53.440,57.5332,0.001986
53.472,57.4798,0.001986
53.502,57.4313,0.001986
53.517,57.4041,0.001986
53.532,57.3782,0.001986
53.549,57.3509,0.001986
53.568,57.3166,0.001986
53.595,57.2701,0.001986
53.613,57.2390,0.001986
53.630,57.2077,0.001986
53.656,57.1608,0.001986
53.676,57.1253,0.002052
53.693,57.0934,0.002052
53.709,57.0648,0.002052
53.725,57.0368,0.002052
53.741,57.0069,0.002052
53.756,56.9762,0.002052
53.774,56.9450,0.002052
53.797,56.9006,0.002052
53.813,56.8705,0.002052
53.844,56.8105,0.002052
53.875,56.7493,0.002052
53.906,56.6894,0.002052
53.936,56.6277,0.002052
53.953,56.5943,0.002099
53.984,56.5314,0.002099
54.016,56.4632,0.002099
54.046,56.4021,0.002099
54.062,56.3694,0.002099
54.078,56.3362,0.002099
54.110,56.2674,0.002099
54.125,56.2352,0.002099
54.154,56.1728,0.002099
54.175,56.1311,0.002099
54.202,56.0731,0.002203
54.221,56.0356,0.002203
54.237,56.0017,0.002203
54.252,55.9705,0.002203
54.269,55.9375,0.002203
54.285,55.9055,0.002203
54.301,55.8738,0.002203
54.316,55.8422,0.002203
54.332,55.8112,0.002203
54.348,55.7798,0.002203
54.376,55.7262,0.002203
54.396,55.6865,0.002203
54.412,55.6563,0.002203
54.428,55.6253,0.002203
54.444,55.5952,0.002203
54.460,55.5654,0.002259
54.477,55.5347,0.002259
54.492,55.5059,0.002259
54.508,55.4749,0.002259
54.524,55.4470,0.002259
54.541,55.4154,0.002259
54.557,55.3879,0.002259
54.572,55.3593,0.002259
54.588,55.3319,0.002259
54.606,55.3008,0.002259
54.621,55.2744,0.002259
54.636,55.2479,0.002259
54.653,55.2177,0.002259
54.670,55.1894,0.002259
54.697,55.1429,0.002269
54.716,55.1111,0.002269
54.733,55.0819,0.002269
54.749,55.0571,0.002269
54.764,55.0317,0.002269
54.780,55.0046,0.002269
54.797,54.9781,0.002269
54.813,54.9524,0.002269
54.828,54.9281,0.002269
54.845,54.9002,0.002269
54.861,54.8752,0.002269
54.883,54.8422,0.002269
54.913,54.7936,0.002269
54.929,54.7694,0.002269
54.960,54.7246,0.002269
54.977,54.6994,0.002353
55.007,54.6554,0.002353
55.037,54.6111,0.002353
55.053,54.5888,0.002353
55.083,54.5461,0.002353
55.100,54.5208,0.002353
55.116,54.4997,0.002353
55.132,54.4785,0.002353
55.148,54.4566,0.002353
55.164,54.4346,0.002353
55.180,54.4137,0.002353
55.196,54.3927,0.002504
55.212,54.3714,0.002504
55.229,54.3494,0.002504
55.255,54.3166,0.002504
55.276,54.2894,0.002504
55.292,54.2702,0.002504
55.308,54.2496,0.002504
55.324,54.2307,0.002504
55.340,54.2109,0.002504
55.356,54.1918,0.002504
55.372,54.1724,0.002504
55.388,54.1540,0.002504
55.405,54.1344,0.002504
55.420,54.1171,0.002504
55.436,54.0990,0.002683
55.452,54.0812,0.002683
55.469,54.0619,0.002683
55.493,54.0356,0.002683
55.509,54.0182,0.002683
55.525,54.0005,0.002683
55.541,53.9841,0.002683
55.557,53.9671,0.002683
55.573,53.9506,0.002683
55.590,53.9317,0.002683
55.611,53.9122,0.002683
55.642,53.8811,0.002683
55.672,53.8518,0.002683
55.703,53.8231,0.002758
55.734,53.7944,0.002758
55.764,53.7680,0.002758
55.781,53.7525,0.002758
55.797,53.7389,0.002758
55.813,53.7256,0.002758
55.829,53.7117,0.002758
55.845,53.6989,0.002758
55.861,53.6859,0.002758
55.877,53.6726,0.002758
55.893,53.6594,0.002758
55.909,53.6472,0.002758
55.925,53.6354,0.002843
55.941,53.6231,0.002843
55.957,53.6111,0.002843
55.973,53.5988,0.002843
55.989,53.5878,0.002843
56.017,53.5682,0.002843
56.033,53.5572,0.002843
56.049,53.5464,0.002843
56.066,53.5350,0.002843
56.081,53.5252,0.002843
56.097,53.5147,0.002843
56.113,53.5050,0.002843
56.129,53.4952,0.002843
56.146,53.4849,0.002843
56.166,53.4730,0.002843
56.198,53.4548,0.002975
56.228,53.4385,0.002975
56.261,53.4211,0.002975
56.290,53.4066,0.002975
56.320,53.3923,0.002975
56.336,53.3849,0.002975
56.353,53.3777,0.002975
56.369,53.3705,0.002975
56.384,53.3642,0.002975
56.400,53.3577,0.002975
56.416,53.3513,0.002975
56.435,53.3442,0.002975
56.460,53.3352,0.003040
56.480,53.3278,0.003040
56.496,53.3224,0.003040
56.512,53.3172,0.003040
56.529,53.3120,0.003040
56.553,53.3048,0.003040
56.582,53.2968,0.003040
56.600,53.2923,0.003040
56.616,53.2883,0.003040
56.631,53.2846,0.003040
56.648,53.2808,0.003040
56.664,53.2775,0.003040
56.680,53.2741,0.003040
56.696,53.2714,0.003040
56.712,53.2686,0.003022
56.737,53.2646,0.003022
56.768,53.2604,0.003022
56.799,53.2569,0.003022
56.830,53.2542,0.003022
56.861,53.2521,0.003022
56.878,53.2512,0.003022
56.907,53.2503,0.003022
56.923,53.2501,0.003022
56.953,53.2501,0.003069
56.969,53.2501,0.003069
56.985,53.2501,0.003069
57.000,53.2501,0.003069
57.016,53.2501,0.003069
57.031,53.2501,0.003069
57.049,53.2501,0.003069
57.077,53.2501,0.003069
57.104,53.2502,0.003069
57.121,53.2506,0.003069
57.136,53.2511,0.003069
57.153,53.2517,0.003069
57.169,53.2526,0.003069
57.184,53.2537,0.003069
57.200,53.2549,0.003229
57.217,53.2565,0.003229
57.233,53.2581,0.003229
57.249,53.2600,0.003229
57.265,53.2621,0.003229
57.280,53.2642,0.003229
57.297,53.2670,0.003229
57.312,53.2694,0.003229
57.329,53.2724,0.003229
57.355,53.2775,0.003229
57.376,53.2818,0.003229
57.393,53.2857,0.003229
57.408,53.2893,0.003229
57.424,53.2934,0.003229
57.440,53.2975,0.003125
57.456,53.3018,0.003125
57.472,53.3064,0.003125
57.489,53.3114,0.003125
57.504,53.3161,0.003125
57.520,53.3213,0.003125
57.537,53.3267,0.003125
57.552,53.3323,0.003125
57.568,53.3378,0.003125
57.584,53.3438,0.003125
57.600,53.3502,0.003125
57.617,53.3564,0.003125
57.632,53.3627,0.003125
57.660,53.3746,0.003125
57.676,53.3819,0.003125
57.692,53.3891,0.003003
57.708,53.3963,0.003003
57.724,53.4039,0.003003
57.741,53.4121,0.003003
57.756,53.4200,0.003003
57.772,53.4278,0.003003
57.789,53.4367,0.003003
57.805,53.4452,0.003003
57.820,53.4536,0.003003
57.836,53.4627,0.003003
57.852,53.4720,0.003003
57.868,53.4813,0.003003
57.885,53.4914,0.003003
57.900,53.5005,0.003003
57.920,53.5133,0.003003
57.944,53.5283,0.003003
57.964,53.5415,0.003031
57.981,53.5526,0.003031
57.996,53.5631,0.003031
58.012,53.5744,0.003031
58.028,53.5857,0.003031
58.044,53.5976,0.003031
58.060,53.6088,0.003031
58.076,53.6209,0.003031
58.092,53.6324,0.003031
58.108,53.6451,0.003031
58.124,53.6573,0.003031
58.140,53.6699,0.003031
58.157,53.6839,0.003031
58.187,53.7085,0.002946
58.203,53.7217,0.002946
58.218,53.7350,0.002946
58.234,53.7487,0.002946
58.250,53.7628,0.002946
58.266,53.7764,0.002946
58.282,53.7912,0.002946
58.298,53.8056,0.002946
58.314,53.8201,0.002946
58.330,53.8353,0.002946
58.346,53.8509,0.002946
58.362,53.8657,0.002946
58.378,53.8810,0.002946
58.394,53.8972,0.002946
58.410,53.9135,0.002946
58.426,53.9296,0.002946
58.442,53.9451,0.002786
58.458,53.9617,0.002786
58.474,53.9788,0.002786
58.490,53.9952,0.002786
58.506,54.0122,0.002786
58.522,54.0296,0.002786
58.538,54.0478,0.002786
58.554,54.0648,0.002786
58.570,54.0825,0.002786
58.586,54.1009,0.002786
58.602,54.1196,0.002786
58.618,54.1375,0.002786
58.634,54.1564,0.002786
58.650,54.1748,0.002786
58.666,54.1939,0.002786
58.682,54.2134,0.002786
58.713,54.2514,0.002683
58.729,54.2708,0.002683
58.745,54.2914,0.002683
58.761,54.3107,0.002683
58.778,54.3329,0.002683
58.794,54.3533,0.002683
58.809,54.3724,0.002683
58.825,54.3938,0.002683
58.841,54.4150,0.002683
58.857,54.4357,0.002683
58.873,54.4575,0.002683
58.889,54.4790,0.002683
58.906,54.5025,0.002683
58.921,54.5239,0.002683
58.937,54.5453,0.002607
58.953,54.5685,0.002607
58.969,54.5920,0.002607
58.985,54.6135,0.002607
59.001,54.6365,0.002607
59.017,54.6599,0.002607
59.033,54.6842,0.002607
59.049,54.7076,0.002607
59.065,54.7314,0.002607
59.081,54.7555,0.002607
59.097,54.7800,0.002607
59.112,54.8036,0.002607
59.129,54.8287,0.002607
59.145,54.8532,0.002607
59.161,54.8791,0.002607
59.176,54.9031,0.002523
59.193,54.9291,0.002523
59.209,54.9547,0.002523
59.225,54.9810,0.002523
59.241,55.0066,0.002523
59.267,55.0489,0.002523
59.283,55.0756,0.002523
59.298,55.1027,0.002523
59.315,55.1300,0.002523
59.331,55.1564,0.002523
59.347,55.1842,0.002523
59.363,55.2110,0.002523
59.379,55.2397,0.002523
59.395,55.2667,0.002523
59.411,55.2949,0.002523
59.426,55.3224,0.002447
59.443,55.3510,0.002447
59.459,55.3802,0.002447
59.474,55.4086,0.002447
59.491,55.4379,0.002447
59.507,55.4666,0.002447
59.524,55.4984,0.002447
59.539,55.5263,0.002447
59.555,55.5573,0.002447
59.571,55.5853,0.002447
59.588,55.6188,0.002447
59.613,55.6659,0.002447
59.628,55.6959,0.002447
59.660,55.7572,0.002447
59.690,55.8156,0.002306
59.721,55.8763,0.002306
59.752,55.9380,0.002306
59.768,55.9707,0.002306
59.791,56.0192,0.002306
59.807,56.0516,0.002306
59.824,56.0861,0.002306
59.839,56.1179,0.002306
59.856,56.1522,0.002306
59.871,56.1847,0.002306
59.887,56.2186,0.002306
59.904,56.2546,0.002306
59.920,56.2870,0.002306
59.937,56.3238,0.002146
59.954,56.3610,0.002146
59.983,56.4202,0.002146
60.000,56.4551,0.002146
60.016,56.4908,0.002146
60.034,56.5252,0.002146
60.060,56.5780,0.002146
60.080,56.6184,0.002146
60.096,56.6491,0.002146
60.111,56.6791,0.002146
60.128,56.7116,0.002146
60.143,56.7423,0.002146
60.160,56.7750,0.002146
60.175,56.8039,0.002099
60.192,56.8355,0.002099
60.208,56.8670,0.002099
60.223,56.8951,0.002099
60.239,56.9255,0.002099
60.255,56.9558,0.002099
60.272,56.9868,0.002099
60.288,57.0154,0.002099
60.304,57.0450,0.002099
60.319,57.0740,0.002099
60.336,57.1026,0.002099
60.351,57.1308,0.002099
60.368,57.1615,0.002099
60.386,57.1942,0.002099
60.402,57.2203,0.002099
60.417,57.2467,0.002099
60.433,57.2750,0.002146
60.451,57.3087,0.002146
60.479,57.3539,0.002146
60.495,57.3813,0.002146
60.513,57.4104,0.002146
60.542,57.4592,0.002146
60.559,57.4875,0.002146
60.575,57.5130,0.002146
60.591,57.5389,0.002146
60.607,57.5644,0.002146
60.623,57.5905,0.002146
60.640,57.6168,0.002146
60.666,57.6580,0.002080
60.687,57.6897,0.002080
60.703,57.7148,0.002080
60.719,57.7395,0.002080
60.735,57.7632,0.002080
60.751,57.7881,0.002080
60.767,57.8109,0.002080
60.783,57.8339,0.002080
60.799,57.8571,0.002080
60.815,57.8815,0.002080
60.843,57.9207,0.002080
60.859,57.9434,0.002080
60.875,57.9655,0.002080
60.891,57.9877,0.002080
60.907,58.0106,0.002080
60.923,58.0313,0.002080
60.939,58.0545,0.002080
60.955,58.0757,0.002080
60.971,58.0953,0.001958
60.987,58.1164,0.001958
61.003,58.1377,0.001958
61.019,58.1582,0.001958
61.035,58.1791,0.001958
61.051,58.1990,0.001958
61.067,58.2190,0.001958
61.083,58.2394,0.001958
61.099,58.2590,0.001958
61.115,58.2786,0.001958
61.131,58.2985,0.001958
61.147,58.3167,0.001958
61.163,58.3354,0.001958
61.181,58.3574,0.001958
61.209,58.3895,0.001892
61.227,58.4096,0.001892
61.243,58.4274,0.001892
61.259,58.4455,0.001892
61.275,58.4635,0.001892
61.291,58.4798,0.001892
61.307,58.4979,0.001892
61.323,58.5141,0.001892
61.339,58.5311,0.001892
61.367,58.5608,0.001892
61.385,58.5778,0.001892
61.400,58.5936,0.001892
61.416,58.6088,0.001892
61.432,58.6250,0.001892
61.448,58.6404,0.001807
61.464,58.6553,0.001807
61.480,58.6705,0.001807
61.496,58.6862,0.001807
61.512,58.6999,0.001807
61.528,58.7147,0.001807
61.544,58.7287,0.001807
61.560,58.7430,0.001807
61.576,58.7568,0.001807
61.592,58.7709,0.001807
61.608,58.7841,0.001807
61.624,58.7975,0.001807
61.640,58.8105,0.001807
61.656,58.8238,0.001807
61.671,58.8362,0.001807
61.688,58.8492,0.001807
61.704,58.8616,0.001779
61.720,58.8737,0.001779
61.736,58.8853,0.001779
61.752,58.8975,0.001779
61.768,58.9087,0.001779
61.784,58.9204,0.001779
61.800,58.9318,0.001779
61.816,58.9424,0.001779
61.833,58.9540,0.001779
61.858,58.9708,0.001779
61.890,58.9906,0.001779
61.919,59.0090,0.001779
61.950,59.0270,0.001751
61.982,59.0455,0.001751
62.012,59.0617,0.001751
62.030,59.0716,0.001751
62.058,59.0855,0.001751
62.089,59.1010,0.001751
62.105,59.1083,0.001751
62.120,59.1154,0.001751
62.136,59.1218,0.001751
62.153,59.1295,0.001751
62.182,59.1416,0.001619
62.200,59.1486,0.001619
62.216,59.1552,0.001619
62.231,59.1608,0.001619
62.248,59.1667,0.001619
62.275,59.1762,0.001619
62.295,59.1827,0.001619
62.312,59.1881,0.001619
62.328,59.1925,0.001619
62.344,59.1973,0.001619
62.359,59.2016,0.001619
62.376,59.2058,0.001619
62.392,59.2099,0.001619
62.407,59.2136,0.001619
62.423,59.2173,0.001619
62.454,59.2239,0.001403
62.470,59.2270,0.001403
62.485,59.2297,0.001403
62.502,59.2326,0.001403
62.518,59.2351,0.001403
62.537,59.2379,0.001403
62.554,59.2399,0.001403
62.584,59.2433,0.001403
62.599,59.2448,0.001403
62.614,59.2460,0.001403
62.629,59.2471,0.001403
62.647,59.2482,0.001403
62.662,59.2490,0.001403
62.677,59.2495,0.001148
62.694,59.2498,0.001148
62.710,59.2501,0.001148
62.726,59.2501,0.001148
62.741,59.2501,0.001148
62.757,59.2501,0.001148
62.774,59.2501,0.001148
62.790,59.2501,0.001148
62.805,59.2501,0.001148
62.821,59.2501,0.001148
62.837,59.2501,0.001148
62.853,59.2501,0.001148
62.869,59.2501,0.001148
62.885,59.2501,0.001148
62.902,59.2501,0.001148
62.917,59.2501,0.001148
62.934,59.2501,0.001205
62.949,59.2501,0.001205
62.975,59.2501,0.001205
62.992,59.2501,0.001205
63.008,59.2501,0.001205
63.024,59.2501,0.001205
63.040,59.2501,0.001205
63.055,59.2501,0.001205
63.072,59.2501,0.001205
63.088,59.2501,0.001205
63.103,59.2501,0.001205
63.119,59.2501,0.001205
63.135,59.2501,0.001205
63.151,59.2501,0.001205
63.168,59.2501,0.001205
63.183,59.2501,0.001431
63.202,59.2501,0.001431
63.231,59.2501,0.001431
63.247,59.2501,0.001431
63.264,59.2501,0.001431
63.279,59.2501,0.001431
63.295,59.2501,0.001431
63.311,59.2501,0.001431
63.328,59.2501,0.001431
63.344,59.2501,0.001431
63.359,59.2501,0.001431
63.375,59.2501,0.001431
63.392,59.2501,0.001431
63.415,59.2501,0.001431
63.430,59.2501,0.001553
63.461,59.2501,0.001553
63.492,59.2501,0.001553
63.523,59.2501,0.001553
63.553,59.2501,0.001553
63.568,59.2501,0.001553
63.583,59.2501,0.001553
63.599,59.2501,0.001553
63.616,59.2501,0.001553
63.631,59.2501,0.001553
63.647,59.2501,0.001553
63.664,59.2501,0.001553
63.681,59.2501,0.001553
63.707,59.2501,0.001581
63.727,59.2501,0.001581
63.748,59.2501,0.001581
63.769,59.2501,0.001581
63.800,59.2501,0.001581
63.815,59.2501,0.001581
63.830,59.2501,0.001581
63.861,59.2501,0.001581
63.892,59.2501,0.001581
63.922,59.2501,0.001581
63.952,59.2501,0.001544
63.983,59.2501,0.001544
64.000,59.2501,0.001544
64.016,59.2501,0.001544
64.041,59.2501,0.001544
64.057,59.2501,0.001544
64.073,59.2501,0.001544
64.089,59.2501,0.001544
64.105,59.2501,0.001544
64.121,59.2501,0.001544
64.137,59.2501,0.001544
64.154,59.2501,0.001544
64.172,59.2501,0.001544
64.199,59.2501,0.001572
64.217,59.2501,0.001572
64.234,59.2501,0.001572
64.249,59.2501,0.001572
64.265,59.2501,0.001572
64.281,59.2501,0.001572
64.298,59.2501,0.001572
64.313,59.2501,0.001572
64.329,59.2501,0.001572
64.345,59.2501,0.001572
64.362,59.2501,0.001572
64.384,59.2501,0.001572
64.415,59.2501,0.001572
64.435,59.2501,0.001572
64.458,59.2501,0.001572
64.477,59.2501,0.001572
64.493,59.2501,0.001544
64.509,59.2501,0.001544
64.525,59.2501,0.001544
64.555,59.2501,0.001544
64.585,59.2501,0.001544
64.602,59.2501,0.001544
64.632,59.2501,0.001544
64.649,59.2501,0.001544
64.667,59.2501,0.001544
64.695,59.2501,0.001516
64.713,59.2501,0.001516
64.729,59.2501,0.001516
64.745,59.2501,0.001516
64.761,59.2501,0.001516
64.777,59.2501,0.001516
64.794,59.2501,0.001516
64.820,59.2501,0.001516
64.841,59.2501,0.001516
64.857,59.2501,0.001516
64.874,59.2501,0.001516
64.898,59.2501,0.001516
64.913,59.2501,0.001516
64.944,59.2501,0.001525
64.974,59.2501,0.001525
65.006,59.2501,0.001525
65.021,59.2501,0.001525
65.055,59.2501,0.001525
65.084,59.2501,0.001525
65.107,59.2501,0.001525
65.122,59.2501,0.001525
65.138,59.2501,0.001525
65.155,59.2501,0.001525
65.171,59.2501,0.001525
65.191,59.2501,0.001506
65.222,59.2501,0.001506
65.253,59.2501,0.001506
65.269,59.2501,0.001506
65.284,59.2501,0.001506
65.315,59.2501,0.001506
65.331,59.2501,0.001506
65.348,59.2501,0.001506
65.378,59.2501,0.001506
65.395,59.2501,0.001506
65.412,59.2501,0.001506
65.440,59.2501,0.001534
65.458,59.2501,0.001534
65.475,59.2501,0.001534
65.492,59.2501,0.001534
65.516,59.2501,0.001534
65.549,59.2501,0.001534
65.570,59.2501,0.001534
65.587,59.2501,0.001534
65.603,59.2501,0.001534
65.618,59.2501,0.001534
65.634,59.2501,0.001534
65.651,59.2501,0.001534
65.667,59.2501,0.001534
65.682,59.2501,0.001534
65.699,59.2501,0.001534
65.715,59.2501,0.001534
65.730,59.2501,0.001534
65.746,59.2501,0.001534
65.763,59.2501,0.001534
65.778,59.2501,0.001534
65.795,59.2501,0.001534
65.811,59.2501,0.001534
65.826,59.2501,0.001534
65.842,59.2501,0.001534
65.858,59.2501,0.001534
65.874,59.2501,0.001534
65.890,59.2501,0.001534
65.907,59.2501,0.001534
65.922,59.2501,0.001506
65.938,59.2501,0.001506
65.959,59.2501,0.001506
65.982,59.2501,0.001506
66.002,59.2501,0.001506
66.018,59.2501,0.001506
66.035,59.2501,0.001506
66.050,59.2501,0.001506
66.067,59.2501,0.001506
66.083,59.2501,0.001506
66.099,59.2501,0.001506
66.114,59.2501,0.001506
66.131,59.2501,0.001506
66.146,59.2501,0.001506
66.162,59.2501,0.001506
66.178,59.2501,0.001506
66.195,59.2501,0.001525
66.210,59.2501,0.001525
66.226,59.2501,0.001525
66.242,59.2501,0.001525
66.258,59.2501,0.001525
66.275,59.2501,0.001525
66.292,59.2501,0.001525
66.308,59.2501,0.001525
66.339,59.2501,0.001525
66.354,59.2501,0.001525
66.371,59.2501,0.001525
66.387,59.2501,0.001525
66.402,59.2501,0.001525
66.419,59.2501,0.001525
66.436,59.2501,0.001525
66.462,59.2501,0.001572
66.482,59.2501,0.001572
66.498,59.2501,0.001572
66.514,59.2501,0.001572
66.530,59.2501,0.001572
66.547,59.2501,0.001572
66.563,59.2501,0.001572
66.578,59.2501,0.001572
66.594,59.2501,0.001572
66.610,59.2501,0.001572
66.627,59.2501,0.001572
66.642,59.2501,0.001572
66.658,59.2501,0.001572
66.674,59.2501,0.001572
66.690,59.2501,0.001572
66.706,59.2501,0.001572
66.737,59.2501,0.001553
66.753,59.2501,0.001553
66.769,59.2501,0.001553
66.785,59.2501,0.001553
66.801,59.2501,0.001553
66.817,59.2501,0.001553
66.833,59.2501,0.001553
66.849,59.2501,0.001553
66.865,59.2501,0.001553
66.881,59.2501,0.001553
66.897,59.2501,0.001553
66.913,59.2501,0.001553
66.930,59.2501,0.001553
66.945,59.2501,0.001553
66.962,59.2501,0.001525
66.977,59.2501,0.001525
66.993,59.2501,0.001525
67.009,59.2501,0.001525
67.025,59.2501,0.001525
67.041,59.2501,0.001525
67.057,59.2501,0.001525
67.073,59.2501,0.001525
67.089,59.2501,0.001525
67.105,59.2501,0.001525
67.121,59.2501,0.001525
67.137,59.2501,0.001525
67.153,59.2501,0.001525
67.169,59.2501,0.001525
67.185,59.2501,0.001525
67.201,59.2501,0.001431
67.217,59.2501,0.001431
67.233,59.2501,0.001431
67.250,59.2501,0.001431
67.280,59.2501,0.001431
67.297,59.2501,0.001431
67.313,59.2501,0.001431
67.329,59.2501,0.001431
67.346,59.2501,0.001431
67.361,59.2501,0.001431
67.378,59.2501,0.001431
67.404,59.2501,0.001431
67.429,59.2501,0.001431
67.451,59.2501,0.001431
67.482,59.2501,0.001346
67.513,59.2501,0.001346
67.543,59.2500,0.001346
67.575,59.2492,0.001346
67.590,59.2486,0.001346
67.621,59.2467,0.001346
67.651,59.2443,0.001346
67.682,59.2409,0.001346
67.698,59.2389,0.001374
67.713,59.2369,0.001374
67.731,59.2342,0.001374
67.760,59.2295,0.001374
67.777,59.2264,0.001374
67.793,59.2231,0.001374
67.816,59.2183,0.001374
67.832,59.2149,0.001374
67.848,59.2110,0.001374
67.863,59.2072,0.001374
67.880,59.2027,0.001374
67.895,59.1986,0.001374
67.912,59.1940,0.001374
67.928,59.1892,0.001374
67.944,59.1844,0.002956
67.960,59.1790,0.002956
67.976,59.1738,0.002956
67.992,59.1681,0.002956
68.008,59.1624,0.002956
68.023,59.1567,0.002956
68.040,59.1504,0.002956
68.055,59.1440,0.002956
68.072,59.1375,0.002956
68.088,59.1309,0.002956
68.105,59.1236,0.002956
68.120,59.1168,0.002956
68.136,59.1093,0.002956
68.152,59.1021,0.002956
68.168,59.0943,0.002956
68.184,59.0866,0.002956
68.199,59.0788,0.005610
68.217,59.0698,0.005610
68.232,59.0617,0.005610
68.248,59.0530,0.005610
68.263,59.0447,0.005610
68.279,59.0357,0.005610
68.303,59.0216,0.005610
68.333,59.0034,0.005610
68.358,58.9886,0.005610
68.373,58.9786,0.005610
68.390,58.9682,0.005610
68.406,58.9575,0.005610
68.421,58.9471,0.005610
68.437,58.9362,0.004321
68.454,58.9248,0.004321
68.469,58.9137,0.004321
68.486,58.9016,0.004321
68.518,58.8785,0.004321
68.534,58.8659,0.004321
68.549,58.8542,0.004321
68.565,58.8417,0.004321
68.582,58.8287,0.004321
68.597,58.8161,0.004321
68.613,58.8031,0.004321
68.629,58.7900,0.004321
68.645,58.7763,0.004321
68.662,58.7626,0.004321
68.678,58.7487,0.001826
68.693,58.7348,0.001826
68.710,58.7198,0.001826
68.726,58.7057,0.001826
68.742,58.6914,0.001826
68.757,58.6769,0.001826
68.774,58.6607,0.001826
68.794,58.6422,0.001826
68.825,58.6124,0.001826
68.841,58.5967,0.001826
68.872,58.5645,0.001826
68.897,58.5387,0.001826
68.914,58.5221,0.001826
68.929,58.5056,0.001798
68.946,58.4872,0.001798
68.961,58.4713,0.001798
68.977,58.4539,0.001798
68.993,58.4359,0.001798
69.009,58.4183,0.001798
69.026,58.3992,0.001798
69.041,58.3819,0.001798
69.057,58.3631,0.001798
69.073,58.3446,0.001798
69.090,58.3250,0.001798
69.106,58.3066,0.001798
69.122,58.2874,0.001798
69.137,58.2684,0.001798
69.154,58.2472,0.001798
69.169,58.2289,0.001798
69.186,58.2083,0.001883
69.201,58.1883,0.001883
69.218,58.1676,0.001883
69.234,58.1473,0.001883
69.249,58.1273,0.001883
69.265,58.1057,0.001883
69.282,58.0840,0.001883
69.298,58.0629,0.001883
69.313,58.0417,0.001883
69.329,58.0205,0.001883
69.345,57.9978,0.001883
69.361,57.9764,0.001883
69.377,57.9540,0.001883
69.394,57.9295,0.001883
69.409,57.9082,0.001883
69.425,57.8861,0.001883
69.453,57.8442,0.001911
69.469,57.8212,0.001911
69.485,57.7984,0.001911
69.502,57.7735,0.001911
69.517,57.7497,0.001911
69.533,57.7267,0.001911
69.549,57.7019,0.001911
69.565,57.6772,0.001911
69.583,57.6496,0.001911
69.613,57.6034,0.001911
69.629,57.5768,0.001911
69.645,57.5508,0.001911
69.661,57.5249,0.001911
69.677,57.4990,0.001939
69.694,57.4718,0.001939
69.709,57.4470,0.001939
69.725,57.4210,0.001939
69.741,57.3937,0.001939
69.757,57.3675,0.001939
69.773,57.3394,0.001939
69.790,57.3106,0.001939
69.815,57.2675,0.001939
69.837,57.2283,0.001939
69.853,57.2020,0.001939
69.870,57.1722,0.001939
69.885,57.1447,0.001939
69.902,57.1156,0.001939
69.917,57.0864,0.001939
69.933,57.0581,0.002061
69.950,57.0273,0.002061
69.976,56.9780,0.002061
69.993,56.9478,0.002061
70.009,56.9168,0.002061
70.025,56.8878,0.002061
70.041,56.8577,0.002061
70.057,56.8272,0.002061
70.073,56.7964,0.002061
70.089,56.7649,0.002061
70.105,56.7343,0.002061
70.121,56.7034,0.002061
70.137,56.6715,0.002061
70.153,56.6385,0.002061
70.169,56.6076,0.002061
70.184,56.5761,0.002156
70.205,56.5353,0.002156
70.231,56.4811,0.002156
70.249,56.4453,0.002156
70.265,56.4116,0.002156
70.281,56.3789,0.002156
70.297,56.3442,0.002156
70.313,56.3118,0.002156
70.330,56.2759,0.002156
70.345,56.2429,0.002156
70.361,56.2104,0.002156
70.378,56.1695,0.002156
70.401,56.1252,0.002156
70.431,56.0617,0.002250
70.462,55.9982,0.002250
70.492,55.9358,0.002250
70.508,55.9021,0.002250
70.524,55.8701,0.002250
70.555,55.8107,0.002250
70.570,55.7795,0.002250
70.587,55.7457,0.002250
70.617,55.6873,0.002250
70.633,55.6554,0.002250
70.649,55.6254,0.002250
70.665,55.5960,0.002250
70.681,55.5660,0.002287
70.697,55.5360,0.002287
70.713,55.5051,0.002287
70.729,55.4761,0.002287
70.745,55.4448,0.002287
70.761,55.4159,0.002287
70.777,55.3865,0.002287
70.793,55.3581,0.002287
70.809,55.3291,0.002287
70.825,55.3012,0.002287
70.841,55.2730,0.002287
70.857,55.2446,0.002287
70.872,55.2166,0.002287
70.889,55.1883,0.002287
70.905,55.1613,0.002287
70.921,55.1334,0.002287
70.936,55.1061,0.002287
70.952,55.0792,0.002306
70.969,55.0518,0.002306
70.985,55.0254,0.002306
71.011,54.9807,0.002306
71.027,54.9555,0.002306
71.043,54.9294,0.002306
71.059,54.9039,0.002306
71.074,54.8793,0.002306
71.091,54.8532,0.002306
71.107,54.8284,0.002306
71.123,54.8029,0.002306
71.139,54.7779,0.002306
71.155,54.7541,0.002306
71.171,54.7279,0.002306
71.186,54.7045,0.002306
71.203,54.6809,0.002391
71.218,54.6575,0.002391
71.235,54.6332,0.002391
71.251,54.6098,0.002391
71.267,54.5862,0.002391
71.282,54.5640,0.002391
71.301,54.5371,0.002391
71.328,54.4990,0.002391
71.347,54.4733,0.002391
71.364,54.4494,0.002391
71.392,54.4112,0.002391
71.411,54.3860,0.002391
71.426,54.3644,0.002391
71.442,54.3438,0.002391
71.459,54.3223,0.002523
71.475,54.3004,0.002523
71.491,54.2811,0.002523
71.507,54.2603,0.002523
71.522,54.2412,0.002523
71.546,54.2120,0.002523
71.561,54.1919,0.002523
71.577,54.1729,0.002523
71.594,54.1533,0.002523
71.611,54.1325,0.002523
71.640,54.0975,0.002523
71.657,54.0786,0.002523
71.674,54.0595,0.002523
71.689,54.0420,0.002523
71.705,54.0237,0.002645
71.721,54.0065,0.002645
71.742,53.9833,0.002645
71.764,53.9595,0.002645
71.786,53.9368,0.002645
71.802,53.9193,0.002645
71.818,53.9032,0.002645
71.833,53.8872,0.002645
71.849,53.8712,0.002645
71.866,53.8547,0.002645
71.882,53.8391,0.002645
71.897,53.8236,0.002645
71.913,53.8083,0.002645
71.929,53.7929,0.002645
71.945,53.7779,0.002758
71.961,53.7627,0.002758
71.977,53.7480,0.002758
71.993,53.7338,0.002758
72.010,53.7193,0.002758
72.025,53.7055,0.002758
72.044,53.6881,0.002758
72.073,53.6646,0.002758
72.102,53.6409,0.002758
72.117,53.6277,0.002758
72.133,53.6156,0.002758
72.149,53.6029,0.002758
72.166,53.5894,0.002758
72.182,53.5778,0.002758
72.198,53.5657,0.002880
72.213,53.5544,0.002880
72.230,53.5420,0.002880
72.259,53.5217,0.002880
72.277,53.5090,0.002880
72.294,53.4974,0.002880
72.322,53.4797,0.002880
72.341,53.4668,0.002880
72.359,53.4561,0.002880
72.384,53.4400,0.002880
72.405,53.4279,0.002880
72.422,53.4179,0.002880
72.438,53.4091,0.002880
72.453,53.4008,0.002956
72.469,53.3917,0.002956
72.485,53.3830,0.002956
72.502,53.3746,0.002956
72.517,53.3668,0.002956
72.534,53.3585,0.002956
72.552,53.3497,0.002956
72.571,53.3405,0.002956
72.602,53.3269,0.002956
72.624,53.3174,0.002956
72.640,53.3107,0.002956
72.656,53.3042,0.002956
72.672,53.2981,0.002956
72.688,53.2921,0.003059
72.704,53.2863,0.003059
72.720,53.2805,0.003059
72.736,53.2750,0.003059
72.752,53.2697,0.003059
72.768,53.2646,0.003059
72.784,53.2596,0.003059
72.800,53.2549,0.003059
72.816,53.2502,0.003059
72.832,53.2462,0.003059
72.848,53.2421,0.003059
72.864,53.2381,0.003059
72.880,53.2343,0.003059
72.897,53.2307,0.003059
72.912,53.2275,0.003059
72.928,53.2243,0.003059
72.944,53.2214,0.003153
72.960,53.2186,0.003153
72.976,53.2160,0.003153
72.992,53.2135,0.003153
73.008,53.2114,0.003153
73.025,53.2093,0.003153
73.041,53.2074,0.003153
73.065,53.2052,0.003153
73.096,53.2028,0.003153
73.126,53.2012,0.003153
73.156,53.2003,0.003153
73.188,53.2001,0.003200
73.219,53.2001,0.003200
73.250,53.2001,0.003200
73.266,53.2001,0.003200
73.297,53.2001,0.003200
73.313,53.2001,0.003200
73.328,53.2002,0.003200
73.344,53.2006,0.003200
73.360,53.2012,0.003200
73.376,53.2020,0.003200
73.392,53.2030,0.003200
73.408,53.2041,0.003200
73.424,53.2054,0.003257
73.440,53.2069,0.003257
73.457,53.2089,0.003257
73.485,53.2123,0.003257
73.504,53.2150,0.003257
73.520,53.2175,0.003257
73.536,53.2202,0.003257
73.552,53.2229,0.003257
73.568,53.2260,0.003257
73.584,53.2292,0.003257
73.600,53.2327,0.003257
73.616,53.2363,0.003257
73.633,53.2405,0.003257
73.654,53.2462,0.003257
73.670,53.2503,0.003257
73.703,53.2596,0.003219
73.733,53.2692,0.003219
73.764,53.2794,0.003219
73.779,53.2852,0.003219
73.795,53.2906,0.003219
73.810,53.2963,0.003219
73.841,53.3082,0.003219
73.856,53.3147,0.003219
73.872,53.3211,0.003219
73.889,53.3287,0.003219
73.905,53.3359,0.003219
73.934,53.3498,0.003125
73.952,53.3580,0.003125
73.968,53.3659,0.003125
73.984,53.3741,0.003125
74.000,53.3820,0.003125
74.017,53.3912,0.003125
74.044,53.4062,0.003125
74.063,53.4171,0.003125
74.079,53.4268,0.003125
74.095,53.4359,0.003125
74.111,53.4455,0.003125
74.128,53.4558,0.003125
74.144,53.4658,0.003125
74.159,53.4758,0.003125
74.176,53.4862,0.003040
74.191,53.4968,0.003040
74.221,53.5169,0.003040
74.237,53.5280,0.003040
74.253,53.5394,0.003040
74.268,53.5507,0.003040
74.284,53.5622,0.003040
74.301,53.5750,0.003040
74.316,53.5864,0.003040
74.332,53.5988,0.003040
74.349,53.6116,0.003040
74.365,53.6244,0.003040
74.380,53.6372,0.003040
74.397,53.6507,0.003040
74.413,53.6644,0.003040
74.428,53.6770,0.002946
74.447,53.6928,0.002946
74.475,53.7181,0.002946
74.492,53.7332,0.002946
74.509,53.7475,0.002946
74.524,53.7619,0.002946
74.541,53.7771,0.002946
74.557,53.7926,0.002946
74.572,53.8071,0.002946
74.589,53.8229,0.002946
74.604,53.8382,0.002946
74.621,53.8543,0.002946
74.636,53.8698,0.002946
74.652,53.8858,0.002946
74.668,53.9024,0.002946
74.685,53.9202,0.002946
74.701,53.9366,0.002946
74.717,53.9533,0.002824
74.746,53.9858,0.002824
74.771,54.0123,0.002824
74.801,54.0457,0.002824
74.831,54.0799,0.002824
74.862,54.1158,0.002824
74.892,54.1519,0.002824
74.907,54.1708,0.002824
74.923,54.1899,0.002824
74.944,54.2181,0.002711
74.969,54.2462,0.002711
74.986,54.2677,0.002711
75.002,54.2894,0.002711
75.031,54.3270,0.002711
75.049,54.3498,0.002711
75.065,54.3711,0.002711
75.081,54.3928,0.002711
75.097,54.4144,0.002711
75.114,54.4371,0.002711
75.130,54.4594,0.002711
75.155,54.4944,0.002711
75.177,54.5255,0.002711
75.194,54.5490,0.002711
75.210,54.5718,0.002607
75.225,54.5946,0.002607
75.241,54.6178,0.002607
75.270,54.6606,0.002607
75.286,54.6842,0.002607
75.302,54.7093,0.002607
75.318,54.7328,0.002607
75.334,54.7581,0.002607
75.350,54.7813,0.002607
75.367,54.8083,0.002607
75.382,54.8325,0.002607
75.398,54.8577,0.002607
75.414,54.8822,0.002607
75.430,54.9077,0.002607
75.446,54.9343,0.002607
75.462,54.9594,0.002570
75.478,54.9864,0.002570
75.498,55.0183,0.002570
75.515,55.0473,0.002570
75.540,55.0891,0.002570
75.558,55.1206,0.002570
75.574,55.1474,0.002570
75.590,55.1741,0.002570
75.606,55.2026,0.002570
75.622,55.2307,0.002570
75.638,55.2601,0.002570
75.654,55.2862,0.002570
75.671,55.3177,0.002570
75.688,55.3500,0.002570
75.710,55.3882,0.002570
75.741,55.4443,0.002513
75.757,55.4747,0.002513
75.788,55.5319,0.002513
75.812,55.5773,0.002513
75.828,55.6080,0.002513
75.844,55.6383,0.002513
75.860,55.6693,0.002513
75.876,55.7000,0.002513
75.892,55.7315,0.002513
75.908,55.7642,0.002513
75.924,55.7936,0.002513
75.940,55.8278,0.002513
75.956,55.8588,0.002316
75.972,55.8899,0.002316
75.991,55.9289,0.002316
76.019,55.9864,0.002316
76.036,56.0210,0.002316
76.053,56.0559,0.002316
76.082,56.1175,0.002316
76.100,56.1540,0.002316
76.117,56.1898,0.002316
76.144,56.2481,0.002316
76.164,56.2919,0.002316
76.180,56.3241,0.002316
76.196,56.3571,0.002316
76.212,56.3892,0.002165
76.228,56.4227,0.002165
76.246,56.4606,0.002165
76.266,56.5004,0.002165
76.296,56.5614,0.002165
76.313,56.5945,0.002165
76.343,56.6535,0.002165
76.358,56.6835,0.002165
76.389,56.7441,0.002165
76.405,56.7745,0.002165
76.421,56.8050,0.002165
76.436,56.8329,0.002165
76.452,56.8629,0.002156
76.469,56.8951,0.002156
76.486,56.9264,0.002156
76.512,56.9762,0.002156
76.532,57.0107,0.002156
76.549,57.0415,0.002156
76.564,57.0695,0.002156
76.580,57.0974,0.002156
76.596,57.1257,0.002156
76.612,57.1540,0.002156
76.628,57.1830,0.002156
76.644,57.2095,0.002156
76.660,57.2379,0.002156
76.676,57.2665,0.002156
76.691,57.2919,0.002146
76.707,57.3192,0.002146
76.724,57.3467,0.002146
76.740,57.3734,0.002146
76.755,57.3989,0.002146
76.771,57.4256,0.002146
76.787,57.4517,0.002146
76.804,57.4783,0.002146
76.820,57.5038,0.002146
76.836,57.5286,0.002146
76.855,57.5627,0.002146
76.881,57.6003,0.002146
76.896,57.6241,0.002146
76.913,57.6511,0.002146
76.929,57.6770,0.002146
76.960,57.7205,0.002061
76.976,57.7444,0.002061
76.991,57.7675,0.002061
77.007,57.7921,0.002061
77.023,57.8141,0.002061
77.040,57.8381,0.002061
77.056,57.8607,0.002061
77.072,57.8834,0.002061
77.087,57.9053,0.002061
77.105,57.9302,0.002061
77.132,57.9667,0.002061
77.152,57.9939,0.002061
77.168,58.0164,0.002061
77.184,58.0374,0.002061
77.199,58.0574,0.001920
77.216,58.0789,0.001920
77.232,58.1001,0.001920
77.248,58.1201,0.001920
77.263,58.1401,0.001920
77.280,58.1607,0.001920
77.296,58.1810,0.001920
77.312,58.2005,0.001920
77.328,58.2198,0.001920
77.343,58.2389,0.001920
77.360,58.2590,0.001920
77.375,58.2771,0.001920
77.392,58.2966,0.001920
77.407,58.3151,0.001920
77.424,58.3334,0.001920
77.439,58.3514,0.001817
77.455,58.3694,0.001817
77.472,58.3884,0.001817
77.488,58.4054,0.001817
77.503,58.4222,0.001817
77.519,58.4393,0.001817
77.539,58.4611,0.001817
77.567,58.4896,0.001817
77.583,58.5068,0.001817
77.599,58.5232,0.001817
77.615,58.5392,0.001817
77.632,58.5554,0.001817
77.647,58.5703,0.001817
77.664,58.5872,0.001817
77.690,58.6121,0.001751
77.711,58.6315,0.001751
77.728,58.6472,0.001751
77.743,58.6607,0.001751
77.759,58.6754,0.001751
77.776,58.6905,0.001751
77.792,58.7041,0.001751
77.815,58.7241,0.001751
77.846,58.7494,0.001751
77.876,58.7750,0.001751
77.907,58.7985,0.001751
77.931,58.8169,0.001751
77.946,58.8288,0.001751
77.962,58.8412,0.001751
77.978,58.8521,0.001751
77.994,58.8636,0.001751
78.010,58.8750,0.001751
78.027,58.8871,0.001751
78.046,58.8996,0.001751
78.062,58.9106,0.001751
78.078,58.9208,0.001751
78.109,58.9405,0.001751
78.139,58.9594,0.001751
78.156,58.9692,0.001751
78.185,58.9862,0.001751
78.202,58.9958,0.001751
78.218,59.0046,0.001751
78.234,59.0136,0.001751
78.250,59.0215,0.001751
78.266,59.0299,0.001751
78.282,59.0380,0.001751
78.298,59.0461,0.001751
78.314,59.0531,0.001751
78.330,59.0607,0.001751
78.346,59.0681,0.001751
78.362,59.0751,0.001751
78.378,59.0818,0.001751
78.395,59.0891,0.001751
78.417,59.0980,0.001751
78.433,59.1037,0.001751
78.463,59.1152,0.001581
78.494,59.1262,0.001581
78.510,59.1312,0.001581
78.542,59.1412,0.001581
78.558,59.1457,0.001581
78.575,59.1506,0.001581
78.604,59.1581,0.001581
78.634,59.1654,0.001581
78.651,59.1692,0.001581
78.680,59.1753,0.001365
78.698,59.1785,0.001365
78.714,59.1813,0.001365
78.730,59.1840,0.001365
78.746,59.1865,0.001365
78.762,59.1886,0.001365
78.778,59.1906,0.001365
78.794,59.1924,0.001365
78.810,59.1942,0.001365
78.826,59.1954,0.001365
78.842,59.1966,0.001365
78.858,59.1978,0.001365
78.876,59.1987,0.001365
78.897,59.1995,0.001365
78.927,59.2001,0.001365
78.943,59.2001,0.001365
78.974,59.2001,0.001167
78.998,59.2001,0.001167
79.014,59.2001,0.001167
79.030,59.2001,0.001167
79.046,59.2001,0.001167
79.062,59.2001,0.001167
79.078,59.2001,0.001167
79.094,59.2001,0.001167
79.110,59.2001,0.001167
79.126,59.2001,0.001167
79.142,59.2001,0.001167
79.158,59.2001,0.001167
79.174,59.2001,0.001205
79.190,59.2001,0.001205
79.205,59.2001,0.001205
79.222,59.2001,0.001205
79.239,59.2001,0.001205
79.255,59.2001,0.001205
79.270,59.2001,0.001205
79.286,59.2001,0.001205
79.303,59.2001,0.001205
79.318,59.2001,0.001205
79.333,59.2001,0.001205
79.350,59.2001,0.001205
79.366,59.2001,0.001205
79.382,59.2001,0.001205
79.398,59.2001,0.001205
79.413,59.2001,0.001205
79.429,59.2001,0.001205
79.446,59.2001,0.001412
79.461,59.2001,0.001412
79.478,59.2001,0.001412
79.494,59.2001,0.001412
79.509,59.2001,0.001412
79.525,59.2001,0.001412
79.541,59.2001,0.001412
79.558,59.2001,0.001412
79.573,59.2001,0.001412
79.589,59.2001,0.001412
79.606,59.2001,0.001412
79.621,59.2001,0.001412
79.638,59.2001,0.001412
79.653,59.2001,0.001412
79.670,59.2001,0.001412
79.685,59.2001,0.001412
79.702,59.2001,0.001544
79.718,59.2001,0.001544
79.735,59.2001,0.001544
79.763,59.2001,0.001544
79.781,59.2001,0.001544
79.798,59.2001,0.001544
79.814,59.2001,0.001544
79.829,59.2001,0.001544
79.847,59.2001,0.001544
79.862,59.2001,0.001544
79.878,59.2001,0.001544
79.893,59.2001,0.001544
79.910,59.2001,0.001544
79.925,59.2001,0.001544
79.942,59.2001,0.001516
79.957,59.2001,0.001516
79.974,59.2001,0.001516
79.994,59.2001,0.001516
80.010,59.2001,0.001516
80.041,59.2001,0.001516
80.083,59.2001,0.001516
80.101,59.2001,0.001516
80.118,59.2001,0.001516
80.134,59.2001,0.001516
80.150,59.2001,0.001516
80.165,59.2001,0.001516
80.182,59.2001,0.001516
80.197,59.2001,0.001516
80.213,59.2001,0.001516
80.229,59.2001,0.001516
80.247,59.2001,0.001516
80.273,59.2001,0.001516
80.293,59.2001,0.001516
80.309,59.2001,0.001516
80.325,59.2001,0.001516
80.341,59.2001,0.001516
80.358,59.2001,0.001516
80.373,59.2001,0.001516
80.389,59.2001,0.001516
80.406,59.2001,0.001516
80.421,59.2001,0.001516
80.437,59.2001,0.001516
80.453,59.2001,0.001563
80.469,59.2001,0.001563
80.485,59.2001,0.001563
80.501,59.2001,0.001563
80.517,59.2001,0.001563
80.533,59.2001,0.001563
80.549,59.2001,0.001563
80.565,59.2001,0.001563
80.581,59.2001,0.001563
80.610,59.2001,0.001563
80.628,59.2001,0.001563
80.645,59.2001,0.001563
80.675,59.2001,0.001563
80.706,59.2001,0.001544
80.721,59.2001,0.001544
80.738,59.2001,0.001544
80.767,59.2001,0.001544
80.784,59.2001,0.001544
80.800,59.2001,0.001544
80.816,59.2001,0.001544
80.832,59.2001,0.001544
80.848,59.2001,0.001544
80.864,59.2001,0.001544
80.880,59.2001,0.001544
80.896,59.2001,0.001544
80.912,59.2001,0.001544
80.928,59.2001,0.001544
80.944,59.2001,0.001544
80.960,59.2001,0.001553
80.976,59.2001,0.001553
80.993,59.2001,0.001553
81.015,59.2001,0.001553
81.031,59.2001,0.001553
81.062,59.2001,0.001553
81.092,59.2001,0.001553
81.123,59.2001,0.001553
81.138,59.2001,0.001553
81.165,59.2001,0.001553
81.181,59.2001,0.001553
81.197,59.2001,0.001591
81.213,59.2001,0.001591
81.230,59.2001,0.001591
81.245,59.2001,0.001591
81.261,59.2001,0.001591
81.277,59.2001,0.001591
81.293,59.2001,0.001591
81.309,59.2001,0.001591
81.325,59.2001,0.001591
81.341,59.2001,0.001591
81.358,59.2001,0.001591
81.374,59.2001,0.001591
81.389,59.2001,0.001591
81.405,59.2001,0.001591
81.421,59.2001,0.001591
81.438,59.2001,0.001591
81.462,59.2001,0.001525
81.494,59.2001,0.001525
81.524,59.2001,0.001525
81.539,59.2001,0.001525
81.555,59.2001,0.001525
81.571,59.2001,0.001525
81.601,59.2001,0.001525
81.618,59.2001,0.001525
81.648,59.2001,0.001525
81.678,59.2001,0.001525
81.709,59.2001,0.001563
81.726,59.2001,0.001563
81.756,59.2001,0.001563
81.773,59.2001,0.001563
81.789,59.2001,0.001563
81.805,59.2001,0.001563
81.821,59.2001,0.001563
81.837,59.2001,0.001563
81.854,59.2001,0.001563
81.882,59.2001,0.001563
81.901,59.2001,0.001563
81.917,59.2001,0.001563
81.933,59.2001,0.001563
81.948,59.2001,0.001591
81.965,59.2001,0.001591
81.981,59.2001,0.001591
81.996,59.2001,0.001591
82.012,59.2001,0.001591
82.029,59.2001,0.001591
82.046,59.2001,0.001591
82.068,59.2001,0.001591
82.084,59.2001,0.001591
82.114,59.2001,0.001591
82.130,59.2001,0.001591
82.162,59.2001,0.001591
82.178,59.2001,0.001591
82.208,59.2001,0.001591
82.231,59.2001,0.001516
82.248,59.2001,0.001516
82.264,59.2001,0.001516
82.280,59.2001,0.001516
82.296,59.2001,0.001516
82.311,59.2001,0.001516
82.328,59.2001,0.001516
82.344,59.2001,0.001516
82.359,59.2001,0.001516
82.376,59.2001,0.001516
82.392,59.2001,0.001516
82.408,59.2001,0.001516
82.424,59.2001,0.001516
82.439,59.2001,0.001563
82.455,59.2001,0.001563
82.473,59.2001,0.001563
82.488,59.2001,0.001563
82.518,59.2001,0.001563
82.538,59.2001,0.001563
82.565,59.2001,0.001563
82.584,59.2001,0.001563
82.600,59.2001,0.001563
82.615,59.2001,0.001563
82.636,59.2001,0.001563
82.660,59.2001,0.001563
82.679,59.2001,0.001563
82.695,59.2001,0.001497
82.711,59.2001,0.001497
82.727,59.2001,0.001497
82.743,59.2001,0.001497
82.759,59.2001,0.001497
82.775,59.2001,0.001497
82.792,59.2001,0.001497
82.808,59.2001,0.001497
82.824,59.2001,0.001497
82.839,59.2001,0.001497
82.855,59.2001,0.001497
82.871,59.2001,0.001497
82.887,59.2001,0.001497
82.903,59.2001,0.001497
82.920,59.2001,0.001497
82.935,59.2001,0.001384
82.951,59.2001,0.001384
82.968,59.2001,0.001384
82.983,59.2001,0.001384
82.999,59.2001,0.001384
83.016,59.2001,0.001384
83.032,59.2001,0.001384
83.048,59.2001,0.001384
83.063,59.2001,0.001384
83.080,59.2001,0.001384
83.096,59.2001,0.001384
83.111,59.2001,0.001384
83.127,59.2001,0.001384
83.144,59.2000,0.001384
83.170,59.1992,0.001308
83.191,59.1984,0.001308
83.210,59.1971,0.001308
83.225,59.1961,0.001308
83.247,59.1942,0.001308
83.278,59.1909,0.001308
83.308,59.1871,0.001308
83.323,59.1847,0.001308
83.355,59.1796,0.001308
83.371,59.1768,0.001308
83.402,59.1706,0.001308
83.433,59.1636,0.001308
83.463,59.1561,0.001901
83.479,59.1520,0.001901
83.496,59.1474,0.001901
83.512,59.1427,0.001901
83.527,59.1381,0.001901
83.543,59.1330,0.001901
83.560,59.1278,0.001901
83.575,59.1225,0.001901
83.591,59.1169,0.001901
83.607,59.1112,0.001901
83.623,59.1050,0.001901
83.639,59.0990,0.001901
83.655,59.0927,0.001901
83.671,59.0861,0.001901
83.688,59.0788,0.001901
83.703,59.0725,0.001901
83.719,59.0654,0.004603
83.735,59.0580,0.004603
83.752,59.0503,0.004603
83.767,59.0428,0.004603
83.783,59.0349,0.004603
83.800,59.0261,0.004603
83.815,59.0184,0.004603
83.831,59.0101,0.004603
83.862,58.9930,0.004603
83.878,58.9839,0.004603
83.893,58.9754,0.004603
83.909,58.9657,0.004603
83.925,58.9560,0.004603
83.941,58.9465,0.004603
83.957,58.9364,0.004989
83.974,58.9254,0.004989
83.990,58.9151,0.004989
84.005,58.9049,0.004989
84.021,58.8941,0.004989
84.037,58.8835,0.004989
84.053,58.8714,0.004989
84.069,58.8610,0.004989
84.085,58.8495,0.004989
84.101,58.8377,0.004989
84.118,58.8248,0.004989
84.136,58.8112,0.004989
84.160,58.7927,0.004989
84.182,58.7752,0.004989
84.197,58.7626,0.004989
84.213,58.7500,0.002579
84.230,58.7355,0.002579
84.245,58.7227,0.002579
84.261,58.7089,0.002579
84.277,58.6956,0.002579
84.293,58.6816,0.002579
84.309,58.6672,0.002579
84.325,58.6524,0.002579
84.341,58.6378,0.002579
84.357,58.6232,0.002579
84.373,58.6080,0.002579
84.389,58.5925,0.002579
84.419,58.5640,0.002579
84.435,58.5470,0.002579
84.450,58.5327,0.002579
84.466,58.5170,0.001892
84.482,58.5006,0.001892
84.498,58.4840,0.001892
84.514,58.4673,0.001892
84.531,58.4490,0.001892
84.546,58.4319,0.001892
84.562,58.4159,0.001892
84.579,58.3969,0.001892
84.594,58.3807,0.001892
84.610,58.3623,0.001892
84.626,58.3442,0.001892
84.642,58.3266,0.001892
84.658,58.3074,0.001892
84.674,58.2887,0.001892
84.690,58.2703,0.001817
84.706,58.2513,0.001817
84.722,58.2321,0.001817
84.739,58.2106,0.001817
84.758,58.1867,0.001817
84.774,58.1662,0.001817
84.804,58.1289,0.001817
84.834,58.0907,0.001817
84.850,58.0701,0.001817
84.865,58.0499,0.001817
84.881,58.0290,0.001817
84.898,58.0069,0.001817
84.916,57.9817,0.001817
84.940,57.9498,0.001817
84.956,57.9263,0.001817
84.972,57.9047,0.001854
84.989,57.8819,0.001854
85.004,57.8598,0.001854
85.020,57.8377,0.001854
85.039,57.8098,0.001854
85.067,57.7680,0.001854
85.084,57.7441,0.001854
85.100,57.7198,0.001854
85.116,57.6960,0.001854
85.132,57.6715,0.001854
85.147,57.6480,0.001854
85.164,57.6223,0.001854
85.180,57.5975,0.001854
85.195,57.5737,0.001920
85.213,57.5461,0.001920
85.230,57.5191,0.001920
85.245,57.4932,0.001920
85.267,57.4584,0.001920
85.298,57.4072,0.001920
85.329,57.3575,0.001920
85.346,57.3285,0.001920
85.375,57.2791,0.001920
85.391,57.2512,0.001920
85.422,57.1969,0.001920
85.453,57.1453,0.001883
85.468,57.1164,0.001883
85.484,57.0877,0.001883
85.499,57.0618,0.001883
85.516,57.0306,0.001883
85.534,56.9978,0.001883
85.562,56.9472,0.001883
85.580,56.9144,0.001883
85.596,56.8837,0.001883
85.611,56.8552,0.001883
85.628,56.8238,0.001883
85.644,56.7939,0.001883
85.660,56.7626,0.001883
85.676,56.7323,0.001883
85.691,56.7026,0.002118
85.707,56.6705,0.002118
85.724,56.6387,0.002118
85.739,56.6080,0.002118
85.755,56.5756,0.002118
85.771,56.5439,0.002118
85.788,56.5107,0.002118
85.803,56.4799,0.002118
85.819,56.4474,0.002118
85.835,56.4145,0.002118
85.851,56.3811,0.002118
85.868,56.3472,0.002118
85.883,56.3150,0.002118
85.899,56.2816,0.002118
85.915,56.2457,0.002118
85.931,56.2137,0.002316
85.947,56.1800,0.002316
85.963,56.1429,0.002316
85.987,56.0958,0.002316
86.003,56.0623,0.002316
86.018,56.0294,0.002316
86.034,55.9963,0.002316
86.050,55.9614,0.002316
86.066,55.9301,0.002316
86.082,55.8967,0.002316
86.098,55.8646,0.002316
86.114,55.8327,0.002316
86.130,55.8006,0.002316
86.146,55.7680,0.002316
86.162,55.7371,0.002316
86.179,55.7038,0.002316
86.194,55.6744,0.002222
86.210,55.6418,0.002222
86.228,55.6086,0.002222
86.243,55.5795,0.002222
86.258,55.5507,0.002222
86.274,55.5203,0.002222
86.290,55.4898,0.002222
86.307,55.4594,0.002222
86.322,55.4295,0.002222
86.338,55.4009,0.002222
86.356,55.3683,0.002222
86.382,55.3209,0.002222
86.402,55.2832,0.002222
86.418,55.2538,0.002222
86.435,55.2250,0.002156
86.458,55.1842,0.002156
86.474,55.1555,0.002156
86.489,55.1300,0.002156
86.504,55.1030,0.002156
86.520,55.0774,0.002156
86.542,55.0384,0.002156
86.557,55.0137,0.002156
86.573,54.9870,0.002156
86.589,54.9609,0.002156
86.605,54.9347,0.002156
86.621,54.9086,0.002156
86.637,54.8825,0.002156
86.653,54.8563,0.002156
86.669,54.8311,0.002156
86.686,54.8045,0.002156
86.705,54.7731,0.002344
86.736,54.7253,0.002344
86.752,54.7008,0.002344
86.768,54.6764,0.002344
86.799,54.6297,0.002344
86.830,54.5831,0.002344
86.861,54.5377,0.002344
86.878,54.5146,0.002344
86.908,54.4720,0.002344
86.925,54.4475,0.002344
86.942,54.4240,0.002344
86.958,54.4021,0.002513
86.985,54.3653,0.002513
87.005,54.3373,0.002513
87.021,54.3169,0.002513
87.037,54.2952,0.002513
87.053,54.2735,0.002513
87.069,54.2539,0.002513
87.085,54.2333,0.002513
87.101,54.2128,0.002513
87.117,54.1924,0.002513
87.133,54.1728,0.002513
87.149,54.1526,0.002513
87.165,54.1330,0.002513
87.181,54.1138,0.002513
87.197,54.0947,0.002645
87.213,54.0757,0.002645
87.229,54.0564,0.002645
87.245,54.0381,0.002645
87.262,54.0183,0.002645
87.279,53.9994,0.002645
87.294,53.9822,0.002645
87.309,53.9651,0.002645
87.324,53.9480,0.002645
87.341,53.9300,0.002645
87.357,53.9130,0.002645
87.373,53.8959,0.002645
87.390,53.8780,0.002645
87.405,53.8625,0.002645
87.423,53.8424,0.002645
87.449,53.8175,0.002758
87.469,53.7972,0.002758
87.485,53.7816,0.002758
87.501,53.7660,0.002758
87.517,53.7510,0.002758
87.533,53.7358,0.002758
87.549,53.7200,0.002758
87.565,53.7055,0.002758
87.581,53.6915,0.002758
87.603,53.6714,0.002758
87.619,53.6570,0.002758
87.635,53.6434,0.002758
87.650,53.6300,0.002758
87.671,53.6121,0.002758
87.696,53.5910,0.002862
87.715,53.5766,0.002862
87.731,53.5636,0.002862
87.746,53.5516,0.002862
87.763,53.5389,0.002862
87.778,53.5272,0.002862
87.795,53.5147,0.002862
87.810,53.5035,0.002862
87.826,53.4918,0.002862
87.843,53.4803,0.002862
87.859,53.4687,0.002862
87.875,53.4578,0.002862
87.890,53.4474,0.002862
87.906,53.4366,0.002862
87.923,53.4257,0.002862
87.938,53.4160,0.002918
87.955,53.4056,0.002918
87.970,53.3961,0.002918
87.986,53.3863,0.002918
88.003,53.3765,0.002918
88.019,53.3677,0.002918
88.036,53.3576,0.002918
88.051,53.3493,0.002918
88.067,53.3407,0.002918
88.091,53.3277,0.002918
88.114,53.3163,0.002918
88.130,53.3082,0.002918
88.158,53.2947,0.002918
88.174,53.2875,0.002918
88.190,53.2803,0.002984
88.205,53.2736,0.002984
88.222,53.2663,0.002984
88.244,53.2574,0.002984
88.270,53.2471,0.002984
88.302,53.2353,0.002984
88.318,53.2295,0.002984
88.348,53.2194,0.002984
88.365,53.2141,0.002984
88.381,53.2093,0.002984
88.397,53.2046,0.002984
88.414,53.1999,0.002984
88.429,53.1958,0.002984
88.446,53.1914,0.003088
88.461,53.1877,0.003088
88.478,53.1840,0.003088
88.494,53.1804,0.003088
88.509,53.1772,0.003088
88.525,53.1741,0.003088
88.542,53.1710,0.003088
88.557,53.1682,0.003088
88.573,53.1657,0.003088
88.589,53.1634,0.003088
88.606,53.1612,0.003088
88.621,53.1592,0.003088
88.637,53.1574,0.003088
88.654,53.1558,0.003088
88.680,53.1536,0.003088
88.703,53.1521,0.003088
88.734,53.1507,0.003144
88.750,53.1504,0.003144
88.780,53.1501,0.003144
88.811,53.1501,0.003144
88.827,53.1501,0.003144
88.843,53.1501,0.003144
88.873,53.1501,0.003144
88.889,53.1501,0.003144
88.907,53.1501,0.003144
88.935,53.1501,0.003229
88.951,53.1501,0.003229
88.968,53.1502,0.003229
88.996,53.1510,0.003229
89.015,53.1519,0.003229
89.032,53.1528,0.003229
89.047,53.1538,0.003229
89.063,53.1552,0.003229
89.079,53.1567,0.003229
89.095,53.1583,0.003229
89.111,53.1602,0.003229
89.127,53.1623,0.003229
89.143,53.1646,0.003229
89.162,53.1675,0.003229
89.184,53.1715,0.003229
89.215,53.1770,0.003257
89.245,53.1837,0.003257
89.261,53.1872,0.003257
89.277,53.1913,0.003257
89.307,53.1991,0.003257
89.322,53.2033,0.003257
89.338,53.2079,0.003257
89.369,53.2175,0.003257
89.385,53.2224,0.003257
89.400,53.2276,0.003257
89.415,53.2330,0.003257
89.431,53.2387,0.003200
89.448,53.2449,0.003200
89.470,53.2536,0.003200
89.485,53.2596,0.003200
89.508,53.2692,0.003200
89.527,53.2772,0.003200
89.543,53.2843,0.003200
89.559,53.2918,0.003200
89.575,53.2992,0.003200
89.591,53.3071,0.003200
89.607,53.3149,0.003200
89.623,53.3226,0.003200
89.639,53.3312,0.003200
89.655,53.3399,0.003200
89.672,53.3488,0.003200
89.696,53.3620,0.003097
89.727,53.3802,0.003097
89.757,53.3983,0.003097
89.789,53.4181,0.003097
89.819,53.4380,0.003097
89.851,53.4596,0.003097
89.880,53.4793,0.003097
89.896,53.4907,0.003097
89.911,53.5019,0.003097
89.927,53.5135,0.002975
89.943,53.5249,0.002975
89.963,53.5407,0.002975
89.990,53.5613,0.002975
90.007,53.5750,0.002975
90.023,53.5882,0.002975
90.039,53.6009,0.002975
90.055,53.6141,0.002975
90.071,53.6279,0.002975
90.087,53.6416,0.002975
90.103,53.6551,0.002975
90.119,53.6693,0.002975
90.135,53.6835,0.002975
90.151,53.6984,0.002975
90.167,53.7128,0.002975
90.183,53.7281,0.002890
90.199,53.7427,0.002890
90.215,53.7583,0.002890
90.231,53.7737,0.002890
90.262,53.8042,0.002890
90.278,53.8203,0.002890
90.294,53.8362,0.002890
90.310,53.8528,0.002890
90.327,53.8704,0.002890
90.359,53.9043,0.002890
90.389,53.9367,0.002890
90.408,53.9571,0.002890
90.436,53.9890,0.002805
90.454,54.0097,0.002805
90.470,54.0270,0.002805
90.486,54.0458,0.002805
90.502,54.0642,0.002805
90.520,54.0855,0.002805
90.544,54.1151,0.002805
90.560,54.1340,0.002805
90.591,54.1726,0.002805
90.621,54.2108,0.002805
90.637,54.2309,0.002805
90.667,54.2692,0.002805
90.698,54.3096,0.002739
90.729,54.3510,0.002739
90.760,54.3933,0.002739
90.775,54.4165,0.002739
90.806,54.4579,0.002739
90.824,54.4835,0.002739
90.853,54.5245,0.002739
90.870,54.5489,0.002739
90.886,54.5724,0.002739
90.901,54.5951,0.002739
90.918,54.6207,0.002739
90.934,54.6430,0.002655
90.950,54.6675,0.002655
90.965,54.6914,0.002655
90.982,54.7165,0.002655
90.998,54.7415,0.002655
91.013,54.7658,0.002655
91.029,54.7906,0.002655
91.046,54.8165,0.002655
91.062,54.8416,0.002655
91.078,54.8675,0.002655
91.093,54.8929,0.002655
91.110,54.9197,0.002655
91.126,54.9470,0.002655
91.142,54.9723,0.002655
91.158,54.9991,0.002655
91.174,55.0260,0.002655
91.189,55.0525,0.002655
91.206,55.0802,0.002542
91.221,55.1068,0.002542
91.238,55.1349,0.002542
91.254,55.1635,0.002542
91.269,55.1907,0.002542
91.286,55.2207,0.002542
91.305,55.2534,0.002542
91.333,55.3037,0.002542
91.362,55.3572,0.002542
91.378,55.3874,0.002542
91.395,55.4168,0.002542
91.411,55.4463,0.002542
91.427,55.4780,0.002542
91.457,55.5355,0.002438
91.475,55.5673,0.002438
91.491,55.5986,0.002438
91.507,55.6286,0.002438
91.522,55.6591,0.002438
91.538,55.6904,0.002438
91.556,55.7246,0.002438
91.571,55.7552,0.002438
91.587,55.7861,0.002438
91.604,55.8206,0.002438
91.619,55.8517,0.002438
91.635,55.8846,0.002438
91.658,55.9311,0.002438
91.694,56.0065,0.002438
91.714,56.0471,0.002325
91.730,56.0817,0.002325
91.747,56.1161,0.002325
91.762,56.1489,0.002325
91.778,56.1832,0.002325
91.794,56.2165,0.002325
91.811,56.2516,0.002325
91.827,56.2849,0.002325
91.842,56.3167,0.002325
91.859,56.3523,0.002325
91.884,56.4041,0.002325
91.906,56.4479,0.002325
91.936,56.5084,0.002325
91.966,56.5680,0.002240
91.996,56.6279,0.002240
92.012,56.6582,0.002240
92.043,56.7178,0.002240
92.062,56.7557,0.002240
92.089,56.8042,0.002240
92.107,56.8392,0.002240
92.123,56.8688,0.002240
92.139,56.8979,0.002240
92.155,56.9277,0.002240
92.172,56.9579,0.002240
92.188,56.9881,0.002240
92.203,57.0146,0.002184
92.220,57.0459,0.002184
92.235,57.0724,0.002184
92.251,57.1000,0.002184
92.267,57.1288,0.002184
92.283,57.1567,0.002184
92.299,57.1851,0.002184
92.315,57.2111,0.002184
92.331,57.2393,0.002184
92.347,57.2658,0.002184
92.363,57.2932,0.002184
92.379,57.3193,0.002184
92.408,57.3675,0.002184
92.424,57.3940,0.002184
92.440,57.4199,0.002118
92.456,57.4454,0.002118
92.472,57.4710,0.002118
92.488,57.4965,0.002118
92.504,57.5218,0.002118
92.520,57.5471,0.002118
92.536,57.5718,0.002118
92.552,57.5967,0.002118
92.569,57.6223,0.002118
92.586,57.6476,0.002118
92.617,57.6940,0.002118
92.632,57.7167,0.002118
92.648,57.7399,0.002118
92.665,57.7642,0.002118
92.694,57.8067,0.002033
92.712,57.8332,0.002033
92.728,57.8542,0.002033
92.744,57.8775,0.002033
92.760,57.8985,0.002033
92.779,57.9251,0.002033
92.802,57.9559,0.002033
92.824,57.9850,0.002033
92.840,58.0070,0.002033
92.857,58.0283,0.002033
92.872,58.0478,0.002033
92.888,58.0685,0.002033
92.904,58.0896,0.002033
92.920,58.1088,0.002033
92.951,58.1475,0.001949
92.967,58.1679,0.001949
92.983,58.1867,0.001949
92.999,58.2057,0.001949
93.016,58.2259,0.001949
93.036,58.2496,0.001949
93.051,58.2670,0.001949
93.082,58.3029,0.001949
93.114,58.3385,0.001949
93.144,58.3725,0.001949
93.160,58.3890,0.001949
93.175,58.4044,0.001873
93.191,58.4217,0.001873
93.207,58.4393,0.001873
93.236,58.4685,0.001873
93.255,58.4876,0.001873
93.271,58.5031,0.001873
93.287,58.5186,0.001873
93.305,58.5366,0.001873
93.329,58.5598,0.001873
93.351,58.5800,0.001873
93.367,58.5955,0.001873
93.383,58.6094,0.001873
93.398,58.6232,0.001873
93.414,58.6374,0.001873
93.431,58.6519,0.001873
93.447,58.6654,0.001873
93.463,58.6792,0.001873
93.484,58.6967,0.001817
93.500,58.7100,0.001817
93.515,58.7227,0.001817
93.532,58.7355,0.001817
93.547,58.7479,0.001817
93.563,58.7603,0.001817
93.580,58.7730,0.001817
93.597,58.7856,0.001817
93.617,58.8004,0.001817
93.639,58.8165,0.001817
93.659,58.8305,0.001817
93.676,58.8422,0.001817
93.692,58.8526,0.001817
93.707,58.8630,0.001732
93.724,58.8737,0.001732
93.739,58.8838,0.001732
93.755,58.8938,0.001732
93.772,58.9038,0.001732
93.787,58.9134,0.001732
93.803,58.9233,0.001732
93.819,58.9321,0.001732
93.835,58.9411,0.001732
93.851,58.9501,0.001732
93.868,58.9591,0.001732
93.883,58.9673,0.001732
93.899,58.9756,0.001732
93.915,58.9837,0.001732
93.931,58.9916,0.001732
93.948,58.9996,0.001685
93.964,59.0071,0.001685
93.980,59.0149,0.001685
93.996,59.0218,0.001685
94.012,59.0287,0.001685
94.039,59.0400,0.001685
94.054,59.0459,0.001685
94.069,59.0520,0.001685
94.085,59.0581,0.001685
94.101,59.0639,0.001685
94.118,59.0699,0.001685
94.133,59.0752,0.001685
94.149,59.0804,0.001685
94.166,59.0858,0.001685
94.183,59.0908,0.001685
94.211,59.0990,0.001544
94.230,59.1041,0.001544
94.245,59.1082,0.001544
94.262,59.1123,0.001544
94.277,59.1158,0.001544
94.294,59.1196,0.001544
94.321,59.1251,0.001544
94.342,59.1289,0.001544
94.359,59.1319,0.001544
94.382,59.1355,0.001544
94.412,59.1397,0.001544
94.428,59.1416,0.001544
94.444,59.1433,0.001233
94.474,59.1460,0.001233
94.490,59.1471,0.001233
94.506,59.1481,0.001233
94.536,59.1495,0.001233
94.566,59.1501,0.001233
94.584,59.1501,0.001233
94.612,59.1501,0.001233
94.629,59.1501,0.001233
94.645,59.1501,0.001233
94.661,59.1501,0.001233
94.677,59.1501,0.001233
94.693,59.1501,0.001233
94.709,59.1501,0.001139
94.725,59.1501,0.001139
94.742,59.1501,0.001139
94.757,59.1501,0.001139
94.773,59.1501,0.001139
94.789,59.1501,0.001139
94.806,59.1501,0.001139
94.821,59.1501,0.001139
94.837,59.1501,0.001139
94.853,59.1501,0.001139
94.869,59.1501,0.001139
94.885,59.1501,0.001139
94.902,59.1501,0.001139
94.917,59.1501,0.001139
94.933,59.1501,0.001139
94.949,59.1501,0.001384
94.965,59.1501,0.001384
94.981,59.1501,0.001384
94.997,59.1501,0.001384
95.013,59.1501,0.001384
95.029,59.1501,0.001384
95.045,59.1501,0.001384
95.061,59.1501,0.001384
95.077,59.1501,0.001384
95.108,59.1501,0.001384
95.124,59.1501,0.001384
95.140,59.1501,0.001384
