Elapsed Time (s),Position (mm),Force (N)
-0.017,61.2001,-0.025377
0.014,61.2001,-0.025377
0.045,61.2001,-0.027794
0.078,61.2001,-0.024169
0.109,61.2001,-0.024169
0.140,61.2001,-0.022961
0.172,61.2001,-0.022961
0.203,61.2001,-0.022961
0.223,61.2001,-0.022961
0.250,61.2001,-0.021752
0.271,61.2001,-0.025377
0.297,61.2001,-0.026586
0.327,61.2001,-0.026586
0.358,61.2001,-0.029003
0.389,61.2001,-0.025377
0.421,61.2001,-0.024169
0.452,61.2001,-0.025377
0.482,61.2001,-0.027794
0.514,61.2001,-0.025377
0.544,61.2001,-0.019335
0.575,61.2001,-0.022961
0.606,61.2001,-0.025377
0.631,61.2001,-0.024169
0.653,61.2001,-0.022961
0.684,61.2001,-0.025377
0.716,61.2001,-0.022961
0.746,61.2001,-0.020544
0.767,61.2001,-0.020544
0.794,61.2001,-0.020544
0.815,61.2001,-0.022961
0.839,61.2001,-0.021752
0.870,61.2001,-0.021752
0.901,61.2001,-0.021752
0.932,61.2001,-0.020544
0.962,61.2001,-0.026586
0.993,61.2001,-0.022961
1.024,61.2001,-0.021752
1.055,61.2001,-0.022961
1.086,61.2001,-0.020544
1.117,61.2001,-0.020544
1.149,61.2001,-0.020544
1.180,61.2001,-0.022961
1.214,61.2001,-0.022961
1.242,61.2001,-0.024169
1.273,61.2001,-0.022961
1.304,61.2001,-0.020544
1.336,61.2001,-0.019335
1.366,61.2001,-0.018127
1.398,61.2001,-0.020544
1.427,61.2001,-0.021752
1.459,61.2001,-0.024169
1.489,61.2001,-0.021752
1.520,61.2001,-0.022961
1.552,61.2001,-0.024169
1.584,61.2001,-0.022961
1.614,61.2001,-0.021752
1.645,61.2001,-0.021752
1.676,61.2001,-0.024169
1.708,61.2001,-0.016918
1.739,61.2001,-0.016918
1.770,61.2001,-0.020544
1.802,61.2001,-0.025377
1.823,61.2001,-0.024169
1.847,61.2001,-0.021752
1.879,61.2001,-0.019335
1.910,61.2001,-0.020544
1.941,61.2001,-0.020544
1.973,61.2001,-0.018127
2.003,61.2001,-0.021752
2.035,61.2001,-0.020544
2.065,61.2001,-0.019335
2.097,61.2001,-0.022961
2.128,61.2001,-0.022961
2.159,61.2001,-0.022961
2.191,61.2001,-0.016918
2.221,61.2001,-0.016918
2.254,61.2001,-0.020544
2.284,61.2001,-0.021752
2.315,61.2001,-0.019335
2.346,61.2001,-0.026586
2.366,61.2001,-0.026586
2.392,61.2001,-0.024169
2.422,61.2001,-0.016918
2.453,61.2001,-0.019335
2.483,61.2001,-0.020544
2.514,61.2001,-0.020544
2.546,61.2001,-0.016918
2.578,61.2001,-0.018127
2.609,61.2001,-0.016918
2.640,61.2001,-0.019335
2.671,61.2001,-0.019335
2.702,61.2001,-0.021752
2.734,61.2001,-0.021752
2.766,61.2001,-0.020544
2.797,61.2001,-0.016918
2.828,61.2001,-0.022961
2.858,61.2001,-0.019335
2.890,61.2001,-0.019335
2.921,61.2001,-0.021752
2.942,61.2001,-0.020544
2.967,61.2001,-0.020544
2.998,61.2001,-0.019335
3.029,61.2001,-0.021752
3.061,61.2001,-0.019335
3.092,61.2001,-0.018127
3.123,61.2001,-0.020544
3.154,61.2001,-0.021752
3.185,61.2001,-0.018127
3.216,61.2001,-0.018127
3.248,61.2001,-0.015710
3.279,61.2001,-0.018127
3.311,61.2001,-0.019335
3.343,61.2001,-0.018127
3.374,61.2001,-0.021752
3.405,61.2001,-0.019335
3.436,61.2001,-0.015710
3.467,61.2001,-0.018127
3.497,61.2001,-0.019335
3.528,61.2001,-0.019335
3.549,61.2001,-0.018127
3.574,61.2001,-0.018127
3.605,61.2001,-0.016918
3.637,61.2001,-0.022961
3.667,61.2001,-0.018127
3.698,61.2001,-0.020544
3.728,61.2001,-0.020544
3.759,61.2001,-0.020544
3.791,61.2001,-0.018127
3.822,61.2001,-0.016918
3.852,61.2001,-0.019335
3.884,61.2001,-0.019335
3.909,61.2001,-0.019335
3.931,61.2001,-0.021752
3.961,61.2001,-0.025377
3.992,61.2001,-0.021752
4.012,61.2001,-0.018127
4.039,61.2001,-0.021752
4.070,61.2001,-0.019335
4.100,61.2001,-0.021752
4.131,61.2001,-0.016918
4.162,61.2001,-0.018127
4.193,61.2001,-0.018127
4.224,61.2001,-0.019335
4.253,61.2001,-0.021752
4.285,61.2001,-0.021752
4.315,61.2001,-0.022961
4.345,61.2001,-0.021752
4.378,61.2001,-0.019335
4.408,61.2001,-0.020544
4.429,61.2001,-0.020544
4.454,61.2001,-0.019335
4.485,61.2001,-0.016918
4.519,61.2001,-0.018127
4.540,61.2001,-0.018127
4.563,61.2001,-0.018127
4.594,61.2001,-0.018127
4.625,61.2001,-0.021752
4.656,61.2001,-0.016918
4.687,61.2001,-0.016918
4.726,61.2001,-0.015710
4.748,61.2001,-0.015710
4.781,61.2001,-0.018127
4.812,61.2001,-0.018127
4.842,61.2001,-0.016918
4.864,61.2001,-0.016918
4.888,61.2001,-0.018127
4.910,61.2001,-0.018127
4.934,61.2001,-0.018127
4.966,61.2001,-0.018127
4.997,61.2001,-0.016918
5.028,61.2001,-0.016918
5.059,61.2001,-0.015710
5.090,61.2001,-0.019335
5.120,61.2001,-0.024169
5.151,61.2001,-0.020544
5.182,61.2001,-0.016918
5.214,61.2001,-0.015710
5.245,61.2001,-0.019335
5.276,61.2001,-0.015710
5.307,61.2001,-0.015710
5.338,61.2001,-0.019335
5.369,61.2001,-0.019335
5.401,61.2001,-0.019335
5.432,61.2001,-0.016918
5.452,61.2001,-0.024169
5.479,61.2001,-0.022961
5.500,61.2001,-0.020544
5.526,61.2001,-0.020544
5.556,61.2001,-0.016918
5.578,61.2001,-0.020544
5.604,61.2001,-0.020544
5.634,61.2001,-0.015710
5.666,61.2001,-0.016918
5.696,61.2001,-0.016918
5.728,61.2001,-0.018127
5.759,61.2001,-0.013293
5.790,61.2001,-0.019335
5.821,61.2001,-0.021752
5.853,61.2001,-0.020544
5.883,61.2001,-0.016918
5.916,61.2001,-0.019335
5.946,61.2001,-0.019335
5.976,61.2001,-0.016918
6.008,61.2001,-0.018127
6.030,61.2001,-0.021752
6.054,61.2001,-0.019335
6.075,61.2001,-0.018127
6.101,61.2001,-0.018127
6.132,61.2001,-0.019335
6.163,61.2001,-0.018127
6.194,61.2001,-0.015710
6.224,61.2001,-0.015710
6.255,61.2001,-0.015710
6.286,61.2001,-0.020544
6.322,61.2001,-0.020544
6.348,61.2001,-0.014501
6.379,61.2001,-0.016918
6.410,61.2001,-0.016918
6.441,61.2001,-0.014501
6.473,61.2001,-0.019335
6.504,61.2001,-0.019335
6.535,61.2001,-0.016918
6.568,61.2001,-0.016918
6.599,61.2001,-0.015710
6.629,61.2001,-0.015710
6.650,61.2001,-0.014501
6.680,61.2001,-0.016918
6.706,61.2001,-0.018127
6.737,61.2001,-0.020544
6.769,61.2001,-0.016918
6.800,61.2001,-0.016918
6.831,61.2001,-0.020544
6.862,61.2001,-0.015710
6.892,61.2001,-0.015710
6.923,61.2001,-0.018127
6.953,61.2001,-0.015710
6.985,61.2001,-0.020544
7.016,61.2001,-0.020544
7.046,61.2001,-0.020544
7.078,61.2001,-0.018127
7.108,61.2001,-0.015710
7.140,61.2001,-0.015710
7.160,61.2001,-0.016918
7.186,61.2001,-0.016918
7.208,61.2001,-0.018127
7.234,61.2001,-0.018127
7.265,61.2001,-0.018127
7.296,61.2001,-0.020544
7.326,61.2001,-0.020544
7.357,61.2001,-0.018127
7.388,61.2001,-0.015710
7.421,61.2001,-0.018127
7.451,61.2001,-0.015710
7.482,61.2001,-0.019335
7.512,61.2001,-0.018127
7.542,61.2001,-0.018127
7.575,61.2001,-0.018127
7.607,61.2001,-0.016918
7.639,61.2001,-0.016918
7.669,61.2001,-0.016918
7.700,61.2001,-0.014501
7.730,61.2001,-0.015710
7.751,61.2001,-0.016918
7.777,61.2001,-0.016918
7.808,61.2001,-0.018127
7.839,61.2001,-0.013293
7.869,61.2001,-0.018127
7.901,61.2001,-0.018127
7.933,61.2001,-0.014501
7.962,61.2001,-0.015710
7.994,61.2001,-0.019335
8.025,61.2001,-0.021752
8.055,61.2001,-0.021752
8.087,61.2001,-0.019335
8.117,61.2001,-0.019335
8.138,61.2001,-0.015710
8.164,61.2001,-0.018127
8.196,61.2001,-0.016918
8.226,61.2001,-0.018127
8.247,61.2001,-0.015710
8.272,61.2001,-0.015710
8.303,61.2001,-0.019335
8.338,61.2001,-0.012084
8.360,61.2001,-0.015710
8.382,61.2001,-0.018127
8.414,61.2001,-0.015710
8.444,61.2001,-0.015710
8.475,61.2001,-0.019335
8.507,61.2001,-0.016918
8.536,61.2001,-0.016918
8.567,61.2001,-0.019335
8.599,61.2001,-0.016918
8.629,61.2001,-0.016918
8.663,61.2001,-0.019335
8.692,61.2001,-0.016918
8.723,61.2001,-0.019335
8.754,61.2001,-0.016918
8.775,61.2001,-0.018127
8.800,61.2001,-0.018127
8.831,61.2001,-0.019335
8.852,61.2001,-0.015710
8.878,61.2001,-0.014501
8.916,61.2001,-0.016918
8.941,61.2001,-0.016918
8.971,61.2001,-0.014501
9.002,61.2001,-0.014501
9.032,61.2001,-0.016918
9.063,61.2001,-0.012084
9.094,61.2001,-0.012084
9.125,61.2001,-0.019335
9.156,61.2001,-0.019335
9.187,61.2001,-0.014501
9.218,61.2001,-0.016918
9.248,61.2001,-0.019335
9.281,61.2001,-0.015710
9.310,61.2001,-0.015710
9.340,61.2001,-0.015710
9.370,61.2001,-0.015710
9.401,61.2001,-0.015710
9.432,61.2001,-0.012084
9.463,61.2001,-0.016918
9.494,61.2001,-0.015710
9.525,61.2001,-0.019335
9.556,61.2001,-0.020544
9.587,61.2001,-0.019335
9.618,61.2001,-0.019335
9.648,61.2001,-0.016918
9.678,61.2001,-0.015710
9.700,61.2001,-0.019335
9.725,61.2001,-0.024169
9.756,61.2001,-0.020544
9.787,61.2001,-0.014501
9.817,61.2001,-0.016918
9.848,61.2001,-0.015710
9.880,61.2001,-0.012084
9.912,61.2001,-0.012084
9.944,61.2001,-0.015710
9.975,61.2001,-0.014501
10.006,61.2001,-0.018127
10.037,61.2001,-0.018127
10.068,61.2001,-0.016918
10.099,61.2001,-0.018127
10.130,61.2001,-0.018127
10.162,61.2001,-0.015710
10.193,61.2001,-0.021752
10.224,61.2001,-0.015710
10.255,61.2001,-0.016918
10.275,61.2001,-0.018127
10.302,61.2001,-0.012084
10.324,61.2001,-0.012084
10.349,61.2001,-0.010876
10.381,61.2001,-0.018127
10.411,61.2001,-0.019335
10.442,61.2001,-0.014501
10.473,61.2001,-0.022961
10.496,61.2001,-0.021752
10.520,61.2001,-0.019335
10.551,61.2001,-0.018127
10.582,61.2001,-0.018127
10.613,61.2001,-0.014501
10.643,61.2001,-0.015710
10.676,61.2001,-0.018127
10.704,61.2001,-0.016918
10.738,61.2001,-0.019335
10.768,61.2001,-0.016918
10.799,61.2001,-0.013293
10.831,61.2001,-0.015710
10.853,61.2001,-0.021752
10.878,61.2001,-0.018127
10.908,61.2001,-0.014501
10.928,61.2001,-0.018127
10.955,61.2001,-0.018127
10.978,61.2001,-0.018127
11.002,61.2001,-0.016918
11.034,61.2001,-0.015710
11.064,61.2001,-0.014501
11.095,61.2001,-0.016918
11.126,61.1995,-0.019335
11.157,61.1072,-0.006042
11.189,61.0133,0.000000
11.220,60.9201,0.000000
11.250,60.8270,0.004834
11.281,60.7365,0.025377
11.311,60.6441,0.030211
11.342,60.5526,0.049546
11.374,60.4593,0.049546
11.404,60.3680,0.071298
11.424,60.3071,0.071298
11.452,60.2226,0.079758
11.482,60.1340,0.095467
11.514,60.0369,0.095467
11.545,59.9441,0.119636
11.576,59.8517,0.128095
11.608,59.7564,0.136555
11.638,59.6667,0.167974
11.669,59.5743,0.177642
11.700,59.4792,0.192143
11.731,59.3876,0.199394
11.762,59.2946,0.219937
11.793,59.2020,0.222354
11.823,59.1090,0.227188
11.855,59.0151,0.224771
11.886,58.9209,0.198185
11.918,58.8273,0.190935
11.938,58.7658,0.176433
11.963,58.6926,0.176433
11.994,58.5966,0.120845
12.024,58.5063,0.012084
12.055,58.4133,0.004834
12.087,58.3197,0.002417
12.118,58.2270,0.006042
12.147,58.1370,0.002417
12.178,58.0446,0.000000
12.209,57.9543,0.000000
12.240,57.8600,0.002417
12.269,57.7716,0.002417
12.300,57.6795,0.003625
12.331,57.5871,0.003625
12.351,57.5241,0.004834
12.377,57.4467,-0.002417
12.400,57.3809,0.000000
12.425,57.3048,0.004834
12.454,57.2168,0.003625
12.486,57.1221,-0.001208
12.516,57.0309,0.002417
12.547,56.9379,0.001208
12.577,56.8473,-0.001208
12.609,56.7537,0.002417
12.640,56.6601,0.003625
12.661,56.5967,0.002417
12.687,56.5185,0.002417
12.717,56.4248,0.000000
12.748,56.3339,-0.002417
12.780,56.2395,-0.002417
12.811,56.1465,0.004834
12.842,56.0520,-0.001208
12.874,55.9581,-0.001208
12.905,55.8621,0.001208
12.936,55.7712,-0.001208
12.967,55.6776,0.002417
12.998,55.5849,0.004834
13.029,55.4877,0.000000
13.060,55.4002,0.001208
13.080,55.3386,0.001208
13.107,55.2579,0.001208
13.138,55.1628,-0.001208
13.168,55.1501,-0.008459
13.203,55.1501,-0.008459
13.230,55.1501,0.004834
13.251,55.1501,-0.002417
13.276,55.1501,-0.002417
13.307,55.1501,0.004834
13.338,55.1501,-0.004834
13.369,55.1501,-0.002417
13.399,55.1501,0.000000
13.431,55.1501,0.008459
13.462,55.1501,0.003625
13.493,55.1501,-0.003625
13.524,55.1501,0.000000
13.555,55.1501,-0.001208
13.577,55.1501,-0.002417
13.602,55.1501,0.002417
13.632,55.1501,0.001208
13.664,55.1501,-0.001208
13.694,55.1650,-0.003625
13.715,55.2295,-0.009668
13.740,55.3033,-0.019335
13.762,55.3708,-0.002417
13.787,55.4454,0.000000
13.819,55.5412,-0.002417
13.849,55.6308,-0.001208
13.880,55.7232,-0.001208
13.911,55.8156,-0.003625
13.941,55.9090,0.000000
13.973,56.0032,0.001208
14.005,56.0983,0.000000
14.038,56.1996,0.000000
14.068,56.2875,0.001208
14.099,56.3808,-0.002417
14.130,56.4757,-0.001208
14.161,56.5696,0.001208
14.193,56.6637,0.003625
14.224,56.7546,0.000000
14.254,56.8468,0.000000
14.285,56.9377,0.000000
14.305,57.0019,0.000000
14.332,57.0804,0.001208
14.352,57.1417,0.001208
14.378,57.2191,0.000000
14.409,57.3090,-0.002417
14.440,57.4071,-0.004834
14.471,57.4980,-0.003625
14.502,57.5931,0.002417
14.533,57.6838,0.001208
14.564,57.7779,0.001208
14.595,57.8688,-0.001208
14.626,57.9637,0.001208
14.657,58.0557,-0.003625
14.687,58.1454,-0.003625
14.718,58.2384,-0.002417
14.750,58.3342,-0.003625
14.781,58.4295,-0.001208
14.813,58.5222,0.000000
14.843,58.6143,0.000000
14.864,58.6765,0.000000
14.890,58.7539,0.000000
14.921,58.8475,-0.002417
14.951,58.9372,-0.003625
14.983,59.0328,-0.002417
15.014,59.1247,-0.004834
15.045,59.2203,-0.001208
15.077,59.3148,-0.001208
15.108,59.4108,-0.004834
15.140,59.5038,-0.006042
15.172,59.6013,-0.003625
15.203,59.6931,-0.007251
15.234,59.7895,-0.007251
15.265,59.8789,-0.004834
15.295,59.9698,-0.006042
15.326,60.0610,-0.007251
15.346,60.1216,-0.007251
15.372,60.1995,-0.008459
15.407,60.3069,-0.010876
15.435,60.3916,-0.008459
15.465,60.4813,-0.012084
15.486,60.5430,-0.012084
15.512,60.6192,-0.012084
15.542,60.7122,-0.013293
15.572,60.8004,-0.014501
15.604,60.8970,-0.018127
15.636,60.9921,-0.022961
15.667,61.0845,-0.037462
15.699,61.1501,-0.043504
15.730,61.1501,-0.036253
15.761,61.1501,-0.039879
15.792,61.1501,-0.038670
15.824,61.1501,-0.041087
15.855,61.1501,-0.041087
15.887,61.1501,-0.037462
15.918,61.1501,-0.033837
15.948,61.1501,-0.029003
15.980,61.1501,-0.029003
16.011,61.1501,-0.031420
16.042,61.1501,-0.031420
16.073,61.1501,-0.031420
16.104,61.1501,-0.029003
16.135,61.1501,-0.031420
16.155,61.1501,-0.031420
16.183,61.1501,-0.027794
16.214,61.1501,-0.027794
16.236,61.1501,-0.027794
16.261,61.1501,-0.025377
16.292,61.1501,-0.027794
16.323,61.1501,-0.026586
16.353,61.1501,-0.026586
16.384,61.1501,-0.027794
16.415,61.1501,-0.026586
16.447,61.1501,-0.030211
16.478,61.1501,-0.025377
16.508,61.1501,-0.022961
16.539,61.1501,-0.029003
16.570,61.1501,-0.025377
16.601,61.1501,-0.027794
16.630,61.1501,-0.025377
16.651,61.1501,-0.029003
16.677,61.1501,-0.025377
16.708,61.1501,-0.024169
16.740,61.1501,-0.026586
16.771,61.1501,-0.025377
16.802,61.1501,-0.024169
16.833,61.1501,-0.020544
16.864,61.1501,-0.021752
16.895,61.1501,-0.019335
16.925,61.1501,-0.022961
16.956,61.1501,-0.022961
16.989,61.1501,-0.024169
17.019,61.1501,-0.020544
17.041,61.1501,-0.020544
17.066,61.1501,-0.024169
17.097,61.1501,-0.022961
17.128,61.1501,-0.021752
17.159,61.1501,-0.022961
17.190,61.1501,-0.024169
17.221,61.1501,-0.027794
17.254,61.1501,-0.025377
17.284,61.1501,-0.026586
17.316,61.1501,-0.022961
17.347,61.1501,-0.024169
17.377,61.1501,-0.020544
17.408,61.1501,-0.021752
17.439,61.1501,-0.020544
17.471,61.1501,-0.024169
17.502,61.1501,-0.021752
17.533,61.1501,-0.024169
17.565,61.1501,-0.025377
17.596,61.1501,-0.025377
17.616,61.1501,-0.022961
17.642,61.1501,-0.021752
17.674,61.1501,-0.024169
17.705,61.1501,-0.020544
17.736,61.1501,-0.019335
17.768,61.1501,-0.021752
17.798,61.1501,-0.020544
17.829,61.1501,-0.024169
17.859,61.1501,-0.019335
17.891,61.1501,-0.026586
17.922,61.1501,-0.022961
17.953,61.1501,-0.021752
17.984,61.1501,-0.024169
18.015,61.1501,-0.024169
18.046,61.1501,-0.020544
18.077,61.1501,-0.016918
18.109,61.1501,-0.021752
18.138,61.1501,-0.022961
18.169,61.1501,-0.022961
18.200,61.1501,-0.024169
18.232,61.1501,-0.020544
18.252,61.1501,-0.020544
18.277,61.1501,-0.022961
18.308,61.1501,-0.019335
18.339,61.1501,-0.016918
18.370,61.1501,-0.022961
18.401,61.1501,-0.019335
18.433,61.1501,-0.016918
18.464,61.1501,-0.022961
18.495,61.1501,-0.024169
18.526,61.1501,-0.020544
18.557,61.1501,-0.018127
18.588,61.1501,-0.016918
18.619,61.1501,-0.025377
18.651,61.1501,-0.024169
18.681,61.1501,-0.019335
18.713,61.1501,-0.020544
18.734,61.1501,-0.020544
18.760,61.1501,-0.015710
18.791,61.1501,-0.022961
18.812,61.1501,-0.024169
18.837,61.1501,-0.021752
18.869,61.1501,-0.019335
18.901,61.1501,-0.014501
18.933,61.1501,-0.015710
18.964,61.1501,-0.018127
18.995,61.1501,-0.021752
19.027,61.1501,-0.019335
19.064,61.1501,-0.022961
19.088,61.1501,-0.025377
19.120,61.1501,-0.021752
19.151,61.1501,-0.015710
19.183,61.1501,-0.019335
19.215,61.1501,-0.025377
19.246,61.1501,-0.016918
19.277,61.1501,-0.016918
19.308,61.1501,-0.020544
19.338,61.1501,-0.020544
19.360,61.1501,-0.020544
19.385,61.1501,-0.021752
19.416,61.1501,-0.022961
19.447,61.1501,-0.021752
19.468,61.1501,-0.018127
19.494,61.1501,-0.021752
19.515,61.1501,-0.021752
19.541,61.1501,-0.018127
19.572,61.1501,-0.013293
19.603,61.1501,-0.019335
19.634,61.1501,-0.015710
19.666,61.1501,-0.025377
19.696,61.1501,-0.021752
19.719,61.1501,-0.015710
19.743,61.1501,-0.015710
19.774,61.1501,-0.016918
19.805,61.1501,-0.021752
19.836,61.1501,-0.015710
19.867,61.1501,-0.018127
19.898,61.1501,-0.019335
19.929,61.1501,-0.014501
19.961,61.1501,-0.016918
19.991,61.1501,-0.016918
20.023,61.1501,-0.019335
20.054,61.1501,-0.018127
20.085,61.1501,-0.020544
20.116,61.1501,-0.018127
20.147,61.1501,-0.016918
20.170,61.1501,-0.015710
20.194,61.1501,-0.016918
20.216,61.1501,-0.019335
20.241,61.1501,-0.018127
20.272,61.1501,-0.019335
20.305,61.1501,-0.020544
20.334,61.1501,-0.018127
20.365,61.1501,-0.018127
20.396,61.1501,-0.018127
20.428,61.1501,-0.019335
20.459,61.1501,-0.020544
20.491,61.1501,-0.018127
20.522,61.1501,-0.018127
20.553,61.1501,-0.015710
20.584,61.1501,-0.018127
20.616,61.1501,-0.018127
20.646,61.1501,-0.016918
20.678,61.1501,-0.020544
20.710,61.1501,-0.020544
20.741,61.1501,-0.018127
20.771,61.1501,-0.016918
20.802,61.1501,-0.020544
20.823,61.1501,-0.020544
20.850,61.1501,-0.025377
20.871,61.1501,-0.021752
20.895,61.1501,-0.021752
20.926,61.1501,-0.015710
20.957,61.1501,-0.016918
20.988,61.1501,-0.014501
21.019,61.1501,-0.020544
21.049,61.1501,-0.021752
21.081,61.1501,-0.020544
21.113,61.1501,-0.020544
21.143,61.1501,-0.022961
21.174,61.1501,-0.019335
21.206,61.1501,-0.018127
21.236,61.1501,-0.018127
21.267,61.1501,-0.020544
21.300,61.1501,-0.020544
21.331,61.1501,-0.019335
21.362,61.1501,-0.020544
21.383,61.1501,-0.020544
21.410,61.1501,-0.016918
21.431,61.1501,-0.015710
21.457,61.1501,-0.010876
21.479,61.1501,-0.016918
21.503,61.1501,-0.020544
21.534,61.1501,-0.020544
21.566,61.1501,-0.014501
21.596,61.1501,-0.015710
21.628,61.1501,-0.019335
21.659,61.1501,-0.019335
21.691,61.1501,-0.020544
21.721,61.1501,-0.020544
21.753,61.1501,-0.019335
21.782,61.1501,-0.016918
21.813,61.1501,-0.016918
21.844,61.1501,-0.019335
21.875,61.1501,-0.019335
21.906,61.1501,-0.014501
21.938,61.1501,-0.020544
21.958,61.1501,-0.020544
21.984,61.1501,-0.019335
22.016,61.1501,-0.016918
22.047,61.1501,-0.010876
22.078,61.1501,-0.015710
22.109,61.1501,-0.018127
22.140,61.1501,-0.016918
22.171,61.1501,-0.020544
22.202,61.1501,-0.018127
22.233,61.1501,-0.016918
22.264,61.1501,-0.014501
22.295,61.1501,-0.014501
22.326,61.1501,-0.019335
22.356,61.1501,-0.014501
22.388,61.1501,-0.016918
22.419,61.1501,-0.020544
22.449,61.1501,-0.019335
22.470,61.1501,-0.018127
22.496,61.1501,-0.018127
22.518,61.1501,-0.021752
22.542,61.1501,-0.021752
22.576,61.1501,-0.015710
22.603,61.1501,-0.015710
22.635,61.1501,-0.018127
22.666,61.1501,-0.013293
22.697,61.1501,-0.013293
22.728,61.1501,-0.020544
22.760,61.1501,-0.019335
22.792,61.1501,-0.019335
22.822,61.1501,-0.015710
22.853,61.1501,-0.020544
22.883,61.1501,-0.018127
22.914,61.1501,-0.015710
22.935,61.1501,-0.018127
22.960,61.1501,-0.018127
22.991,61.1501,-0.019335
23.025,61.1501,-0.018127
23.047,61.1501,-0.018127
23.069,61.1501,-0.016918
23.101,61.1501,-0.019335
23.132,61.1501,-0.018127
23.163,61.1501,-0.014501
23.193,61.1501,-0.015710
23.224,61.1501,-0.018127
23.255,61.1501,-0.018127
23.286,61.1501,-0.016918
23.317,61.1501,-0.018127
23.349,61.1501,-0.015710
23.380,61.1501,-0.013293
23.411,61.1501,-0.015710
23.442,61.1501,-0.019335
23.473,61.1501,-0.016918
23.493,61.1501,-0.016918
23.520,61.1501,-0.018127
23.550,61.1501,-0.015710
23.581,61.1501,-0.019335
23.613,61.1501,-0.018127
23.643,61.1501,-0.015710
23.674,61.1501,-0.014501
23.705,61.1501,-0.016918
23.736,61.1501,-0.016918
23.766,61.1501,-0.018127
23.797,61.1501,-0.020544
23.828,61.1501,-0.016918
23.859,61.1501,-0.013293
23.890,61.1501,-0.016918
23.921,61.1501,-0.018127
23.952,61.1501,-0.018127
23.974,61.1501,-0.013293
23.999,61.1501,-0.016918
24.030,61.1501,-0.016918
24.064,61.1501,-0.012084
24.093,61.1501,-0.015710
24.124,61.1501,-0.022961
24.156,61.1501,-0.022961
24.186,61.1501,-0.018127
24.218,61.1501,-0.015710
24.248,61.1501,-0.016918
24.280,61.1501,-0.015710
24.310,61.1501,-0.016918
24.341,61.1501,-0.016918
24.372,61.1501,-0.019335
24.403,61.1501,-0.016918
24.435,61.1501,-0.016918
24.466,61.1501,-0.021752
24.496,61.1501,-0.016918
24.517,61.1501,-0.016918
24.543,61.1501,-0.016918
24.565,61.1501,-0.016918
24.590,61.1501,-0.020544
24.621,61.1501,-0.020544
24.652,61.1501,-0.016918
24.683,61.1501,-0.013293
24.714,61.1501,-0.020544
24.745,61.1501,-0.016918
24.776,61.1501,-0.014501
24.807,61.1501,-0.016918
24.839,61.1501,-0.014501
24.872,61.1501,-0.010876
24.901,61.1501,-0.015710
24.933,61.1501,-0.016918
24.965,61.1501,-0.016918
24.996,61.1501,-0.016918
25.027,61.1501,-0.015710
25.057,61.1501,-0.016918
25.087,61.1501,-0.014501
25.108,61.1501,-0.015710
25.133,61.1501,-0.015710
25.165,61.1501,-0.018127
25.196,61.1501,-0.018127
25.227,61.1501,-0.015710
25.258,61.1501,-0.019335
25.289,61.1501,-0.021752
25.321,61.1501,-0.016918
25.352,61.1501,-0.014501
25.383,61.1501,-0.014501
25.414,61.1501,-0.015710
25.445,61.1501,-0.015710
25.476,61.1501,-0.018127
25.507,61.1501,-0.019335
25.539,61.1501,-0.021752
25.570,61.1501,-0.014501
25.601,61.1501,-0.015710
25.633,61.1501,-0.016918
25.663,61.1501,-0.013293
25.683,61.1501,-0.013293
25.709,61.1501,-0.018127
25.741,61.1501,-0.021752
25.772,61.1501,-0.018127
25.803,61.1501,-0.016918
25.834,61.1501,-0.016918
25.864,61.1501,-0.019335
25.896,61.1501,-0.019335
25.927,61.1501,-0.018127
25.958,61.1501,-0.019335
25.980,61.1501,-0.019335
26.005,61.1501,-0.012084
26.035,61.1501,-0.015710
26.065,61.1501,-0.018127
26.097,61.1501,-0.021752
26.128,61.1501,-0.013293
26.159,61.1501,-0.014501
26.180,61.1501,-0.016918
26.209,61.1501,-0.018127
26.236,61.1501,-0.018127
26.267,61.1501,-0.018127
26.297,61.1501,-0.020544
26.329,61.1501,-0.014501
26.359,61.1501,-0.013293
26.390,61.1501,-0.020544
26.422,61.1501,-0.020544
26.453,61.1501,-0.020544
26.485,61.1501,-0.015710
26.515,61.1501,-0.015710
26.546,61.1501,-0.016918
26.576,61.1501,-0.018127
26.608,61.1501,-0.015710
26.639,61.1501,-0.014501
26.671,61.1501,-0.014501
26.701,61.1501,-0.016918
26.721,61.1501,-0.016918
26.748,61.1501,-0.019335
26.769,61.1501,-0.016918
26.796,61.1501,-0.018127
26.817,61.1501,-0.018127
26.840,61.1501,-0.019335
26.872,61.1501,-0.016918
26.903,61.1501,-0.015710
26.934,61.1501,-0.015710
26.965,61.1501,-0.015710
26.997,61.1501,-0.015710
27.028,61.1501,-0.018127
27.059,61.1501,-0.013293
27.090,61.1501,-0.015710
27.121,61.1501,-0.016918
27.153,61.1501,-0.018127
27.184,61.1501,-0.019335
27.215,61.1501,-0.019335
27.246,61.1501,-0.013293
27.278,61.1501,-0.014501
27.310,61.1501,-0.015710
27.340,61.1501,-0.019335
27.361,61.1501,-0.016918
27.388,61.1501,-0.018127
27.409,61.1501,-0.014501
27.434,61.1501,-0.014501
27.466,61.1501,-0.016918
27.498,61.1501,-0.016918
27.528,61.1501,-0.015710
27.559,61.1501,-0.016918
27.589,61.1501,-0.015710
27.620,61.0732,-0.014501
27.651,60.9808,0.004834
27.682,60.8845,-0.003625
27.714,60.7908,0.002417
27.744,60.6982,0.026586
27.776,60.6058,0.032628
27.801,60.5286,0.032628
27.823,60.4642,0.053172
27.853,60.3745,0.061631
27.884,60.2823,0.076132
27.904,60.2209,0.076132
27.930,60.1426,0.082174
27.961,60.0499,0.095467
27.991,59.9596,0.102718
28.023,59.8641,0.126887
28.054,59.7724,0.135346
28.085,59.6767,0.159515
28.116,59.5852,0.169183
28.147,59.4901,0.192143
28.177,59.4013,0.204228
28.208,59.3074,0.211478
28.240,59.2147,0.216312
28.271,59.1192,0.222354
28.303,59.0230,0.218729
28.333,58.9342,0.210270
28.365,58.8385,0.190935
28.395,58.7467,0.180059
28.417,58.6834,0.163140
28.441,58.6081,0.132929
28.472,58.5187,0.062839
28.504,58.4212,0.001208
28.534,58.3310,-0.003625
28.566,58.2346,0.000000
28.597,58.1431,0.002417
28.629,58.0462,0.004834
28.659,57.9557,-0.002417
28.691,57.8608,0.000000
28.722,57.7663,0.004834
28.752,57.6764,0.000000
28.784,57.5821,0.003625
28.815,57.4876,0.004834
28.846,57.3937,0.002417
28.877,57.3022,0.002417
28.899,57.2368,0.001208
28.922,57.1658,0.000000
28.955,57.0658,0.000000
28.989,56.9641,-0.001208
29.018,56.8798,-0.002417
29.049,56.7850,0.001208
29.080,56.6928,0.000000
29.111,56.6002,0.001208
29.142,56.5063,0.001208
29.173,56.4142,0.001208
29.194,56.3515,0.001208
29.219,56.2765,-0.001208
29.251,56.1811,0.001208
29.282,56.0887,-0.001208
29.316,55.9831,0.002417
29.338,55.9204,0.002417
29.360,55.8547,0.001208
29.390,55.7623,-0.002417
29.422,55.6682,-0.001208
29.446,55.5967,-0.001208
29.468,55.5280,0.001208
29.500,55.4341,0.000000
29.530,55.3450,-0.002417
29.561,55.2514,-0.001208
29.592,55.1572,-0.001208
29.623,55.1000,-0.007251
29.654,55.1000,-0.019335
29.685,55.1000,0.001208
29.716,55.1000,-0.001208
29.747,55.1000,-0.003625
29.777,55.1000,-0.004834
29.798,55.1000,-0.003625
29.824,55.1000,0.001208
29.855,55.1000,0.002417
29.885,55.1000,0.001208
29.917,55.1000,0.006042
29.947,55.1000,0.001208
29.971,55.1000,0.001208
29.995,55.1000,0.001208
30.027,55.1000,0.007251
30.058,55.1000,-0.003625
30.091,55.1000,-0.001208
30.120,55.1000,-0.003625
30.152,55.1000,-0.002417
30.184,55.1000,0.001208
30.215,55.1475,0.000000
30.246,55.2420,-0.006042
30.282,55.3528,0.000000
30.308,55.4268,0.001208
30.339,55.5198,-0.001208
30.370,55.6126,0.001208
30.401,55.7065,0.001208
30.434,55.8078,0.000000
30.464,55.8955,0.000000
30.495,55.9890,0.000000
30.526,56.0845,-0.003625
30.558,56.1799,0.000000
30.578,56.2389,-0.001208
30.604,56.3163,-0.001208
30.636,56.4129,-0.001208
30.667,56.5047,-0.002417
30.699,56.6011,0.002417
30.730,56.6931,0.001208
30.760,56.7865,-0.002417
30.791,56.8764,-0.001208
30.823,56.9736,-0.002417
30.853,57.0643,0.001208
30.885,57.1593,-0.001208
30.915,57.2508,-0.001208
30.947,57.3445,-0.002417
30.977,57.4333,0.002417
31.007,57.5265,0.004834
31.039,57.6229,0.001208
31.070,57.7153,-0.003625
31.090,57.7752,-0.003625
31.116,57.8538,-0.003625
31.139,57.9204,-0.001208
31.162,57.9898,0.000000
31.193,58.0813,0.001208
31.224,58.1754,-0.002417
31.255,58.2678,-0.002417
31.287,58.3653,-0.002417
31.317,58.4560,-0.002417
31.348,58.5492,-0.003625
31.379,58.6429,-0.002417
31.410,58.7334,-0.003625
31.440,58.8258,0.000000
31.472,58.9188,-0.003625
31.503,59.0131,-0.002417
31.534,59.1072,-0.001208
31.554,59.1664,-0.001208
31.579,59.2431,0.000000
31.613,59.3436,-0.007251
31.634,59.4072,-0.007251
31.658,59.4787,-0.004834
31.688,59.5666,-0.004834
31.719,59.6616,-0.002417
31.750,59.7559,-0.002417
31.781,59.8491,-0.006042
31.812,59.9413,-0.004834
31.843,60.0337,-0.004834
31.873,60.1233,-0.004834
31.904,60.2157,-0.007251
31.935,60.3100,-0.008459
31.966,60.4026,-0.007251
31.986,60.4629,-0.009668
32.013,60.5464,-0.014501
32.034,60.6054,-0.014501
32.061,60.6862,-0.020544
32.082,60.7503,-0.021752
32.111,60.8367,-0.021752
32.138,60.9198,-0.024169
32.158,60.9792,-0.030211
32.184,61.0564,-0.030211
32.216,61.1000,-0.038670
32.247,61.1000,-0.036253
32.277,61.1000,-0.041087
32.308,61.1000,-0.043504
32.339,61.1000,-0.033837
32.371,61.1000,-0.031420
32.402,61.1000,-0.033837
32.434,61.1000,-0.033837
32.466,61.1000,-0.033837
32.497,61.1000,-0.032628
32.527,61.1000,-0.030211
32.558,61.1000,-0.030211
32.589,61.1000,-0.030211
32.620,61.1000,-0.031420
32.652,61.1000,-0.029003
32.676,61.1000,-0.029003
32.698,61.1000,-0.027794
32.731,61.1000,-0.024169
32.760,61.1000,-0.029003
32.792,61.1000,-0.030211
32.824,61.1000,-0.030211
32.854,61.1000,-0.026586
32.886,61.1000,-0.024169
32.916,61.1000,-0.024169
32.947,61.1000,-0.025377
32.979,61.1000,-0.022961
33.010,61.1000,-0.024169
33.041,61.1000,-0.029003
33.072,61.1000,-0.025377
33.103,61.1000,-0.025377
33.135,61.1000,-0.029003
33.156,61.1000,-0.024169
33.182,61.1000,-0.020544
33.203,61.1000,-0.020544
33.229,61.1000,-0.024169
33.260,61.1000,-0.021752
33.290,61.1000,-0.022961
33.321,61.1000,-0.024169
33.352,61.1000,-0.025377
33.383,61.1000,-0.021752
33.415,61.1000,-0.025377
33.446,61.1000,-0.021752
33.476,61.1000,-0.021752
33.508,61.1000,-0.029003
33.538,61.1000,-0.024169
33.570,61.1000,-0.026586
33.601,61.1000,-0.025377
33.633,61.1000,-0.022961
33.664,61.1000,-0.019335
33.694,61.1000,-0.024169
33.715,61.1000,-0.025377
33.740,61.1000,-0.025377
33.763,61.1000,-0.022961
33.787,61.1000,-0.022961
33.818,61.1000,-0.027794
33.849,61.1000,-0.027794
33.881,61.1000,-0.022961
33.912,61.1000,-0.024169
33.943,61.1000,-0.025377
33.974,61.1000,-0.022961
34.006,61.1000,-0.019335
34.038,61.1000,-0.020544
34.068,61.1000,-0.021752
34.099,61.1000,-0.022961
34.130,61.1000,-0.021752
34.161,61.1000,-0.019335
34.194,61.1000,-0.019335
34.224,61.1000,-0.018127
34.256,61.1000,-0.020544
34.288,61.1000,-0.022961
34.319,61.1000,-0.020544
34.350,61.1000,-0.021752
34.371,61.1000,-0.016918
34.397,61.1000,-0.018127
34.418,61.1000,-0.018127
34.443,61.1000,-0.015710
34.477,61.1000,-0.020544
34.499,61.1000,-0.021752
34.535,61.1000,-0.021752
34.566,61.1000,-0.021752
34.597,61.1000,-0.016918
34.628,61.1000,-0.019335
34.659,61.1000,-0.024169
34.690,61.1000,-0.024169
34.720,61.1000,-0.022961
34.751,61.1000,-0.024169
34.782,61.1000,-0.018127
34.802,61.1000,-0.018127
34.827,61.1000,-0.018127
34.858,61.1000,-0.020544
34.890,61.1000,-0.022961
34.920,61.1000,-0.019335
34.951,61.1000,-0.020544
34.983,61.1000,-0.020544
35.014,61.1000,-0.021752
35.045,61.1000,-0.021752
35.076,61.1000,-0.021752
35.108,61.1000,-0.019335
35.140,61.1000,-0.019335
35.170,61.1000,-0.020544
35.201,61.1000,-0.020544
35.232,61.1000,-0.021752
35.263,61.1000,-0.018127
35.294,61.1000,-0.022961
35.326,61.1000,-0.019335
35.347,61.1000,-0.019335
35.373,61.1000,-0.021752
35.404,61.1000,-0.020544
35.438,61.1000,-0.021752
35.458,61.1000,-0.021752
35.481,61.1000,-0.019335
35.512,61.1000,-0.016918
35.544,61.1000,-0.020544
35.575,61.1000,-0.022961
35.606,61.1000,-0.016918
35.640,61.1000,-0.020544
35.669,61.1000,-0.021752
35.701,61.1000,-0.018127
35.731,61.1000,-0.019335
35.762,61.1000,-0.020544
35.783,61.1000,-0.022961
35.809,61.1000,-0.022961
35.840,61.1000,-0.016918
35.871,61.1000,-0.014501
35.902,61.1000,-0.018127
35.933,61.1000,-0.016918
35.954,61.1000,-0.016918
35.981,61.1000,-0.018127
36.002,61.1000,-0.018127
36.026,61.1000,-0.020544
36.057,61.1000,-0.016918
36.088,61.1000,-0.021752
36.120,61.1000,-0.019335
36.151,61.1000,-0.020544
36.182,61.1000,-0.019335
36.213,61.1000,-0.016918
36.244,61.1000,-0.019335
36.276,61.1000,-0.019335
36.307,61.1000,-0.018127
36.337,61.1000,-0.016918
36.368,61.1000,-0.021752
36.399,61.1000,-0.018127
36.430,61.1000,-0.018127
36.450,61.1000,-0.015710
36.477,61.1000,-0.020544
36.497,61.1000,-0.020544
36.525,61.1000,-0.024169
36.546,61.1000,-0.024169
36.569,61.1000,-0.022961
36.600,61.1000,-0.014501
36.631,61.1000,-0.016918
36.662,61.1000,-0.018127
36.694,61.1000,-0.018127
36.725,61.1000,-0.020544
36.746,61.1000,-0.020544
36.771,61.1000,-0.018127
36.802,61.1000,-0.021752
36.833,61.1000,-0.019335
36.864,61.1000,-0.018127
36.896,61.1000,-0.016918
36.928,61.1000,-0.019335
36.959,61.1000,-0.015710
36.984,61.1000,-0.018127
37.008,61.1000,-0.016918
37.036,61.1000,-0.016918
37.067,61.1000,-0.021752
37.097,61.1000,-0.018127
37.128,61.1000,-0.015710
37.160,61.1000,-0.016918
37.192,61.1000,-0.014501
37.223,61.1000,-0.019335
37.254,61.1000,-0.019335
37.286,61.1000,-0.019335
37.317,61.1000,-0.024169
37.347,61.1000,-0.014501
37.378,61.1000,-0.019335
37.409,61.1000,-0.022961
37.440,61.1000,-0.016918
37.471,61.1000,-0.018127
37.502,61.1000,-0.020544
37.535,61.1000,-0.015710
37.565,61.1000,-0.019335
37.597,61.1000,-0.019335
37.629,61.1000,-0.020544
37.659,61.1000,-0.020544
37.680,61.1000,-0.015710
37.705,61.1000,-0.016918
37.737,61.1000,-0.020544
37.768,61.1000,-0.020544
37.801,61.1000,-0.018127
37.823,61.1000,-0.019335
37.846,61.1000,-0.018127
37.876,61.1000,-0.021752
37.908,61.1000,-0.024169
37.940,61.1000,-0.016918
37.970,61.1000,-0.020544
38.002,61.1000,-0.021752
38.033,61.1000,-0.016918
38.064,61.1000,-0.018127
38.094,61.1000,-0.014501
38.118,61.1000,-0.014501
38.140,61.1000,-0.015710
38.171,61.1000,-0.018127
38.203,61.1000,-0.016918
38.233,61.1000,-0.020544
38.266,61.1000,-0.018127
38.296,61.1000,-0.018127
38.327,61.1000,-0.022961
38.358,61.1000,-0.016918
38.389,61.1000,-0.013293
38.420,61.1000,-0.018127
38.451,61.1000,-0.025377
38.483,61.1000,-0.018127
38.514,61.1000,-0.015710
38.534,61.1000,-0.015710
38.560,61.1000,-0.014501
38.592,61.1000,-0.018127
38.623,61.1000,-0.015710
38.654,61.1000,-0.021752
38.676,61.1000,-0.021752
38.700,61.1000,-0.018127
38.731,61.1000,-0.016918
38.761,61.1000,-0.019335
38.793,61.1000,-0.019335
38.825,61.1000,-0.018127
38.856,61.1000,-0.021752
38.888,61.1000,-0.016918
38.920,61.1000,-0.016918
38.951,61.1000,-0.018127
38.982,61.1000,-0.018127
39.012,61.1000,-0.021752
39.043,61.1000,-0.015710
39.075,61.1000,-0.016918
39.106,61.1000,-0.019335
39.137,61.1000,-0.019335
39.170,61.1000,-0.018127
39.200,61.1000,-0.019335
39.234,61.1000,-0.019335
39.255,61.1000,-0.014501
39.279,61.1000,-0.014501
39.309,61.1000,-0.015710
39.339,61.1000,-0.020544
39.371,61.1000,-0.021752
39.403,61.1000,-0.019335
39.433,61.1000,-0.014501
39.463,61.1000,-0.013293
39.494,61.1000,-0.019335
39.525,61.1000,-0.014501
39.557,61.1000,-0.018127
39.589,61.1000,-0.019335
39.620,61.1000,-0.018127
39.651,61.1000,-0.016918
39.682,61.1000,-0.019335
39.713,61.1000,-0.020544
39.745,61.1000,-0.016918
39.776,61.1000,-0.015710
39.807,61.1000,-0.021752
39.838,61.1000,-0.016918
39.859,61.1000,-0.018127
39.883,61.1000,-0.018127
39.915,61.1000,-0.016918
39.946,61.1000,-0.019335
39.977,61.1000,-0.014501
40.007,61.1000,-0.020544
40.038,61.1000,-0.019335
40.069,61.1000,-0.016918
40.101,61.1000,-0.018127
40.132,61.1000,-0.014501
40.163,61.1000,-0.015710
40.194,61.1000,-0.016918
40.225,61.1000,-0.018127
40.255,61.1000,-0.019335
40.286,61.1000,-0.018127
40.317,61.1000,-0.014501
40.338,61.1000,-0.013293
40.363,61.1000,-0.013293
40.394,61.1000,-0.018127
40.426,61.1000,-0.020544
40.458,61.1000,-0.014501
40.487,61.1000,-0.018127
40.519,61.1000,-0.014501
40.550,61.1000,-0.016918
40.583,61.1000,-0.015710
40.613,61.1000,-0.016918
40.644,61.1000,-0.015710
40.675,61.1000,-0.015710
40.709,61.1000,-0.019335
40.741,61.1000,-0.020544
40.768,61.1000,-0.021752
40.799,61.1000,-0.015710
40.830,61.1000,-0.016918
40.861,61.1000,-0.018127
40.883,61.1000,-0.015710
40.907,61.1000,-0.015710
40.939,61.1000,-0.016918
40.970,61.1000,-0.018127
41.000,61.1000,-0.020544
41.031,61.1000,-0.016918
41.062,61.1000,-0.016918
41.094,61.1000,-0.016918
41.125,61.1000,-0.013293
41.156,61.1000,-0.013293
41.187,61.1000,-0.018127
41.218,61.1000,-0.016918
41.248,61.1000,-0.018127
41.280,61.1000,-0.020544
41.311,61.1000,-0.016918
41.342,61.1000,-0.018127
41.373,61.1000,-0.018127
41.404,61.1000,-0.015710
41.436,61.1000,-0.019335
41.458,61.1000,-0.019335
41.481,61.1000,-0.016918
41.513,61.1000,-0.021752
41.543,61.1000,-0.018127
41.574,61.1000,-0.015710
41.609,61.1000,-0.015710
41.636,61.1000,-0.015710
41.668,61.1000,-0.016918
41.699,61.1000,-0.015710
41.729,61.1000,-0.015710
41.761,61.1000,-0.021752
41.792,61.1000,-0.019335
41.824,61.1000,-0.014501
41.854,61.1000,-0.014501
41.886,61.1000,-0.022961
41.917,61.1000,-0.018127
41.948,61.1000,-0.014501
41.969,61.1000,-0.014501
41.995,61.1000,-0.014501
42.027,61.1000,-0.015710
42.057,61.1000,-0.019335
42.089,61.1000,-0.015710
42.119,61.1000,-0.015710
42.150,61.1000,-0.015710
42.181,61.1000,-0.015710
42.212,61.1000,-0.016918
42.244,61.1000,-0.018127
42.273,61.1000,-0.014501
42.306,61.1000,-0.018127
42.338,61.1000,-0.019335
42.369,61.1000,-0.010876
42.400,61.1000,-0.010876
42.432,61.1000,-0.015710
42.463,61.1000,-0.015710
42.495,61.1000,-0.016918
42.525,61.1000,-0.016918
42.557,61.1000,-0.016918
42.589,61.1000,-0.022961
42.609,61.1000,-0.018127
42.635,61.1000,-0.018127
42.666,61.1000,-0.016918
42.697,61.1000,-0.016918
42.727,61.1000,-0.019335
42.758,61.1000,-0.016918
42.790,61.1000,-0.021752
42.821,61.1000,-0.018127
42.852,61.1000,-0.019335
42.883,61.1000,-0.018127
42.914,61.1000,-0.018127
42.945,61.1000,-0.018127
42.976,61.1000,-0.014501
43.007,61.1000,-0.015710
43.038,61.1000,-0.019335
43.069,61.1000,-0.015710
43.101,61.1000,-0.018127
43.131,61.1000,-0.018127
43.162,61.1000,-0.016918
43.193,61.1000,-0.018127
43.225,61.1000,-0.020544
43.256,61.1000,-0.020544
43.287,61.1000,-0.019335
43.318,61.1000,-0.013293
43.349,61.1000,-0.018127
43.380,61.1000,-0.018127
43.411,61.1000,-0.016918
43.431,61.1000,-0.016918
43.458,61.1000,-0.013293
43.490,61.1000,-0.014501
43.520,61.1000,-0.021752
43.552,61.1000,-0.015710
43.583,61.1000,-0.020544
43.606,61.1000,-0.020544
43.630,61.1000,-0.019335
43.660,61.1000,-0.014501
43.691,61.1000,-0.014501
43.722,61.1000,-0.021752
43.753,61.1000,-0.014501
43.782,61.1000,-0.013293
43.806,61.1000,-0.013293
43.828,61.1000,-0.018127
43.849,61.1000,-0.019335
43.874,61.1000,-0.019335
43.896,61.1000,-0.019335
43.920,61.0525,-0.019335
43.951,60.9591,-0.006042
43.982,60.8652,-0.008459
44.013,60.7758,0.002417
44.042,60.6838,0.014501
44.073,60.5959,0.019335
44.105,60.4971,0.047129
44.134,60.4102,0.055589
44.166,60.3169,0.061631
44.197,60.2227,0.072507
44.228,60.1282,0.079758
44.259,60.0349,0.094259
44.290,59.9434,0.112386
44.321,59.8497,0.128095
44.342,59.7865,0.128095
44.368,59.7097,0.137763
44.399,59.6137,0.157098
44.430,59.5222,0.159515
44.461,59.4289,0.189726
44.492,59.3389,0.198185
44.523,59.2414,0.205436
44.554,59.1514,0.229605
44.585,59.0557,0.244106
44.617,58.9621,0.244106
44.648,58.8664,0.246523
44.679,58.7755,0.230814
44.703,58.7046,0.215104
44.727,58.6329,0.199394
44.748,58.5699,0.181267
44.773,58.4953,0.154681
44.803,58.4041,0.025377
44.834,58.3123,0.004834
44.865,58.2193,0.000000
44.896,58.1227,0.002417
44.928,58.0303,0.002417
44.959,57.9358,0.007251
44.991,57.8386,0.000000
45.021,57.7501,0.000000
45.052,57.6556,-0.001208
45.083,57.5637,-0.002417
45.115,57.4651,0.000000
45.144,57.3804,0.001208
45.177,57.2833,-0.001208
45.207,57.1899,0.002417
45.228,57.1307,0.001208
45.253,57.0544,0.001208
45.284,56.9588,0.000000
45.316,56.8662,-0.004834
45.346,56.7733,-0.001208
45.377,56.6818,0.003625
45.408,56.5885,0.001208
45.440,56.4940,0.002417
45.470,56.4007,-0.001208
45.501,56.3092,0.006042
45.532,56.2154,0.001208
45.563,56.1241,-0.001208
45.593,56.0350,-0.001208
45.625,55.9390,-0.001208
45.656,55.8448,-0.001208
45.687,55.7506,0.004834
45.719,55.6564,0.001208
45.739,55.5952,0.001208
45.765,55.5136,-0.004834
45.788,55.4509,-0.004834
45.814,55.3705,-0.003625
45.835,55.3069,0.003625
45.857,55.2421,0.002417
45.887,55.1512,0.003625
45.918,55.0588,0.004834
45.954,55.0500,0.001208
45.980,55.0500,-0.012084
46.011,55.0500,-0.002417
46.043,55.0500,-0.002417
46.066,55.0500,-0.002417
46.090,55.0500,-0.002417
46.121,55.0500,0.000000
46.152,55.0500,0.000000
46.183,55.0500,0.000000
46.214,55.0500,0.000000
46.245,55.0500,-0.001208
46.275,55.0500,0.000000
46.296,55.0500,-0.006042
46.321,55.0500,-0.006042
46.355,55.0500,0.003625
46.376,55.0500,0.003625
46.399,55.0500,-0.002417
46.430,55.0500,-0.004834
46.461,55.0500,-0.001208
46.492,55.0500,0.001208
46.523,55.0508,-0.001208
46.554,55.1366,-0.001208
46.586,55.2338,0.000000
46.616,55.3226,-0.002417
46.648,55.4174,-0.001208
46.679,55.5095,0.002417
46.710,55.6028,-0.001208
46.741,55.6958,-0.002417
46.773,55.7921,0.000000
46.804,55.8863,-0.003625
46.833,55.9745,-0.003625
46.866,56.0747,-0.003625
46.888,56.1365,-0.004834
46.911,56.2090,0.000000
46.942,56.2991,-0.001208
46.974,56.3969,-0.002417
47.005,56.4878,0.002417
47.036,56.5838,0.001208
47.068,56.6762,0.001208
47.099,56.7712,0.001208
47.130,56.8628,0.003625
47.161,56.9573,0.001208
47.192,57.0499,-0.001208
47.222,57.1406,0.001208
47.255,57.2384,0.001208
47.285,57.3287,0.002417
47.316,57.4247,0.000000
47.347,57.5152,0.003625
47.367,57.5753,0.001208
47.395,57.6578,-0.003625
47.416,57.7211,-0.001208
47.443,57.8053,0.003625
47.464,57.8675,0.000000
47.489,57.9406,-0.002417
47.519,58.0301,-0.006042
47.548,58.1186,-0.001208
47.580,58.2151,0.000000
47.611,58.3070,0.000000
47.643,58.4039,-0.001208
47.673,58.4948,-0.004834
47.704,58.5868,-0.001208
47.735,58.6783,-0.001208
47.766,58.7716,-0.003625
47.797,58.8661,-0.002417
47.829,58.9610,-0.001208
47.862,59.0642,-0.002417
47.891,59.1464,-0.002417
47.923,59.2430,-0.001208
47.943,59.3027,-0.001208
47.970,59.3818,-0.001208
48.000,59.4740,-0.003625
48.031,59.5670,-0.004834
48.063,59.6632,-0.006042
48.093,59.7533,-0.007251
48.124,59.8456,-0.004834
48.155,59.9393,-0.006042
48.187,60.0344,-0.007251
48.217,60.1243,-0.007251
48.249,60.2218,-0.009668
48.281,60.3152,-0.014501
48.312,60.4087,-0.014501
48.343,60.5036,-0.014501
48.375,60.5969,-0.014501
48.406,60.6914,-0.019335
48.437,60.7859,-0.024169
48.467,60.8770,-0.026586
48.499,60.9724,-0.032628
48.530,61.0500,-0.035045
48.551,61.0500,-0.033837
48.577,61.0500,-0.032628
48.607,61.0500,-0.033837
48.639,61.0500,-0.036253
48.668,61.0500,-0.035045
48.700,61.0500,-0.036253
48.731,61.0500,-0.036253
48.762,61.0500,-0.033837
48.794,61.0500,-0.032628
48.825,61.0500,-0.029003
48.857,61.0500,-0.029003
48.888,61.0500,-0.030211
48.920,61.0500,-0.032628
48.950,61.0500,-0.027794
48.981,61.0500,-0.031420
49.013,61.0500,-0.032628
49.044,61.0500,-0.026586
49.075,61.0500,-0.025377
49.106,61.0500,-0.030211
