Elapsed Time (s),Position (mm),Force (N)
-0.008,66.2001,-0.035045
0.022,66.2001,-0.031420
0.054,66.2001,-0.032628
0.088,66.2001,-0.033837
0.116,66.2001,-0.027794
0.147,66.2001,-0.030211
0.179,66.2001,-0.029003
0.211,66.2001,-0.033837
0.243,66.2001,-0.031420
0.274,66.2001,-0.029003
0.305,66.2001,-0.025377
0.337,66.2001,-0.030211
0.367,66.2001,-0.027794
0.398,66.2001,-0.031420
0.429,66.2001,-0.035045
0.463,66.2001,-0.033837
0.492,66.2001,-0.026586
0.522,66.2001,-0.027794
0.553,66.2001,-0.026586
0.574,66.2001,-0.026586
0.599,66.2001,-0.026586
0.631,66.2001,-0.031420
0.662,66.2001,-0.029003
0.693,66.2001,-0.031420
0.725,66.2001,-0.030211
0.755,66.2001,-0.029003
0.791,66.2001,-0.027794
0.818,66.2001,-0.029003
0.848,66.2001,-0.029003
0.879,66.2001,-0.021752
0.910,66.2001,-0.027794
0.942,66.2001,-0.025377
0.973,66.2001,-0.021752
1.004,66.2001,-0.025377
1.035,66.2001,-0.032628
1.067,66.2001,-0.033837
1.098,66.2001,-0.020544
1.118,66.2001,-0.026586
1.145,66.2001,-0.030211
1.166,66.2001,-0.030211
1.192,66.2001,-0.027794
1.224,66.2001,-0.025377
1.254,66.2001,-0.022961
1.289,66.2001,-0.026586
1.310,66.2001,-0.025377
1.333,66.2001,-0.025377
1.363,66.2001,-0.026586
1.394,66.2001,-0.029003
1.425,66.2001,-0.026586
1.456,66.2001,-0.022961
1.488,66.2001,-0.021752
1.519,66.2001,-0.026586
1.552,66.2001,-0.027794
1.582,66.2001,-0.025377
1.613,66.2001,-0.022961
1.645,66.2001,-0.021752
1.668,66.2001,-0.021752
1.692,66.2001,-0.027794
1.723,66.2001,-0.024169
1.754,66.2001,-0.026586
1.775,66.2001,-0.026586
1.800,66.2001,-0.024169
1.830,66.2001,-0.025377
1.861,66.2001,-0.031420
1.892,66.2001,-0.026586
1.924,66.2001,-0.027794
1.955,66.2001,-0.027794
1.985,66.2001,-0.025377
2.016,66.2001,-0.022961
2.047,66.2001,-0.022961
2.078,66.2001,-0.027794
2.108,66.2001,-0.022961
2.139,66.2001,-0.020544
2.170,66.2001,-0.019335
2.201,66.2001,-0.027794
2.221,66.2001,-0.026586
2.248,66.2001,-0.026586
2.280,66.2001,-0.027794
2.309,66.2001,-0.025377
2.341,66.2001,-0.025377
2.372,66.2001,-0.024169
2.402,66.2001,-0.026586
2.434,66.2001,-0.025377
2.464,66.2001,-0.022961
2.496,66.2001,-0.025377
2.526,66.2001,-0.025377
2.558,66.2001,-0.026586
2.589,66.2001,-0.024169
2.621,66.2001,-0.021752
2.652,66.2001,-0.024169
2.682,66.2001,-0.024169
2.713,66.2001,-0.024169
2.745,66.2001,-0.027794
2.766,66.2001,-0.027794
2.791,66.2001,-0.020544
2.823,66.2001,-0.025377
2.853,66.2001,-0.025377
2.884,66.2001,-0.027794
2.915,66.2001,-0.027794
2.946,66.2001,-0.022961
2.977,66.2001,-0.025377
3.008,66.2001,-0.025377
3.041,66.2001,-0.026586
3.071,66.2001,-0.024169
3.101,66.2001,-0.022961
3.132,66.2001,-0.024169
3.164,66.2001,-0.024169
3.196,66.2001,-0.024169
3.227,66.2001,-0.029003
3.260,66.2001,-0.025377
3.290,66.2001,-0.025377
3.322,66.2001,-0.024169
3.352,66.2001,-0.025377
3.383,66.2001,-0.025377
3.404,66.2001,-0.021752
3.430,66.2001,-0.020544
3.460,66.2001,-0.021752
3.492,66.2001,-0.021752
3.523,66.2001,-0.022961
3.554,66.2001,-0.026586
3.585,66.2001,-0.025377
3.616,66.2001,-0.030211
3.647,66.2001,-0.029003
3.678,66.2001,-0.022961
3.709,66.2001,-0.024169
3.741,66.2001,-0.021752
3.772,66.2001,-0.020544
3.803,66.2001,-0.021752
3.834,66.2001,-0.020544
3.865,66.2001,-0.025377
3.896,66.2001,-0.025377
3.916,66.2001,-0.025377
3.944,66.2001,-0.020544
3.975,66.2001,-0.020544
3.996,66.2001,-0.020544
4.021,66.2001,-0.019335
4.051,66.2001,-0.021752
4.089,66.2001,-0.021752
4.114,66.2001,-0.024169
4.144,66.2001,-0.024169
4.175,66.2001,-0.024169
4.206,66.2001,-0.024169
4.238,66.2001,-0.019335
4.269,66.2001,-0.019335
4.299,66.2001,-0.021752
4.330,66.2001,-0.026586
4.361,66.2001,-0.021752
4.393,66.2001,-0.026586
4.423,66.2001,-0.020544
4.444,66.2001,-0.020544
4.470,66.2001,-0.020544
4.501,66.2001,-0.019335
4.532,66.2001,-0.021752
4.563,66.2001,-0.024169
4.593,66.2001,-0.025377
4.625,66.2001,-0.021752
4.656,66.2001,-0.022961
4.688,66.2001,-0.022961
4.720,66.2001,-0.021752
4.751,66.2001,-0.022961
4.782,66.2001,-0.021752
4.812,66.2001,-0.025377
4.842,66.2001,-0.021752
4.875,66.2001,-0.024169
4.905,66.2001,-0.029003
4.938,66.2001,-0.025377
4.967,66.2001,-0.024169
4.997,66.2001,-0.025377
5.018,66.2001,-0.025377
5.043,66.2001,-0.021752
5.076,66.2001,-0.020544
5.106,66.2001,-0.019335
5.136,66.2001,-0.026586
5.167,66.2001,-0.030211
5.199,66.2001,-0.024169
5.231,66.2001,-0.020544
5.266,66.2001,-0.025377
5.294,66.2001,-0.022961
5.323,66.2001,-0.018127
5.354,66.2001,-0.022961
5.385,66.2001,-0.019335
5.417,66.2001,-0.021752
5.438,66.2001,-0.021752
5.464,66.2001,-0.022961
5.493,66.2001,-0.022961
5.524,66.2001,-0.022961
5.555,66.2001,-0.024169
5.586,66.2001,-0.024169
5.617,66.2001,-0.020544
5.639,66.2001,-0.019335
5.663,66.2001,-0.019335
5.696,66.2001,-0.024169
5.722,66.2001,-0.024169
5.757,66.2001,-0.026586
5.788,66.2001,-0.020544
5.818,66.2001,-0.022961
5.849,66.2001,-0.025377
5.881,66.2001,-0.020544
5.911,66.2001,-0.021752
5.944,66.2001,-0.022961
5.974,66.2001,-0.021752
6.005,66.2001,-0.024169
6.036,66.2001,-0.025377
6.067,66.2001,-0.021752
6.098,66.2001,-0.022961
6.118,66.2001,-0.022961
6.144,66.2001,-0.022961
6.175,66.2001,-0.020544
6.206,66.2001,-0.020544
6.237,66.2001,-0.020544
6.268,66.2001,-0.022961
6.299,66.2001,-0.022961
6.331,66.2001,-0.022961
6.361,66.2001,-0.021752
6.392,66.2001,-0.021752
6.424,66.2001,-0.021752
6.456,66.2001,-0.021752
6.487,66.2001,-0.021752
6.517,66.2001,-0.026586
6.548,66.2001,-0.025377
6.579,66.2001,-0.022961
6.610,66.2001,-0.021752
6.641,66.2001,-0.021752
6.662,66.2001,-0.024169
6.687,66.2001,-0.024169
6.719,66.2001,-0.018127
6.749,66.2001,-0.021752
6.781,66.2001,-0.024169
6.812,66.2001,-0.025377
6.842,66.2001,-0.020544
6.874,66.2001,-0.020544
6.905,66.2001,-0.026586
6.937,66.2001,-0.019335
6.968,66.2001,-0.019335
6.999,66.2001,-0.020544
7.031,66.2001,-0.020544
7.061,66.2001,-0.020544
7.091,66.2001,-0.021752
7.123,66.2001,-0.030211
7.154,66.2001,-0.022961
7.186,66.2001,-0.021752
7.218,66.2001,-0.020544
7.248,66.2001,-0.021752
7.270,66.2001,-0.020544
7.295,66.2001,-0.020544
7.325,66.2001,-0.021752
7.357,66.2001,-0.021752
7.390,66.2001,-0.020544
7.420,66.2001,-0.024169
7.450,66.2001,-0.020544
7.482,66.2001,-0.019335
7.513,66.2001,-0.021752
7.544,66.2001,-0.021752
7.576,66.2001,-0.022961
7.608,66.2001,-0.022961
7.631,66.2001,-0.024169
7.654,66.2001,-0.024169
7.684,66.2001,-0.026586
7.717,66.2001,-0.024169
7.746,66.2001,-0.020544
7.777,66.2001,-0.024169
7.809,66.2001,-0.021752
7.840,66.2001,-0.021752
7.871,66.2001,-0.024169
7.903,66.2001,-0.021752
7.934,66.2001,-0.021752
7.965,66.2001,-0.021752
7.996,66.2001,-0.019335
8.027,66.2001,-0.018127
8.047,66.2001,-0.021752
8.072,66.2001,-0.024169
8.103,66.2001,-0.022961
8.134,66.2001,-0.021752
8.166,66.2001,-0.021752
8.196,66.2001,-0.029003
8.228,66.2001,-0.027794
8.258,66.2001,-0.027794
8.289,66.2001,-0.025377
8.318,66.2001,-0.021752
8.349,66.2001,-0.018127
8.370,66.2001,-0.018127
8.396,66.2001,-0.025377
8.428,66.2001,-0.025377
8.448,66.2001,-0.025377
8.474,66.2001,-0.020544
8.495,66.2001,-0.020544
8.520,66.2001,-0.022961
8.551,66.2001,-0.024169
8.584,66.2001,-0.019335
8.615,66.2001,-0.021752
8.646,66.2001,-0.025377
8.677,66.2001,-0.018127
8.699,66.2001,-0.021752
8.724,66.2001,-0.021752
8.755,66.2001,-0.020544
8.785,66.2001,-0.020544
8.817,66.2001,-0.024169
8.848,66.2001,-0.020544
8.879,66.2001,-0.021752
8.910,66.2001,-0.018127
8.941,66.2001,-0.019335
8.971,66.2001,-0.024169
9.002,66.2001,-0.026586
9.034,66.2001,-0.019335
9.065,66.2001,-0.019335
9.085,66.2001,-0.021752
9.112,66.2001,-0.018127
9.143,66.2001,-0.021752
9.174,66.2001,-0.022961
9.205,66.2001,-0.022961
9.236,66.2001,-0.022961
9.258,66.2001,-0.022961
9.281,66.2001,-0.024169
9.313,66.2001,-0.020544
9.342,66.2001,-0.022961
9.373,66.2001,-0.022961
9.405,66.2001,-0.021752
9.436,66.2001,-0.022961
9.467,66.2001,-0.022961
9.498,66.2001,-0.021752
9.529,66.2001,-0.022961
9.550,66.2001,-0.022961
9.576,66.2001,-0.027794
9.608,66.2001,-0.026586
9.638,66.2001,-0.020544
9.669,66.2001,-0.025377
9.689,66.2001,-0.027794
9.715,66.2001,-0.026586
9.746,66.2001,-0.025377
9.777,66.2001,-0.022961
9.798,66.2001,-0.022961
9.825,66.2001,-0.022961
9.855,66.2001,-0.020544
9.887,66.2001,-0.022961
9.917,66.2001,-0.022961
9.948,66.2001,-0.024169
9.979,66.2001,-0.020544
10.011,66.2001,-0.024169
10.042,66.2001,-0.026586
10.073,66.2001,-0.022961
10.105,66.2001,-0.020544
10.136,66.2001,-0.022961
10.168,66.2001,-0.022961
10.200,66.2001,-0.026586
10.231,66.2001,-0.019335
10.261,66.2001,-0.020544
10.293,66.2001,-0.019335
10.323,66.2001,-0.020544
10.354,66.2001,-0.024169
10.374,66.2001,-0.024169
10.400,66.2001,-0.024169
10.432,66.2001,-0.022961
10.463,66.2001,-0.024169
10.494,66.2001,-0.020544
10.525,66.2001,-0.024169
10.557,66.2001,-0.020544
10.588,66.2001,-0.018127
10.618,66.2001,-0.022961
10.649,66.2001,-0.019335
10.680,66.2001,-0.016918
10.712,66.2001,-0.021752
10.744,66.2001,-0.021752
10.776,66.2001,-0.021752
10.808,66.2001,-0.021752
10.839,66.2001,-0.025377
10.870,66.2001,-0.021752
10.901,66.2001,-0.022961
10.932,66.2001,-0.024169
10.962,66.2001,-0.025377
10.993,66.2001,-0.021752
11.025,66.2001,-0.019335
11.046,66.2001,-0.019335
11.072,66.2001,-0.024169
11.103,66.2001,-0.019335
11.125,66.2001,-0.019335
11.150,66.1907,-0.021752
11.180,66.1025,-0.003625
11.211,66.0091,-0.009668
11.243,65.9152,-0.001208
11.273,65.8220,0.007251
11.304,65.7287,0.013293
11.336,65.6338,0.032628
11.366,65.5433,0.032628
11.398,65.4494,0.054380
11.428,65.3585,0.060422
11.460,65.2621,0.071298
11.490,65.1722,0.077341
11.520,65.0794,0.084591
11.550,64.9919,0.102718
11.581,64.8989,0.109969
11.612,64.8073,0.124470
11.643,64.7138,0.137763
11.674,64.6193,0.141388
11.705,64.5275,0.152264
11.735,64.4369,0.155890
11.766,64.3442,0.159515
11.798,64.2493,0.153473
11.830,64.1540,0.151056
11.862,64.0571,0.152264
11.892,63.9679,0.149848
11.923,63.8734,0.142597
11.955,63.7763,0.128095
11.985,63.6884,0.085800
12.017,63.5912,0.006042
12.048,63.4994,0.004834
12.070,63.4346,0.000000
12.094,63.3596,0.001208
12.116,63.2957,0.001208
12.141,63.2195,0.002417
12.172,63.1285,0.000000
12.204,63.0326,0.002417
12.234,62.9405,-0.002417
12.266,62.8442,-0.002417
12.297,62.7533,0.000000
12.328,62.6566,-0.003625
12.360,62.5613,-0.001208
12.392,62.4671,0.004834
12.422,62.3780,0.000000
12.454,62.2826,-0.002417
12.485,62.1863,0.001208
12.516,62.0972,-0.002417
12.546,62.0054,-0.004834
12.577,61.9121,-0.001208
12.609,61.8172,0.001208
12.640,61.7213,-0.001208
12.671,61.6292,0.000000
12.692,61.5683,0.002417
12.718,61.4903,-0.002417
12.748,61.3979,-0.003625
12.780,61.3026,-0.001208
12.811,61.2107,0.002417
12.842,61.1165,0.000000
12.873,61.0241,0.000000
12.904,60.9309,0.001208
12.935,60.8372,-0.003625
12.966,60.7423,-0.001208
12.998,60.6494,-0.006042
13.029,60.5552,0.001208
13.060,60.4625,0.003625
13.091,60.3698,0.000000
13.121,60.2810,0.002417
13.152,60.1883,0.002417
13.182,60.1501,0.000000
13.213,60.1501,-0.020544
13.246,60.1501,0.002417
13.267,60.1501,0.002417
13.290,60.1501,-0.001208
13.321,60.1501,-0.004834
13.353,60.1501,-0.004834
13.384,60.1501,0.001208
13.416,60.1501,0.001208
13.446,60.1501,-0.002417
13.479,60.1501,-0.001208
13.509,60.1501,0.001208
13.539,60.1501,-0.001208
13.570,60.1501,0.000000
13.592,60.1501,0.000000
13.617,60.2082,0.000000
13.648,60.3024,-0.018127
13.679,60.3948,-0.002417
13.710,60.4866,-0.003625
13.741,60.5820,-0.001208
13.773,60.6750,-0.002417
13.804,60.7719,-0.003625
13.835,60.8615,-0.003625
13.866,60.9545,-0.003625
13.898,61.0505,-0.001208
13.929,61.1436,0.001208
13.960,61.2378,-0.002417
13.991,61.3292,0.001208
14.023,61.4243,-0.001208
14.053,61.5144,0.002417
14.073,61.5759,0.002417
14.099,61.6539,-0.004834
14.120,61.7169,0.003625
14.145,61.7924,0.003625
14.176,61.8867,0.001208
14.206,61.9776,-0.002417
14.237,62.0705,0.001208
14.268,62.1641,-0.001208
14.300,62.2586,-0.006042
14.331,62.3493,-0.003625
14.362,62.4413,0.000000
14.393,62.5358,0.000000
14.424,62.6307,-0.004834
14.454,62.7221,0.001208
14.485,62.8143,-0.002417
14.517,62.9084,-0.004834
14.548,63.0014,-0.006042
14.579,63.0951,-0.001208
14.600,63.1566,-0.003625
14.626,63.2342,-0.003625
14.657,63.3291,-0.002417
14.687,63.4205,-0.003625
14.719,63.5150,-0.002417
14.750,63.6072,-0.006042
14.781,63.7004,-0.003625
14.811,63.7911,-0.003625
14.843,63.8852,-0.003625
14.875,63.9816,-0.008459
14.907,64.0770,-0.008459
14.937,64.1687,-0.004834
14.969,64.2653,-0.004834
14.999,64.3569,-0.003625
15.031,64.4493,-0.002417
15.062,64.5429,-0.008459
15.093,64.6394,-0.006042
15.124,64.7271,-0.003625
15.144,64.7880,-0.006042
15.169,64.8648,-0.008459
15.200,64.9574,-0.008459
15.221,65.0214,-0.006042
15.247,65.0982,-0.006042
15.278,65.1935,-0.013293
15.309,65.2838,-0.014501
15.342,65.3849,-0.013293
15.372,65.4722,-0.016918
15.403,65.5682,-0.015710
15.435,65.6606,-0.018127
15.466,65.7560,-0.016918
15.496,65.8460,-0.030211
15.527,65.9414,-0.030211
15.558,66.0317,-0.035045
15.590,66.1262,-0.035045
15.621,66.1501,-0.037462
15.652,66.1501,-0.032628
15.684,66.1501,-0.043504
15.716,66.1501,-0.041087
15.745,66.1501,-0.042296
15.776,66.1501,-0.041087
15.808,66.1501,-0.039879
15.838,66.1501,-0.036253
15.869,66.1501,-0.035045
15.901,66.1501,-0.036253
15.931,66.1501,-0.033837
15.952,66.1501,-0.036253
15.978,66.1501,-0.032628
16.010,66.1501,-0.033837
16.040,66.1501,-0.036253
16.072,66.1501,-0.032628
16.104,66.1501,-0.036253
16.134,66.1501,-0.036253
16.166,66.1501,-0.036253
16.196,66.1501,-0.033837
16.228,66.1501,-0.033837
16.258,66.1501,-0.031420
16.288,66.1501,-0.029003
16.320,66.1501,-0.029003
16.341,66.1501,-0.029003
16.367,66.1501,-0.032628
16.399,66.1501,-0.032628
16.430,66.1501,-0.026586
16.461,66.1501,-0.027794
16.492,66.1501,-0.030211
16.523,66.1501,-0.029003
16.554,66.1501,-0.029003
16.586,66.1501,-0.027794
16.617,66.1501,-0.026586
16.650,66.1501,-0.026586
16.679,66.1501,-0.022961
16.710,66.1501,-0.030211
16.741,66.1501,-0.029003
16.771,66.1501,-0.032628
16.803,66.1501,-0.031420
16.835,66.1501,-0.029003
16.866,66.1501,-0.029003
16.896,66.1501,-0.026586
16.918,66.1501,-0.026586
16.942,66.1501,-0.026586
16.972,66.1501,-0.030211
17.004,66.1501,-0.027794
17.035,66.1501,-0.022961
17.067,66.1501,-0.029003
17.097,66.1501,-0.029003
17.133,66.1501,-0.029003
17.158,66.1501,-0.029003
17.189,66.1501,-0.027794
17.221,66.1501,-0.027794
17.252,66.1501,-0.027794
17.283,66.1501,-0.027794
17.314,66.1501,-0.026586
17.344,66.1501,-0.021752
17.365,66.1501,-0.022961
17.392,66.1501,-0.022961
17.413,66.1501,-0.024169
17.439,66.1501,-0.025377
17.470,66.1501,-0.027794
17.501,66.1501,-0.022961
17.533,66.1501,-0.029003
17.564,66.1501,-0.029003
17.595,66.1501,-0.027794
17.625,66.1501,-0.022961
17.657,66.1501,-0.027794
17.689,66.1501,-0.026586
17.720,66.1501,-0.027794
17.750,66.1501,-0.025377
17.782,66.1501,-0.024169
17.813,66.1501,-0.022961
17.844,66.1501,-0.021752
17.875,66.1501,-0.027794
17.906,66.1501,-0.031420
17.937,66.1501,-0.024169
17.971,66.1501,-0.024169
18.000,66.1501,-0.024169
18.022,66.1501,-0.025377
18.045,66.1501,-0.027794
18.067,66.1501,-0.025377
18.092,66.1501,-0.025377
18.124,66.1501,-0.029003
18.156,66.1501,-0.025377
18.185,66.1501,-0.026586
18.217,66.1501,-0.019335
18.247,66.1501,-0.024169
18.278,66.1501,-0.024169
18.308,66.1501,-0.022961
18.340,66.1501,-0.021752
18.371,66.1501,-0.026586
18.403,66.1501,-0.027794
18.434,66.1501,-0.019335
18.465,66.1501,-0.021752
18.496,66.1501,-0.025377
18.527,66.1501,-0.024169
18.558,66.1501,-0.024169
18.578,66.1501,-0.022961
18.605,66.1501,-0.022961
18.636,66.1501,-0.025377
18.666,66.1501,-0.026586
18.697,66.1501,-0.025377
18.727,66.1501,-0.024169
18.758,66.1501,-0.022961
18.788,66.1501,-0.021752
18.819,66.1501,-0.025377
18.850,66.1501,-0.029003
18.880,66.1501,-0.025377
18.911,66.1501,-0.025377
18.942,66.1501,-0.022961
18.962,66.1501,-0.024169
18.989,66.1501,-0.024169
19.010,66.1501,-0.024169
19.036,66.1501,-0.024169
19.068,66.1501,-0.022961
19.097,66.1501,-0.025377
19.132,66.1501,-0.021752
19.161,66.1501,-0.022961
19.192,66.1501,-0.025377
19.225,66.1501,-0.022961
19.255,66.1501,-0.021752
19.286,66.1501,-0.020544
19.317,66.1501,-0.024169
19.353,66.1501,-0.022961
19.379,66.1501,-0.027794
19.410,66.1501,-0.027794
19.440,66.1501,-0.025377
19.470,66.1501,-0.024169
19.502,66.1501,-0.022961
19.533,66.1501,-0.025377
19.554,66.1501,-0.025377
19.580,66.1501,-0.022961
19.610,66.1501,-0.024169
19.643,66.1501,-0.024169
19.673,66.1501,-0.025377
19.703,66.1501,-0.024169
19.734,66.1501,-0.025377
19.764,66.1501,-0.021752
19.795,66.1501,-0.021752
19.826,66.1501,-0.022961
19.856,66.1501,-0.022961
19.888,66.1501,-0.022961
19.919,66.1501,-0.021752
19.950,66.1501,-0.022961
19.970,66.1501,-0.024169
19.996,66.1501,-0.025377
20.027,66.1501,-0.027794
20.059,66.1501,-0.021752
20.090,66.1501,-0.024169
20.121,66.1501,-0.020544
20.143,66.1501,-0.019335
20.167,66.1501,-0.019335
20.199,66.1501,-0.020544
20.230,66.1501,-0.022961
20.261,66.1501,-0.024169
20.292,66.1501,-0.020544
20.322,66.1501,-0.020544
20.355,66.1501,-0.022961
20.386,66.1501,-0.024169
20.416,66.1501,-0.019335
20.448,66.1501,-0.019335
20.479,66.1501,-0.022961
20.510,66.1501,-0.026586
20.541,66.1501,-0.020544
20.572,66.1501,-0.024169
20.602,66.1501,-0.019335
20.634,66.1501,-0.020544
20.664,66.1501,-0.020544
20.686,66.1501,-0.021752
20.711,66.1501,-0.020544
20.742,66.1501,-0.025377
20.773,66.1501,-0.022961
20.804,66.1501,-0.022961
20.835,66.1501,-0.020544
20.866,66.1501,-0.021752
20.897,66.1501,-0.024169
20.928,66.1501,-0.024169
20.959,66.1501,-0.020544
20.990,66.1501,-0.022961
21.021,66.1501,-0.022961
21.053,66.1501,-0.024169
21.086,66.1501,-0.024169
21.116,66.1501,-0.020544
21.149,66.1501,-0.025377
21.178,66.1501,-0.029003
21.210,66.1501,-0.022961
21.241,66.1501,-0.018127
21.261,66.1501,-0.020544
21.288,66.1501,-0.025377
21.309,66.1501,-0.025377
21.333,66.1501,-0.025377
21.364,66.1501,-0.018127
21.395,66.1501,-0.018127
21.426,66.1501,-0.021752
21.457,66.1501,-0.020544
21.489,66.1501,-0.016918
21.519,66.1501,-0.021752
21.551,66.1501,-0.019335
21.582,66.1501,-0.020544
21.613,66.1501,-0.024169
21.644,66.1501,-0.024169
21.676,66.1501,-0.025377
21.707,66.1501,-0.021752
21.738,66.1501,-0.025377
21.768,66.1501,-0.026586
21.789,66.1501,-0.022961
21.815,66.1501,-0.022961
21.846,66.1501,-0.019335
21.878,66.1501,-0.024169
21.909,66.1501,-0.021752
21.942,66.1501,-0.022961
21.971,66.1501,-0.020544
22.002,66.1501,-0.020544
22.034,66.1501,-0.022961
22.065,66.1501,-0.016918
22.096,66.1501,-0.021752
22.127,66.1501,-0.021752
22.157,66.1501,-0.027794
22.189,66.1501,-0.024169
22.219,66.1501,-0.024169
22.252,66.1501,-0.021752
22.282,66.1501,-0.022961
22.316,66.1501,-0.022961
22.344,66.1501,-0.019335
22.375,66.1501,-0.025377
22.396,66.1501,-0.025377
22.421,66.1501,-0.020544
22.452,66.1501,-0.026586
22.484,66.1501,-0.020544
22.515,66.1501,-0.021752
22.546,66.1501,-0.020544
22.577,66.1501,-0.025377
22.608,66.1501,-0.022961
22.641,66.1501,-0.020544
22.670,66.1501,-0.021752
22.701,66.1501,-0.021752
22.733,66.1501,-0.019335
22.763,66.1501,-0.020544
22.795,66.1501,-0.024169
22.826,66.1501,-0.024169
22.858,66.1501,-0.022961
22.889,66.1501,-0.021752
22.919,66.1501,-0.022961
22.940,66.1501,-0.024169
22.965,66.1501,-0.024169
22.996,66.1501,-0.026586
23.027,66.1501,-0.022961
23.058,66.1501,-0.019335
23.088,66.1501,-0.021752
23.119,66.1501,-0.022961
23.150,66.1501,-0.021752
23.181,66.1501,-0.021752
23.213,66.1501,-0.019335
23.243,66.1501,-0.022961
23.274,66.1501,-0.025377
23.306,66.1501,-0.025377
23.335,66.1501,-0.021752
23.369,66.1501,-0.019335
23.390,66.1501,-0.019335
23.412,66.1501,-0.020544
23.443,66.1501,-0.020544
23.473,66.1501,-0.022961
23.504,66.1501,-0.025377
23.535,66.1501,-0.024169
23.566,66.1501,-0.022961
23.598,66.1501,-0.021752
23.629,66.1501,-0.021752
23.659,66.1501,-0.024169
23.690,66.1501,-0.020544
23.721,66.1501,-0.022961
23.744,66.1501,-0.021752
23.768,66.1501,-0.019335
23.799,66.1501,-0.024169
23.819,66.1501,-0.021752
23.845,66.1501,-0.021752
23.875,66.1501,-0.019335
23.906,66.1501,-0.018127
23.937,66.1501,-0.020544
23.969,66.1501,-0.022961
23.993,66.1501,-0.022961
24.014,66.1501,-0.021752
24.045,66.1501,-0.022961
24.076,66.1501,-0.025377
24.107,66.1501,-0.025377
24.138,66.1501,-0.018127
24.170,66.1501,-0.019335
24.200,66.1501,-0.021752
24.231,66.1501,-0.016918
24.251,66.1501,-0.016918
24.278,66.1501,-0.020544
24.309,66.1501,-0.025377
24.340,66.1501,-0.021752
24.361,66.1501,-0.021752
24.386,66.1501,-0.021752
24.418,66.1501,-0.025377
24.448,66.1501,-0.024169
24.480,66.1501,-0.020544
24.511,66.1501,-0.022961
24.542,66.1501,-0.020544
24.574,66.1501,-0.021752
24.605,66.1501,-0.020544
24.636,66.1501,-0.021752
24.667,66.1501,-0.020544
24.698,66.1501,-0.018127
24.729,66.1501,-0.015710
24.760,66.1501,-0.021752
24.791,66.1501,-0.022961
24.822,66.1501,-0.022961
24.854,66.1501,-0.019335
24.885,66.1501,-0.018127
24.917,66.1501,-0.019335
24.948,66.1501,-0.021752
24.979,66.1501,-0.024169
25.010,66.1501,-0.022961
25.041,66.1501,-0.021752
25.072,66.1501,-0.018127
25.103,66.1501,-0.021752
25.123,66.1501,-0.024169
25.149,66.1501,-0.020544
25.180,66.1501,-0.020544
25.212,66.1501,-0.025377
25.243,66.1501,-0.025377
25.274,66.1501,-0.021752
25.305,66.1501,-0.021752
25.336,66.1501,-0.021752
25.367,66.1501,-0.020544
25.397,66.1501,-0.021752
25.429,66.1501,-0.019335
25.458,66.1501,-0.020544
25.492,66.1501,-0.022961
25.513,66.1501,-0.024169
25.537,66.1501,-0.019335
25.567,66.1501,-0.022961
25.598,66.1501,-0.022961
25.619,66.1501,-0.020544
25.644,66.1501,-0.020544
25.674,66.1501,-0.019335
25.705,66.1501,-0.022961
25.735,66.1501,-0.021752
25.767,66.1501,-0.021752
25.799,66.1501,-0.019335
25.830,66.1501,-0.021752
25.861,66.1501,-0.018127
25.892,66.1501,-0.020544
25.923,66.1501,-0.022961
25.954,66.1501,-0.020544
25.985,66.1501,-0.019335
26.016,66.1501,-0.021752
26.046,66.1501,-0.020544
26.067,66.1501,-0.022961
26.093,66.1501,-0.021752
26.125,66.1501,-0.019335
26.155,66.1501,-0.026586
26.187,66.1501,-0.021752
26.218,66.1501,-0.022961
26.250,66.1501,-0.024169
26.285,66.1501,-0.024169
26.307,66.1501,-0.020544
26.328,66.1501,-0.015710
26.357,66.1501,-0.022961
26.389,66.1501,-0.024169
26.420,66.1501,-0.024169
26.452,66.1501,-0.020544
26.482,66.1501,-0.021752
26.514,66.1501,-0.020544
26.536,66.1501,-0.020544
26.561,66.1501,-0.020544
26.592,66.1501,-0.016918
26.613,66.1501,-0.018127
26.639,66.1501,-0.019335
26.669,66.1501,-0.020544
26.690,66.1501,-0.020544
26.719,66.1501,-0.016918
26.746,66.1501,-0.021752
26.777,66.1501,-0.018127
26.808,66.1501,-0.022961
26.839,66.1501,-0.022961
26.870,66.1501,-0.022961
26.901,66.1501,-0.021752
26.933,66.1501,-0.022961
26.964,66.1269,-0.021752
26.995,66.0342,-0.003625
27.025,65.9454,-0.008459
27.056,65.8530,0.007251
27.077,65.7891,0.007251
27.103,65.7117,0.016918
27.135,65.6160,0.031420
27.164,65.5290,0.031420
27.196,65.4333,0.043504
27.227,65.3403,0.044713
27.258,65.2458,0.065256
27.289,65.1531,0.073715
27.311,65.0861,0.073715
27.336,65.0136,0.094259
27.367,64.9178,0.101510
27.397,64.8297,0.105135
27.428,64.7337,0.135346
27.460,64.6385,0.148639
27.493,64.5425,0.160724
27.522,64.4550,0.167974
27.553,64.3584,0.182476
27.584,64.2672,0.195769
27.615,64.1748,0.218729
27.646,64.0830,0.229605
27.677,63.9896,0.238064
27.708,63.8949,0.241690
27.739,63.8034,0.219937
27.759,63.7435,0.204228
27.786,63.6591,0.192143
27.807,63.5993,0.192143
27.833,63.5215,0.136555
27.855,63.4560,0.136555
27.878,63.3849,0.072507
27.909,63.2913,0.001208
27.940,63.2022,0.000000
27.971,63.1077,0.002417
28.002,63.0141,-0.001208
28.033,62.9193,0.000000
28.065,62.8261,0.000000
28.096,62.7316,0.002417
28.126,62.6421,-0.002417
28.158,62.5464,0.000000
28.189,62.4555,0.002417
28.219,62.3622,0.001208
28.251,62.2665,-0.001208
28.271,62.2074,0.000000
28.297,62.1297,0.000000
28.329,62.0334,-0.002417
28.360,61.9425,-0.001208
28.380,61.8812,0.000000
28.406,61.8015,0.000000
28.438,61.7049,-0.002417
28.460,61.6416,0.001208
28.486,61.5621,0.001208
28.514,61.4782,0.001208
28.545,61.3852,0.001208
28.576,61.2913,0.002417
28.607,61.2004,0.002417
28.638,61.1065,0.001208
28.669,61.0107,-0.002417
28.700,60.9192,-0.002417
28.731,60.8262,-0.001208
28.762,60.7338,0.001208
28.793,60.6426,-0.002417
28.823,60.5496,0.000000
28.843,60.4908,0.001208
28.869,60.4116,0.001208
28.900,60.3213,-0.001208
28.931,60.2289,-0.001208
28.961,60.1359,0.000000
28.992,60.1000,0.000000
29.023,60.1000,-0.015710
29.055,60.1000,0.004834
29.085,60.1000,0.003625
29.116,60.1000,-0.004834
29.147,60.1000,-0.002417
29.179,60.1000,-0.001208
29.211,60.1000,-0.001208
29.241,60.1000,-0.001208
29.273,60.1000,-0.001208
29.303,60.1000,-0.001208
29.335,60.1000,0.001208
29.356,60.1000,0.001208
29.382,60.1009,0.000000
29.403,60.1560,-0.004834
29.430,60.2355,-0.020544
29.451,60.2978,-0.020544
29.474,60.3678,0.002417
29.504,60.4578,0.000000
29.535,60.5522,-0.001208
29.567,60.6467,-0.001208
29.597,60.7359,0.001208
29.628,60.8289,0.001208
29.658,60.9198,-0.002417
29.680,60.9854,-0.003625
29.704,61.0569,0.002417
29.735,61.1480,-0.002417
29.755,61.2104,-0.002417
29.781,61.2882,-0.001208
29.813,61.3827,-0.002417
29.843,61.4744,0.000000
29.874,61.5668,0.000000
29.905,61.6580,0.000000
29.935,61.7520,-0.003625
29.967,61.8449,-0.002417
29.997,61.9343,-0.001208
30.027,62.0286,0.000000
30.058,62.1206,0.001208
30.090,62.2155,-0.001208
30.121,62.3081,-0.002417
30.153,62.4041,-0.003625
30.184,62.4965,-0.003625
30.215,62.5914,-0.004834
30.235,62.6496,-0.004834
30.262,62.7312,0.000000
30.282,62.7938,0.001208
30.310,62.8745,-0.001208
30.331,62.9363,-0.007251
30.355,63.0099,-0.007251
30.386,63.1010,-0.006042
30.417,63.1949,-0.003625
30.448,63.2889,-0.003625
30.479,63.3807,-0.007251
30.509,63.4731,-0.002417
30.541,63.5672,-0.001208
30.572,63.6623,0.001208
30.604,63.7562,-0.004834
30.635,63.8490,-0.007251
30.666,63.9429,-0.002417
30.697,64.0347,-0.006042
30.728,64.1307,-0.002417
30.759,64.2212,-0.007251
30.790,64.3140,-0.007251
30.811,64.3761,-0.007251
30.835,64.4514,-0.001208
30.866,64.5459,-0.003625
30.898,64.6394,-0.003625
30.930,64.7360,-0.003625
30.962,64.8297,-0.004834
30.993,64.9229,-0.013293
31.013,64.9832,-0.013293
31.039,65.0610,-0.013293
31.071,65.1599,-0.012084
31.093,65.2223,-0.012084
31.116,65.2914,-0.013293
31.148,65.3885,-0.013293
31.179,65.4813,-0.016918
31.209,65.5733,-0.020544
31.241,65.6676,-0.022961
31.273,65.7623,-0.022961
31.303,65.8532,-0.025377
31.334,65.9475,-0.037462
31.365,66.0407,-0.037462
31.396,66.1000,-0.041087
31.428,66.1000,-0.029003
31.459,66.1000,-0.044713
31.490,66.1000,-0.042296
31.512,66.1000,-0.042296
31.535,66.1000,-0.038670
31.566,66.1000,-0.039879
31.587,66.1000,-0.039879
31.612,66.1000,-0.041087
31.634,66.1000,-0.038670
31.659,66.1000,-0.036253
31.690,66.1000,-0.037462
31.721,66.1000,-0.037462
31.752,66.1000,-0.035045
31.783,66.1000,-0.036253
31.814,66.1000,-0.035045
31.845,66.1000,-0.033837
31.877,66.1000,-0.032628
31.907,66.1000,-0.032628
31.940,66.1000,-0.038670
31.971,66.1000,-0.032628
32.003,66.1000,-0.035045
32.034,66.1000,-0.033837
32.064,66.1000,-0.032628
32.095,66.1000,-0.035045
32.126,66.1000,-0.035045
32.158,66.1000,-0.032628
32.178,66.1000,-0.030211
32.204,66.1000,-0.030211
32.235,66.1000,-0.027794
32.265,66.1000,-0.027794
32.297,66.1000,-0.030211
32.328,66.1000,-0.036253
32.359,66.1000,-0.030211
32.390,66.1000,-0.027794
32.421,66.1000,-0.030211
32.452,66.1000,-0.029003
32.484,66.1000,-0.031420
32.515,66.1000,-0.030211
32.546,66.1000,-0.026586
32.576,66.1000,-0.031420
32.607,66.1000,-0.031420
32.639,66.1000,-0.029003
32.669,66.1000,-0.032628
32.690,66.1000,-0.030211
32.717,66.1000,-0.029003
32.738,66.1000,-0.029003
32.763,66.1000,-0.029003
32.794,66.1000,-0.029003
32.824,66.1000,-0.031420
32.855,66.1000,-0.026586
32.886,66.1000,-0.026586
32.918,66.1000,-0.032628
32.949,66.1000,-0.027794
32.980,66.1000,-0.027794
33.012,66.1000,-0.030211
33.042,66.1000,-0.027794
33.074,66.1000,-0.027794
33.105,66.1000,-0.027794
33.136,66.1000,-0.031420
33.168,66.1000,-0.030211
33.200,66.1000,-0.027794
33.231,66.1000,-0.025377
33.263,66.1000,-0.025377
33.293,66.1000,-0.027794
33.314,66.1000,-0.027794
33.339,66.1000,-0.027794
33.370,66.1000,-0.026586
33.401,66.1000,-0.030211
33.432,66.1000,-0.025377
33.464,66.1000,-0.024169
33.496,66.1000,-0.022961
33.527,66.1000,-0.025377
33.558,66.1000,-0.025377
33.589,66.1000,-0.029003
33.621,66.1000,-0.029003
33.651,66.1000,-0.024169
33.682,66.1000,-0.024169
33.713,66.1000,-0.026586
33.744,66.1000,-0.024169
33.776,66.1000,-0.027794
33.807,66.1000,-0.026586
33.839,66.1000,-0.021752
33.870,66.1000,-0.022961
33.901,66.1000,-0.025377
33.921,66.1000,-0.026586
33.947,66.1000,-0.026586
33.978,66.1000,-0.032628
34.009,66.1000,-0.026586
34.040,66.1000,-0.031420
34.071,66.1000,-0.025377
34.102,66.1000,-0.024169
34.134,66.1000,-0.022961
34.165,66.1000,-0.024169
34.196,66.1000,-0.026586
34.228,66.1000,-0.026586
34.258,66.1000,-0.022961
34.289,66.1000,-0.026586
34.322,66.1000,-0.025377
34.351,66.1000,-0.026586
34.382,66.1000,-0.025377
34.414,66.1000,-0.029003
34.445,66.1000,-0.029003
34.465,66.1000,-0.024169
34.491,66.1000,-0.022961
34.513,66.1000,-0.024169
34.537,66.1000,-0.024169
34.568,66.1000,-0.024169
34.600,66.1000,-0.024169
34.631,66.1000,-0.027794
34.663,66.1000,-0.027794
34.694,66.1000,-0.025377
34.728,66.1000,-0.027794
34.755,66.1000,-0.024169
34.786,66.1000,-0.024169
34.818,66.1000,-0.020544
34.850,66.1000,-0.021752
34.881,66.1000,-0.025377
34.904,66.1000,-0.024169
34.928,66.1000,-0.022961
34.959,66.1000,-0.022961
34.989,66.1000,-0.024169
35.021,66.1000,-0.021752
35.052,66.1000,-0.020544
35.083,66.1000,-0.019335
35.114,66.1000,-0.020544
35.145,66.1000,-0.026586
35.178,66.1000,-0.024169
35.208,66.1000,-0.024169
35.239,66.1000,-0.024169
35.270,66.1000,-0.025377
35.291,66.1000,-0.024169
35.316,66.1000,-0.026586
35.348,66.1000,-0.029003
35.378,66.1000,-0.025377
35.398,66.1000,-0.025377
35.424,66.1000,-0.020544
35.456,66.1000,-0.020544
35.486,66.1000,-0.027794
35.517,66.1000,-0.025377
35.548,66.1000,-0.019335
35.579,66.1000,-0.024169
35.611,66.1000,-0.025377
35.642,66.1000,-0.026586
35.672,66.1000,-0.021752
35.705,66.1000,-0.021752
35.738,66.1000,-0.020544
35.766,66.1000,-0.020544
35.798,66.1000,-0.025377
35.827,66.1000,-0.021752
35.859,66.1000,-0.022961
35.889,66.1000,-0.020544
35.910,66.1000,-0.018127
35.935,66.1000,-0.020544
35.967,66.1000,-0.021752
35.988,66.1000,-0.022961
36.013,66.1000,-0.024169
36.045,66.1000,-0.025377
36.075,66.1000,-0.026586
36.105,66.1000,-0.021752
36.136,66.1000,-0.021752
36.167,66.1000,-0.024169
36.199,66.1000,-0.022961
36.230,66.1000,-0.026586
36.251,66.1000,-0.026586
36.277,66.1000,-0.021752
36.307,66.1000,-0.022961
36.338,66.1000,-0.024169
36.369,66.1000,-0.026586
36.399,66.1000,-0.021752
36.420,66.1000,-0.020544
36.446,66.1000,-0.020544
36.477,66.1000,-0.016918
36.507,66.1000,-0.029003
36.530,66.1000,-0.029003
36.553,66.1000,-0.021752
36.589,66.1000,-0.020544
36.611,66.1000,-0.020544
36.646,66.1000,-0.024169
36.677,66.1000,-0.018127
36.708,66.1000,-0.018127
36.739,66.1000,-0.024169
36.771,66.1000,-0.021752
36.802,66.1000,-0.021752
36.833,66.1000,-0.022961
36.864,66.1000,-0.024169
36.895,66.1000,-0.024169
36.920,66.1000,-0.022961
36.942,66.1000,-0.020544
36.973,66.1000,-0.024169
36.994,66.1000,-0.026586
37.018,66.1000,-0.024169
37.049,66.1000,-0.020544
37.080,66.1000,-0.018127
37.110,66.1000,-0.026586
37.142,66.1000,-0.022961
37.174,66.1000,-0.021752
37.206,66.1000,-0.020544
37.237,66.1000,-0.024169
37.270,66.1000,-0.024169
37.299,66.1000,-0.020544
37.331,66.1000,-0.026586
37.362,66.1000,-0.024169
37.392,66.1000,-0.024169
37.423,66.1000,-0.024169
37.454,66.1000,-0.024169
37.486,66.1000,-0.026586
37.507,66.1000,-0.026586
37.531,66.1000,-0.021752
37.562,66.1000,-0.026586
37.593,66.1000,-0.030211
37.624,66.1000,-0.025377
37.656,66.1000,-0.027794
37.687,66.1000,-0.026586
37.719,66.1000,-0.024169
37.749,66.1000,-0.020544
37.781,66.1000,-0.019335
37.811,66.1000,-0.022961
37.843,66.1000,-0.022961
37.875,66.1000,-0.021752
37.905,66.1000,-0.022961
37.936,66.1000,-0.027794
37.967,66.1000,-0.022961
38.000,66.1000,-0.022961
38.030,66.1000,-0.029003
38.061,66.1000,-0.021752
38.082,66.1000,-0.019335
38.108,66.1000,-0.020544
38.129,66.1000,-0.022961
38.155,66.1000,-0.021752
38.187,66.1000,-0.022961
38.220,66.1000,-0.019335
38.249,66.1000,-0.018127
38.281,66.1000,-0.018127
38.313,66.1000,-0.019335
38.343,66.1000,-0.020544
38.375,66.1000,-0.021752
38.407,66.1000,-0.020544
38.437,66.1000,-0.022961
38.468,66.1000,-0.022961
38.499,66.1000,-0.024169
38.531,66.1000,-0.022961
38.561,66.1000,-0.021752
38.592,66.1000,-0.016918
38.623,66.1000,-0.022961
38.654,66.1000,-0.026586
38.684,66.1000,-0.025377
38.705,66.1000,-0.021752
38.734,66.1000,-0.021752
38.762,66.1000,-0.021752
38.794,66.1000,-0.021752
38.815,66.1000,-0.021752
38.841,66.1000,-0.024169
38.864,66.1000,-0.026586
38.887,66.1000,-0.026586
38.918,66.1000,-0.016918
38.949,66.1000,-0.021752
38.980,66.1000,-0.025377
39.011,66.1000,-0.021752
39.040,66.1000,-0.022961
39.073,66.1000,-0.020544
39.103,66.1000,-0.020544
39.134,66.1000,-0.021752
39.164,66.1000,-0.021752
39.196,66.1000,-0.024169
39.226,66.1000,-0.024169
39.246,66.1000,-0.021752
39.272,66.1000,-0.021752
39.294,66.1000,-0.021752
39.321,66.1000,-0.025377
39.341,66.1000,-0.024169
39.366,66.1000,-0.024169
39.396,66.1000,-0.021752
39.429,66.1000,-0.021752
39.459,66.1000,-0.021752
39.490,66.1000,-0.024169
39.521,66.1000,-0.021752
39.552,66.1000,-0.019335
39.583,66.1000,-0.020544
39.614,66.1000,-0.016918
39.644,66.1000,-0.018127
39.674,66.1000,-0.026586
39.705,66.1000,-0.024169
39.726,66.1000,-0.024169
39.751,66.1000,-0.020544
39.782,66.1000,-0.021752
39.814,66.1000,-0.021752
39.844,66.1000,-0.018127
39.876,66.1000,-0.020544
39.906,66.1000,-0.020544
39.937,66.1000,-0.025377
39.968,66.1000,-0.025377
39.999,66.1000,-0.021752
40.031,66.1000,-0.025377
40.062,66.1000,-0.024169
40.093,66.1000,-0.021752
40.124,66.1000,-0.021752
40.155,66.1000,-0.026586
40.186,66.1000,-0.026586
40.217,66.1000,-0.024169
40.239,66.1000,-0.024169
40.265,66.1000,-0.021752
40.296,66.1000,-0.020544
40.329,66.1000,-0.021752
40.349,66.1000,-0.024169
40.375,66.1000,-0.025377
40.405,66.1000,-0.020544
40.436,66.1000,-0.020544
40.466,66.1000,-0.020544
40.497,66.1000,-0.021752
40.528,66.1000,-0.021752
40.559,66.1000,-0.022961
40.591,66.1000,-0.021752
40.612,66.1000,-0.022961
40.637,66.1000,-0.021752
40.669,66.1000,-0.020544
40.700,66.1000,-0.024169
40.732,66.1000,-0.020544
40.763,66.1000,-0.019335
40.787,66.1000,-0.015710
40.810,66.1000,-0.020544
40.841,66.1000,-0.024169
40.861,66.1000,-0.020544
40.888,66.1000,-0.020544
40.909,66.1000,-0.020544
40.935,66.1000,-0.024169
40.957,66.1000,-0.024169
40.981,66.1000,-0.025377
41.012,66.1000,-0.024169
41.043,66.1000,-0.025377
41.074,66.1000,-0.022961
41.106,66.1000,-0.024169
41.136,66.1000,-0.020544
41.167,66.1000,-0.020544
41.199,66.1000,-0.022961
41.228,66.1000,-0.019335
41.260,66.1000,-0.019335
41.290,66.1000,-0.021752
41.321,66.1000,-0.025377
41.343,66.1000,-0.024169
41.366,66.1000,-0.025377
41.398,66.1000,-0.024169
41.429,66.1000,-0.026586
41.452,66.1000,-0.019335
41.476,66.1000,-0.019335
41.508,66.1000,-0.020544
41.538,66.1000,-0.019335
41.570,66.1000,-0.020544
41.601,66.1000,-0.022961
41.632,66.1000,-0.022961
41.663,66.1000,-0.024169
41.694,66.1000,-0.019335
41.725,66.1000,-0.019335
41.756,66.1000,-0.024169
41.787,66.1000,-0.024169
41.818,66.1000,-0.019335
41.849,66.1000,-0.019335
41.880,66.1000,-0.022961
41.900,66.1000,-0.021752
41.927,66.1000,-0.021752
41.958,66.1000,-0.021752
41.980,66.1000,-0.020544
42.004,66.1000,-0.020544
42.035,66.1000,-0.020544
42.066,66.1000,-0.019335
42.097,66.1000,-0.021752
42.129,66.1000,-0.020544
42.160,66.1000,-0.022961
42.191,66.1000,-0.020544
42.222,66.1000,-0.019335
42.254,66.1000,-0.022961
42.285,66.1000,-0.019335
42.316,66.1000,-0.022961
42.347,66.1000,-0.019335
42.378,66.1000,-0.019335
42.410,66.1000,-0.021752
42.442,66.1000,-0.021752
42.472,66.1000,-0.025377
42.503,66.1000,-0.021752
42.534,66.1000,-0.019335
42.558,66.1000,-0.019335
42.583,66.1000,-0.021752
42.603,66.1000,-0.024169
42.627,66.1000,-0.024169
42.657,66.1000,-0.019335
42.689,66.1000,-0.022961
42.720,66.1000,-0.020544
42.750,66.1000,-0.020544
42.781,66.1000,-0.020544
42.812,66.1000,-0.026586
42.843,66.0669,-0.019335
42.874,65.9718,-0.001208
42.906,65.8758,-0.007251
42.936,65.7872,0.001208
42.967,65.6925,0.009668
42.988,65.6312,0.019335
43.014,65.5533,0.031420
43.035,65.4906,0.031420
43.060,65.4119,0.038670
43.092,65.3172,0.051963
43.124,65.2227,0.058005
43.153,65.1360,0.070090
43.184,65.0406,0.079758
43.216,64.9476,0.096676
43.248,64.8501,0.103926
43.279,64.7580,0.122053
43.311,64.6599,0.135346
43.342,64.5654,0.148639
43.374,64.4697,0.161932
43.406,64.3746,0.169183
43.437,64.2858,0.196977
43.468,64.1904,0.196977
43.499,64.0980,0.192143
43.523,64.0218,0.192143
43.545,63.9603,0.186101
43.577,63.8621,0.178850
43.608,63.7701,0.159515
43.639,63.6792,0.135346
43.670,63.5811,0.109969
43.702,63.4881,0.009668
43.722,63.4278,0.006042
43.750,63.3456,0.004834
43.770,63.2835,0.001208
43.794,63.2109,0.002417
43.825,63.1188,0.001208
43.856,63.0249,0.000000
43.887,62.9331,0.000000
43.917,62.8422,0.002417
43.949,62.7485,0.002417
43.980,62.6521,0.003625
44.012,62.5597,-0.002417
44.042,62.4690,0.002417
44.074,62.3718,0.004834
44.105,62.2812,0.002417
44.136,62.1863,-0.002417
44.166,62.0967,0.000000
44.186,62.0355,0.001208
44.213,61.9536,-0.001208
44.234,61.8924,-0.001208
44.259,61.8159,-0.002417
44.290,61.7258,-0.001208
44.320,61.6338,0.000000
44.352,61.5384,-0.003625
44.384,61.4410,-0.003625
44.414,61.3518,0.003625
44.446,61.2579,0.001208
44.479,61.1560,-0.002417
44.508,61.0695,0.001208
44.538,60.9784,-0.003625
44.569,60.8868,-0.001208
44.600,60.7938,-0.002417
44.631,60.7020,0.001208
44.653,60.6351,0.001208
44.677,60.5646,0.000000
44.709,60.4699,0.000000
44.729,60.4077,0.000000
44.755,60.3310,0.000000
44.785,60.2364,-0.002417
44.816,60.1464,0.000000
44.846,60.0530,0.000000
44.877,60.0500,0.000000
44.910,60.0500,-0.008459
44.939,60.0500,0.000000
44.971,60.0500,0.000000
45.002,60.0500,0.001208
45.033,60.0500,0.001208
45.064,60.0500,0.001208
45.095,60.0500,-0.003625
45.126,60.0500,-0.004834
45.150,60.0500,-0.004834
45.172,60.0500,0.002417
45.196,60.0500,0.002417
45.218,60.0500,-0.004834
45.241,60.0500,-0.003625
45.270,60.0500,0.000000
45.296,60.1129,0.000000
45.328,60.2098,-0.018127
45.359,60.3049,-0.002417
45.390,60.3949,0.001208
45.421,60.4903,0.000000
45.451,60.5791,-0.003625
45.482,60.6736,0.001208
45.514,60.7675,0.000000
45.546,60.8646,-0.001208
45.577,60.9559,-0.006042
45.608,61.0489,-0.006042
45.640,61.1445,0.002417
45.670,61.2337,-0.001208
45.701,61.3272,-0.001208
45.732,61.4203,0.000000
45.764,61.5181,-0.001208
45.795,61.6101,0.000000
45.827,61.7053,0.000000
45.858,61.7991,0.000000
45.889,61.8928,0.000000
45.909,61.9537,0.001208
45.934,62.0283,-0.001208
45.966,62.1241,-0.001208
45.996,62.2129,-0.003625
46.027,62.3065,-0.002417
46.058,62.4000,-0.002417
46.089,62.4934,0.001208
46.121,62.5879,-0.002417
46.152,62.6803,-0.003625
46.183,62.7760,-0.001208
46.214,62.8672,-0.004834
46.244,62.9554,-0.003625
46.275,63.0504,0.000000
46.306,63.1438,-0.004834
46.337,63.2377,-0.001208
46.357,63.2971,-0.003625
46.383,63.3745,-0.004834
46.414,63.4686,-0.003625
46.446,63.5626,-0.004834
46.476,63.6519,-0.006042
46.507,63.7456,-0.001208
46.538,63.8398,-0.004834
46.570,63.9343,-0.004834
46.602,64.0312,-0.002417
46.637,64.1380,-0.004834
46.664,64.2156,-0.006042
46.694,64.3063,-0.004834
46.724,64.3993,-0.003625
46.755,64.4896,-0.009668
46.786,64.5837,-0.007251
46.817,64.6761,-0.007251
46.837,64.7365,-0.009668
46.863,64.8163,-0.009668
46.894,64.9080,-0.003625
46.925,65.0002,-0.006042
46.955,65.0920,-0.009668
46.988,65.1892,-0.009668
47.017,65.2761,-0.013293
47.048,65.3679,-0.013293
47.078,65.4607,-0.010876
47.109,65.5531,-0.020544
47.141,65.6487,-0.019335
47.171,65.7391,-0.020544
47.202,65.8333,-0.029003
47.234,65.9269,-0.031420
47.264,66.0193,-0.036253
47.285,66.0500,-0.042296
47.311,66.0500,-0.033837
47.342,66.0500,-0.035045
47.373,66.0500,-0.047129
47.405,66.0500,-0.043504
47.436,66.0500,-0.037462
47.467,66.0500,-0.038670
