Elapsed Time (s),Position (mm),Force (N)
-0.007,74.1515,-0.076996
0.102,74.1515,-0.081143
0.212,74.1515,-0.081143
0.320,74.1515,-0.081143
0.426,74.1515,-0.079296
0.535,74.1515,-0.079296
0.646,74.1515,-0.077354
0.754,74.1515,-0.077354
0.863,74.1515,-0.075922
0.972,74.1515,-0.075922
1.081,74.1515,-0.074630
1.190,74.1515,-0.074630
1.299,74.1515,-0.074630
1.409,74.1515,-0.073518
1.518,74.1515,-0.073518
1.626,74.1515,-0.072594
1.735,74.1515,-0.072594
1.844,74.1515,-0.071803
1.955,74.1515,-0.071803
2.065,74.1515,-0.071803
2.175,74.1515,-0.071105
2.283,74.1515,-0.071105
2.392,74.1515,-0.070436
2.502,74.1515,-0.070436
2.612,74.1515,-0.070436
2.720,74.1515,-0.069795
2.830,74.1515,-0.069795
2.938,74.1515,-0.069239
3.047,74.1515,-0.069239
3.156,74.1515,-0.068758
3.266,74.1515,-0.068758
3.374,74.1515,-0.068334
3.483,74.1515,-0.068334
3.594,74.1515,-0.067967
3.704,74.1515,-0.067967
3.812,74.1515,-0.067967
3.921,74.1515,-0.067410
4.031,74.1515,-0.067410
4.140,74.1483,-0.066845
4.248,74.1364,-0.066845
4.358,74.1158,-0.064649
4.468,74.0940,-0.064649
4.577,74.0723,-0.064649
4.685,74.0504,-0.050134
4.795,74.0286,-0.050134
4.905,74.0068,-0.023139
5.014,73.9849,-0.023139
5.124,73.9629,-0.023139
5.231,73.9414,0.008313
5.340,73.9196,0.045025
5.448,73.8979,0.045025
5.557,73.8763,0.045025
5.667,73.8541,0.087289
5.777,73.8323,0.087289
5.886,73.8104,0.135283
5.994,73.7889,0.135283
6.103,73.7672,0.189130
6.213,73.7450,0.189130
6.322,73.7233,0.189130
6.431,73.7014,0.248868
6.539,73.6797,0.248868
6.646,73.6584,0.314130
6.756,73.6364,0.314130
6.866,73.6144,0.384858
6.976,73.5923,0.384858
7.085,73.5703,0.384858
7.194,73.5489,0.460723
7.301,73.5273,0.460723
7.410,73.5056,0.541112
7.519,73.4838,0.541112
7.627,73.4623,0.541112
7.737,73.4402,0.626073
7.846,73.4183,0.714568
7.956,73.3965,0.714568
8.065,73.3746,0.714568
8.175,73.3525,0.806880
8.285,73.3305,0.806880
8.395,73.3085,0.903491
8.506,73.2864,0.903491
8.616,73.2644,1.003862
8.725,73.2427,1.003862
8.835,73.2207,1.106618
8.944,73.1990,1.106618
9.054,73.1768,1.106618
9.164,73.1549,1.071904
9.272,73.1333,1.071904
9.379,73.1118,0.769593
9.488,73.0900,0.769593
9.597,73.0682,0.281650
9.706,73.0465,0.281650
9.816,73.0244,0.281650
9.926,73.0026,0.007927
10.035,72.9807,0.007927
10.143,72.9589,0.005797
10.251,72.9376,0.005797
10.360,72.9155,0.005354
10.470,72.8937,0.005354
10.580,72.8717,0.005354
10.689,72.8499,0.005184
10.798,72.8281,0.005184
10.908,72.8059,0.005061
11.018,72.7840,0.005061
11.128,72.7618,0.004920
11.239,72.7399,0.004920
11.348,72.7180,0.004835
11.456,72.6963,0.004835
11.566,72.6745,0.004835
11.677,72.6523,0.004750
11.788,72.6302,0.004750
11.896,72.6085,0.004741
12.006,72.5866,0.004741
12.115,72.5646,0.004703
12.224,72.5427,0.004703
12.335,72.5206,0.004703
12.444,72.4986,0.004637
12.555,72.4767,0.004637
12.664,72.4549,0.004609
12.774,72.4328,0.004609
12.883,72.4110,0.004552
12.991,72.3893,0.004552
13.100,72.3677,0.004637
13.209,72.3458,0.004637
13.318,72.3241,0.004637
13.426,72.3023,0.004637
13.536,72.2804,0.004637
13.645,72.2587,0.004637
13.755,72.2366,0.004637
13.863,72.2151,0.004647
13.972,72.1933,0.004647
14.080,72.1716,0.004647
14.190,72.1495,0.004571
14.298,72.1281,0.004571
14.409,72.1060,0.004666
14.517,72.0844,0.004666
14.626,72.0625,0.004675
14.736,72.0405,0.004675
14.846,72.0185,0.004609
14.955,71.9966,0.004609
15.065,71.9745,0.004609
15.172,71.9533,0.004647
15.281,71.9315,0.004647
15.390,71.9098,0.004656
15.499,71.8880,0.004656
15.608,71.8661,0.004732
15.717,71.8442,0.004732
15.827,71.8223,0.004769
15.936,71.8004,0.004769
16.047,71.7783,0.004769
16.157,71.7564,0.004760
16.266,71.7344,0.004760
16.376,71.7123,0.004779
16.486,71.6905,0.004779
16.595,71.6687,0.004798
16.705,71.6467,0.004798
16.815,71.6247,0.004798
16.924,71.6029,0.004882
17.033,71.5810,0.004882
17.143,71.5592,0.004892
17.252,71.5372,0.004892
17.359,71.5160,0.004864
17.469,71.4938,0.004864
17.578,71.4721,0.004864
17.687,71.4504,0.004892
17.793,71.4288,0.004892
17.903,71.4071,0.004929
18.011,71.3855,0.004929
18.121,71.3636,0.004939
18.230,71.3418,0.004939
18.340,71.3196,0.004977
18.448,71.2980,0.004977
18.556,71.2764,0.004977
18.665,71.2547,0.005033
18.774,71.2329,0.005033
18.883,71.2112,0.005052
18.993,71.1891,0.005052
19.103,71.1671,0.005099
19.212,71.1454,0.005099
19.323,71.1233,0.005099
19.431,71.1081,0.005109
19.540,71.1018,0.005109
19.647,71.1015,0.004995
19.757,71.1015,0.004995
19.865,71.1015,0.004967
19.976,71.1015,0.004967
20.087,71.1020,0.005005
20.196,71.1097,0.005005
20.305,71.1263,0.005005
20.414,71.1480,0.004807
20.524,71.1699,0.004807
20.632,71.1917,0.004618
20.740,71.2133,0.004618
20.848,71.2346,0.004609
20.958,71.2568,0.004609
21.068,71.2787,0.004609
21.179,71.3008,0.004543
21.289,71.3229,0.004543
21.397,71.3445,0.004534
21.508,71.3667,0.004534
21.614,71.3880,0.004486
21.722,71.4096,0.004486
21.831,71.4313,0.004486
21.939,71.4530,0.004411
22.049,71.4750,0.004411
22.158,71.4967,0.004373
22.268,71.5187,0.004373
22.377,71.5404,0.004260
22.486,71.5624,0.004260
22.595,71.5841,0.004241
22.706,71.6063,0.004241
22.816,71.6285,0.004241
22.924,71.6500,0.004270
23.033,71.6718,0.004270
23.143,71.6937,0.004166
23.253,71.7158,0.004166
23.361,71.7374,0.004119
23.470,71.7590,0.004119
23.580,71.7810,0.004043
23.689,71.8029,0.004043
23.797,71.8245,0.004043
23.906,71.8463,0.003921
24.015,71.8681,0.003921
24.124,71.8899,0.003864
24.232,71.9115,0.003864
24.342,71.9333,0.003883
24.450,71.9549,0.003883
24.559,71.9770,0.003883
24.667,71.9985,0.003864
24.776,72.0203,0.003864
24.885,72.0420,0.003827
24.993,72.0637,0.003827
25.102,72.0854,0.003789
25.210,72.1071,0.003789
25.321,72.1292,0.003789
25.429,72.1509,0.003685
25.540,72.1731,0.003685
25.648,72.1947,0.003648
25.757,72.2164,0.003648
25.865,72.2381,0.003629
25.974,72.2598,0.003629
26.083,72.2816,0.003629
26.191,72.3033,0.003610
26.300,72.3250,0.003610
26.410,72.3471,0.003553
26.518,72.3687,0.003553
26.626,72.3904,0.003440
26.734,72.4120,0.003440
26.845,72.4342,0.003440
26.954,72.4557,0.003431
27.062,72.4776,0.003431
27.172,72.4994,0.003421
27.281,72.5212,0.003421
27.390,72.5432,0.003421
27.501,72.5651,0.003289
27.610,72.5871,0.003176
27.721,72.6093,0.003176
27.830,72.6311,0.003176
27.939,72.6529,0.003186
28.049,72.6748,0.003186
28.156,72.6963,0.003129
28.264,72.7179,0.003129
28.373,72.7396,0.003016
28.482,72.7616,0.003016
28.591,72.7833,0.002894
28.700,72.8051,0.002894
28.810,72.8269,0.002894
28.918,72.8489,0.002780
29.028,72.8707,0.002780
29.138,72.8927,0.002696
29.248,72.9146,0.002696
29.356,72.9361,0.002601
29.466,72.9583,0.002601
29.576,72.9802,0.002583
29.683,73.0016,0.002583
29.793,73.0238,0.002583
29.903,73.0456,0.002337
30.012,73.0677,0.002337
30.121,73.0892,0.002111
30.231,73.1113,0.002111
30.339,73.1329,0.002008
30.447,73.1545,0.002008
30.555,73.1759,0.002008
30.663,73.1976,0.001772
30.770,73.2192,0.001772
30.880,73.2410,0.001499
30.988,73.2626,0.001499
31.098,73.2846,0.001188
31.207,73.3065,0.001188
31.315,73.3280,0.001188
31.424,73.3497,0.000745
31.533,73.3715,0.000745
31.642,73.3936,0.000254
31.753,73.4155,0.000254
31.861,73.4373,0.000254
31.969,73.4587,-0.000339
32.078,73.4807,-0.001442
32.187,73.5025,-0.001442
32.297,73.5244,-0.001442
32.406,73.5463,-0.002724
32.514,73.5680,-0.002724
32.623,73.5897,-0.004185
32.732,73.6115,-0.004185
32.841,73.6332,-0.006334
32.949,73.6548,-0.006334
33.058,73.6769,-0.006334
33.167,73.6983,-0.009397
33.276,73.7203,-0.009397
33.386,73.7422,-0.013431
33.495,73.7642,-0.013431
33.604,73.7858,-0.018540
33.710,73.8070,-0.018540
33.820,73.8289,-0.018540
33.930,73.8511,-0.024751
34.038,73.8727,-0.024751
34.149,73.8948,-0.031707
34.257,73.9164,-0.031707
34.367,73.9384,-0.039370
34.477,73.9605,-0.039370
34.586,73.9822,-0.047711
34.696,74.0044,-0.047711
34.804,74.0257,-0.047711
34.913,74.0477,-0.056882
35.023,74.0696,-0.056882
35.132,74.0889,-0.067043
35.240,74.0994,-0.067043
35.349,74.1015,-0.076317
35.457,74.1015,-0.076317
35.565,74.1015,-0.076317
35.674,74.1015,-0.079117
35.784,74.1015,-0.079117
35.895,74.1015,-0.076732
36.006,74.1015,-0.076732
36.114,74.1015,-0.074781
36.225,74.1015,-0.074781
36.334,74.1015,-0.073367
36.443,74.1015,-0.073367
36.553,74.1015,-0.073367
36.663,74.1015,-0.072161
36.772,74.1015,-0.072161
36.882,74.1015,-0.071058
36.991,74.1015,-0.071058
37.098,74.1015,-0.070125
37.207,74.1015,-0.070125
37.316,74.1015,-0.070125
37.425,74.1015,-0.069390
37.533,74.1015,-0.069390
37.643,74.1015,-0.068692
37.753,74.1015,-0.068692
37.863,74.1015,-0.068108
37.973,74.1015,-0.068108
38.083,74.1015,-0.068108
38.193,74.1015,-0.067514
38.302,74.1015,-0.067514
38.411,74.1015,-0.066930
38.520,74.1015,-0.066930
38.630,74.1015,-0.066487
38.740,74.1015,-0.066487
38.850,74.1015,-0.066063
38.960,74.1015,-0.066063
39.070,74.1015,-0.066063
39.181,74.1015,-0.065620
39.292,74.1015,-0.065620
39.401,74.1015,-0.065186
39.512,74.1015,-0.065186
39.621,74.1015,-0.064781
39.730,74.1015,-0.064781
39.839,74.1015,-0.064413
39.948,74.0971,-0.064413
40.057,74.0837,-0.064413
40.167,74.0623,-0.062754
40.274,74.0411,-0.062754
40.383,74.0193,-0.049926
40.492,73.9972,-0.049926
40.601,73.9756,-0.024167
40.710,73.9537,-0.024167
40.820,73.9320,-0.024167
40.928,73.9103,0.007060
41.036,73.8887,0.007060
41.146,73.8667,0.043734
41.254,73.8450,0.043734
41.364,73.8231,0.086271
41.473,73.8013,0.086271
41.583,73.7794,0.134604
41.691,73.7576,0.134604
41.800,73.7359,0.134604
41.908,73.7141,0.188687
42.018,73.6922,0.188687
42.129,73.6702,0.248218
42.237,73.6485,0.248218
42.346,73.6266,0.313272
42.455,73.6047,0.313272
42.564,73.5830,0.313272
42.674,73.5612,0.383840
42.784,73.5391,0.383840
42.892,73.5175,0.459658
43.001,73.4957,0.459658
43.111,73.4737,0.540217
43.220,73.4518,0.540217
43.330,73.4299,0.540217
43.437,73.4084,0.625017
43.546,73.3865,0.625017
43.657,73.3645,0.714068
43.766,73.3427,0.714068
43.877,73.3205,0.807286
43.988,73.2983,0.807286
44.096,73.2765,0.904791
44.206,73.2547,0.904791
44.316,73.2327,0.904791
44.424,73.2110,1.006190
44.533,73.1892,1.006190
44.644,73.1671,1.110293
44.755,73.1449,1.110293
44.864,73.1232,1.154480
44.974,73.1009,1.154480
45.082,73.0797,0.884828
45.190,73.0577,0.884828
45.300,73.0359,0.884828
45.408,73.0143,0.322933
45.517,72.9924,0.322933
45.626,72.9708,0.014619
45.735,72.9488,0.014619
45.844,72.9271,0.006494
45.954,72.9051,0.006494
46.064,72.8831,0.006494
46.173,72.8613,0.005881
46.283,72.8392,0.005881
46.391,72.8178,0.005608
46.500,72.7959,0.005608
46.610,72.7740,0.005354
46.718,72.7524,0.005354
46.828,72.7303,0.005354
46.936,72.7087,0.005203
47.046,72.6867,0.005203
47.157,72.6646,0.005165
47.266,72.6428,0.005165
47.375,72.6209,0.005165
47.484,72.5991,0.005137
47.593,72.5774,0.005033
47.700,72.5558,0.005033
47.809,72.5342,0.005033
47.918,72.5124,0.005071
48.027,72.4905,0.005071
48.136,72.4688,0.004986
48.248,72.4463,0.004986
48.354,72.4252,0.004882
48.462,72.4036,0.004882
48.572,72.3814,0.004882
48.682,72.3595,0.004929
48.791,72.3378,0.004929
48.900,72.3158,0.004901
49.008,72.2944,0.004901
49.120,72.2719,0.005024
49.229,72.2502,0.005024
49.337,72.2286,0.005024
49.447,72.2067,0.005052
49.554,72.1852,0.005052
49.663,72.1634,0.004892
49.773,72.1413,0.004892
49.881,72.1198,0.004873
49.989,72.0980,0.004873
50.097,72.0763,0.004911
50.207,72.0546,0.004911
50.315,72.0329,0.004911
50.425,72.0109,0.004939
50.534,71.9892,0.004939
50.643,71.9672,0.005043
50.751,71.9457,0.005043
50.861,71.9238,0.005033
50.971,71.9018,0.005033
51.078,71.8803,0.005033
51.188,71.8583,0.004967
51.296,71.8367,0.004967
51.405,71.8149,0.004986
51.515,71.7930,0.004986
51.623,71.7712,0.004977
51.733,71.7494,0.004977
51.842,71.7276,0.005033
51.951,71.7056,0.005033
52.061,71.6837,0.005033
52.170,71.6620,0.005043
52.279,71.6403,0.005043
52.387,71.6186,0.005024
52.497,71.5965,0.005024
52.607,71.5747,0.005109
52.715,71.5528,0.005109
52.825,71.5310,0.005109
52.933,71.5093,0.005127
53.043,71.4872,0.005127
53.153,71.4655,0.005156
53.262,71.4436,0.005156
53.372,71.4216,0.005165
53.481,71.3995,0.005165
53.589,71.3781,0.005137
53.696,71.3568,0.005137
53.806,71.3347,0.005137
53.915,71.3130,0.005212
54.025,71.2908,0.005212
54.134,71.2692,0.005269
54.246,71.2469,0.005269
54.353,71.2254,0.005269
54.461,71.2038,0.005269
54.569,71.1820,0.005269
54.678,71.1604,0.005325
54.789,71.1382,0.005325
54.898,71.1164,0.005325
55.009,71.0941,0.005325
55.117,71.0727,0.005288
55.228,71.0576,0.005288
55.336,71.0517,0.005288
55.446,71.0515,0.005316
55.556,71.0515,0.005316
55.666,71.0515,0.005231
55.774,71.0529,0.005231
55.884,71.0626,0.005156
55.995,71.0816,0.005156
56.105,71.1035,0.004995
56.214,71.1253,0.004995
56.321,71.1467,0.004995
56.431,71.1687,0.004779
56.543,71.1911,0.004779
56.652,71.2128,0.004713
56.761,71.2346,0.004713
56.870,71.2565,0.004713
56.981,71.2786,0.004609
57.091,71.3007,0.004571
57.200,71.3225,0.004571
57.310,71.3444,0.004571
57.419,71.3662,0.004562
57.526,71.3876,0.004562
57.635,71.4096,0.004430
57.744,71.4313,0.004430
57.854,71.4533,0.004336
57.962,71.4750,0.004336
58.072,71.4969,0.004336
58.181,71.5186,0.004373
58.289,71.5403,0.004373
58.396,71.5618,0.004317
58.504,71.5834,0.004317
58.614,71.6054,0.004213
58.724,71.6271,0.004213
58.832,71.6488,0.004213
58.944,71.6712,0.004157
59.051,71.6926,0.004157
59.160,71.7146,0.004091
59.270,71.7364,0.004091
59.379,71.7582,0.004081
59.487,71.7801,0.004081
59.597,71.8018,0.004062
59.705,71.8236,0.004062
59.814,71.8452,0.004062
59.922,71.8669,0.004015
60.031,71.8887,0.004015
60.140,71.9104,0.003959
60.250,71.9325,0.003959
60.358,71.9539,0.003902
60.466,71.9758,0.003902
60.575,71.9976,0.003902
60.684,72.0192,0.003836
60.794,72.0414,0.003836
60.904,72.0632,0.003770
61.014,72.0852,0.003770
61.121,72.1066,0.003732
61.231,72.1286,0.003732
61.339,72.1504,0.003648
61.450,72.1723,0.003648
61.560,72.1944,0.003648
61.669,72.2162,0.003572
61.778,72.2382,0.003572
61.886,72.2597,0.003666
61.993,72.2811,0.003666
62.101,72.3026,0.003666
62.210,72.3244,0.003572
62.319,72.3462,0.003572
62.428,72.3679,0.003374
62.536,72.3895,0.003374
62.646,72.4116,0.003261
62.757,72.4339,0.003261
62.865,72.4554,0.003233
62.973,72.4769,0.003233
63.081,72.4988,0.003318
63.190,72.5205,0.003318
63.300,72.5424,0.003318
63.411,72.5645,0.003176
63.518,72.5861,0.003176
63.626,72.6077,0.003054
63.735,72.6294,0.003054
63.846,72.6517,0.002969
63.954,72.6731,0.002969
64.064,72.6951,0.002969
64.171,72.7167,0.002856
64.281,72.7385,0.002856
64.390,72.7605,0.002856
64.500,72.7824,0.002856
64.609,72.8044,0.002743
64.718,72.8259,0.002743
64.826,72.8475,0.002743
64.935,72.8694,0.002658
65.043,72.8911,0.002658
65.154,72.9133,0.002526
65.261,72.9345,0.002526
65.371,72.9565,0.002394
65.479,72.9781,0.002394
65.589,73.0001,0.002272
65.700,73.0224,0.002272
65.809,73.0441,0.002272
65.920,73.0663,0.002055
66.028,73.0881,0.002055
66.140,73.1103,0.001819
66.249,73.1322,0.001819
66.358,73.1539,0.001621
66.466,73.1756,0.001621
66.575,73.1975,0.001621
66.684,73.2192,0.001357
66.792,73.2408,0.001357
66.901,73.2625,0.000999
67.010,73.2843,0.000999
67.119,73.3062,0.000566
67.228,73.3280,0.000566
67.335,73.3494,0.000566
67.444,73.3711,-0.000019
67.552,73.3927,-0.000019
67.661,73.4147,-0.000679
67.771,73.4365,-0.000679
67.878,73.4581,-0.001574
67.989,73.4802,-0.001574
68.099,73.5022,-0.002828
68.209,73.5242,-0.002828
68.318,73.5460,-0.002828
68.428,73.5680,-0.004524
68.536,73.5896,-0.004524
68.644,73.6114,-0.006852
68.755,73.6332,-0.006852
68.865,73.6554,-0.009934
68.971,73.6765,-0.009934
69.081,73.6984,-0.009934
69.190,73.7203,-0.014138
69.299,73.7422,-0.014138
69.409,73.7641,-0.019473
69.518,73.7859,-0.019473
69.626,73.8075,-0.025854
69.735,73.8293,-0.025854
69.843,73.8510,-0.033168
69.953,73.8729,-0.033168
70.063,73.8949,-0.033168
70.172,73.9169,-0.041048
70.281,73.9386,-0.041048
70.391,73.9605,-0.049559
70.501,73.9826,-0.049559
70.611,74.0045,-0.058975
70.718,74.0260,-0.058975
70.827,74.0429,-0.058975
70.934,74.0508,-0.069333
71.042,74.0515,-0.069333
71.151,74.0515,-0.076478
71.262,74.0515,-0.076478
71.371,74.0515,-0.076921
71.478,74.0515,-0.076921
71.586,74.0515,-0.074640
71.696,74.0515,-0.074640
71.807,74.0515,-0.074640
71.915,74.0515,-0.072934
72.025,74.0515,-0.072934
72.134,74.0515,-0.071614
72.244,74.0515,-0.071614
72.353,74.0515,-0.070445
72.461,74.0515,-0.070445
72.571,74.0515,-0.070445
72.681,74.0515,-0.069437
72.791,74.0515,-0.069437
72.899,74.0515,-0.068645
73.007,74.0515,-0.068645
73.116,74.0515,-0.067919
73.227,74.0515,-0.067919
73.334,74.0515,-0.067919
73.442,74.0515,-0.067184
73.551,74.0515,-0.067184
73.661,74.0515,-0.066572
73.770,74.0515,-0.066572
73.879,74.0515,-0.066025
73.990,74.0515,-0.066025
74.098,74.0515,-0.065478
74.208,74.0515,-0.065478
74.316,74.0515,-0.065478
74.426,74.0515,-0.065035
74.535,74.0515,-0.065035
74.644,74.0515,-0.064611
74.753,74.0515,-0.064611
74.863,74.0515,-0.064215
74.975,74.0515,-0.064215
75.081,74.0515,-0.064215
75.191,74.0512,-0.063829
75.300,74.0437,-0.063829
75.411,74.0274,-0.063405
75.519,74.0057,-0.063405
75.627,73.9841,-0.054592
75.736,73.9624,-0.054592
75.845,73.9403,-0.031688
75.954,73.9187,-0.031688
76.062,73.8970,-0.031688
76.172,73.8751,-0.000801
76.281,73.8531,-0.000801
76.391,73.8313,0.035355
76.500,73.8094,0.035355
76.610,73.7874,0.077269
76.720,73.7655,0.077269
76.827,73.7441,0.124971
76.936,73.7224,0.124971
77.046,73.7001,0.124971
77.155,73.6786,0.178357
77.264,73.6565,0.178357
77.374,73.6347,0.237134
77.482,73.6129,0.237134
77.593,73.5908,0.237134
77.702,73.5690,0.301396
77.812,73.5471,0.301396
77.920,73.5256,0.371087
78.028,73.5037,0.371087
78.137,73.4820,0.446274
78.249,73.4597,0.446274
78.356,73.4382,0.526767
78.466,73.4162,0.526767
78.575,73.3945,0.526767
78.684,73.3728,0.611897
78.792,73.3511,0.611897
78.900,73.3294,0.701306
79.010,73.3075,0.701306
79.117,73.2859,0.794533
79.226,73.2644,0.794533
79.337,73.2422,0.891568
79.445,73.2205,0.891568
79.553,73.1988,0.891568
79.661,73.1773,0.992325
79.771,73.1552,0.992325
79.879,73.1336,1.096645
79.988,73.1117,1.096645
80.097,73.0901,1.203416
80.207,73.0680,1.203416
80.317,73.0461,1.203416
80.426,73.0243,1.147825
80.535,73.0023,1.147825
80.645,72.9805,0.753665
80.755,72.9584,0.753665
80.866,72.9362,0.238642
80.974,72.9146,0.238642
81.085,72.8924,0.007305
81.194,72.8707,0.007305
81.303,72.8489,0.007305
81.413,72.8268,0.005768
81.523,72.8049,0.005768
81.631,72.7833,0.005363
81.740,72.7615,0.005363
81.847,72.7400,0.005184
81.959,72.7178,0.005184
82.068,72.6960,0.005184
82.177,72.6741,0.005052
82.286,72.6521,0.005052
82.396,72.6304,0.004948
82.504,72.6088,0.004948
82.613,72.5869,0.004948
82.722,72.5650,0.004911
82.832,72.5430,0.004911
82.941,72.5213,0.004826
83.050,72.4994,0.004826
83.159,72.4778,0.004741
83.267,72.4561,0.004741
83.376,72.4342,0.004703
83.485,72.4124,0.004703
83.595,72.3905,0.004722
83.705,72.3685,0.004722
83.816,72.3463,0.004722
83.925,72.3246,0.004703
84.036,72.3023,0.004703
84.144,72.2806,0.004666
84.254,72.2588,0.004666
84.362,72.2372,0.004656
84.471,72.2154,0.004656
84.580,72.1935,0.004666
84.690,72.1713,0.004666
84.798,72.1500,0.004666
84.907,72.1282,0.004656
85.016,72.1065,0.004656
85.126,72.0843,0.004675
85.234,72.0627,0.004675
85.343,72.0409,0.004694
85.452,72.0192,0.004694
85.561,71.9972,0.004694
85.670,71.9755,0.004675
85.777,71.9541,0.004675
85.888,71.9319,0.004675
85.997,71.9102,0.004675
86.106,71.8882,0.004694
86.214,71.8667,0.004694
86.323,71.8450,0.004694
86.431,71.8233,0.004722
86.540,71.8015,0.004722
86.649,71.7798,0.004722
86.758,71.7580,0.004722
86.868,71.7359,0.004741
86.977,71.7141,0.004741
87.086,71.6922,0.004741
87.195,71.6707,0.004760
87.304,71.6487,0.004760
87.413,71.6268,0.004807
87.523,71.6049,0.004807
87.632,71.5830,0.004807
87.741,71.5614,0.004807
87.850,71.5396,0.004873
87.960,71.5176,0.004873
88.070,71.4955,0.004873
88.178,71.4740,0.004967
88.286,71.4524,0.004967
88.396,71.4304,0.004958
88.505,71.4086,0.004958
88.613,71.3868,0.004929
88.723,71.3651,0.004929
88.832,71.3430,0.004939
88.942,71.3212,0.004939
89.052,71.2991,0.004939
89.161,71.2774,0.004986
89.270,71.2557,0.004986
89.377,71.2340,0.004995
89.485,71.2125,0.004995
89.595,71.1903,0.005024
89.705,71.1686,0.005024
89.816,71.1464,0.005024
89.925,71.1246,0.005090
90.035,71.1026,0.005090
90.144,71.0808,0.005109
90.253,71.0590,0.005109
90.364,71.0367,0.005090
90.474,71.0162,0.005090
90.583,71.0044,0.005090
90.691,71.0014,0.005005
90.800,71.0014,0.005005
90.911,71.0014,0.005024
91.022,71.0014,0.005024
91.132,71.0014,0.005005
91.241,71.0023,0.005005
91.351,71.0109,0.004929
91.460,71.0281,0.004929
91.572,71.0505,0.004929
91.680,71.0721,0.004807
91.790,71.0943,0.004807
91.899,71.1159,0.004741
92.009,71.1379,0.004741
92.119,71.1601,0.004703
92.228,71.1816,0.004703
92.337,71.2036,0.004562
92.447,71.2255,0.004562
92.555,71.2471,0.004562
92.663,71.2690,0.004477
92.772,71.2907,0.004477
92.881,71.3124,0.004486
92.991,71.3346,0.004486
93.100,71.3561,0.004449
93.209,71.3781,0.004449
93.317,71.3994,0.004449
93.427,71.4216,0.004345
93.537,71.4436,0.004345
93.647,71.4655,0.004251
93.755,71.4871,0.004251
93.863,71.5088,0.004194
93.973,71.5308,0.004194
94.082,71.5527,0.004223
94.190,71.5742,0.004223
94.301,71.5962,0.004223
94.410,71.6183,0.004166
94.520,71.6400,0.004166
94.630,71.6621,0.004119
94.739,71.6841,0.004119
94.847,71.7055,0.004072
94.957,71.7277,0.004072
95.065,71.7493,0.004072
95.175,71.7711,0.003959
95.282,71.7926,0.003959
95.391,71.8144,0.003912
95.502,71.8365,0.003912
95.611,71.8584,0.003912
95.720,71.8801,0.003883
95.830,71.9021,0.003883
95.938,71.9238,0.003874
96.047,71.9456,0.003874
96.158,71.9678,0.003780
96.265,71.9892,0.003780
96.376,72.0112,0.003723
96.484,72.0329,0.003723
96.593,72.0546,0.003723
96.702,72.0767,0.003723
96.811,72.0984,0.003723
96.921,72.1202,0.003638
97.028,72.1418,0.003638
97.138,72.1638,0.003563
97.248,72.1857,0.003563
97.357,72.2074,0.003525
97.466,72.2294,0.003525
97.576,72.2515,0.003525
97.684,72.2729,0.003487
97.793,72.2946,0.003487
97.902,72.3165,0.003421
98.011,72.3383,0.003421
98.121,72.3604,0.003365
98.230,72.3821,0.003365
98.339,72.4039,0.003337
98.447,72.4256,0.003337
98.558,72.4477,0.003337
98.666,72.4694,0.003261
98.778,72.4917,0.003261
98.887,72.5135,0.003233
98.997,72.5357,0.003233
99.107,72.5576,0.003176
99.217,72.5795,0.003176
99.328,72.6017,0.003176
99.438,72.6238,0.003063
99.546,72.6454,0.003063
99.657,72.6674,0.002978
99.765,72.6894,0.002978
99.875,72.7110,0.002912
99.984,72.7329,0.002912
100.093,72.7548,0.002912
100.201,72.7762,0.002780
100.310,72.7983,0.002780
100.420,72.8201,0.002677
100.528,72.8418,0.002677
100.639,72.8638,0.002517
100.749,72.8860,0.002517
100.858,72.9078,0.002517
100.967,72.9295,0.002375
101.076,72.9512,0.002375
101.185,72.9730,0.002309
101.294,72.9949,0.002309
101.402,73.0166,0.002158
101.510,73.0380,0.002158
101.620,73.0601,0.001989
101.730,73.0821,0.001989
101.839,73.1039,0.001697
101.947,73.1256,0.001697
102.058,73.1477,0.001697
102.165,73.1692,0.001414
102.275,73.1912,0.001414
102.383,73.2128,0.001159
102.493,73.2348,0.001159
102.603,73.2567,0.000697
102.710,73.2781,0.000697
102.819,73.2998,0.000697
102.928,73.3218,0.000132
103.037,73.3435,0.000132
103.146,73.3653,-0.000584
103.255,73.3871,-0.000584
103.366,73.4091,-0.001517
103.476,73.4314,-0.001517
103.585,73.4531,-0.001517
103.694,73.4748,-0.002743
103.802,73.4964,-0.002743
103.908,73.5176,-0.004430
104.017,73.5396,-0.004430
104.128,73.5618,-0.006815
104.236,73.5832,-0.006815
104.345,73.6051,-0.010047
104.453,73.6266,-0.010047
104.562,73.6487,-0.010047
104.672,73.6704,-0.014214
104.781,73.6922,-0.014214
104.890,73.7141,-0.019463
104.999,73.7359,-0.019463
105.109,73.7577,-0.025731
105.219,73.7798,-0.025731
105.327,73.8015,-0.025731
105.435,73.8231,-0.032923
105.545,73.8452,-0.032923
105.655,73.8671,-0.040859
105.764,73.8891,-0.040859
105.873,73.9107,-0.049427
105.980,73.9321,-0.049427
106.089,73.9538,-0.058815
106.199,73.9758,-0.058815
106.307,73.9928,-0.058815
106.417,74.0008,-0.069107
106.526,74.0014,-0.069107
106.634,74.0014,-0.075714
106.744,74.0014,-0.075714
106.852,74.0014,-0.075714
106.961,74.0014,-0.075611
107.070,74.0014,-0.075611
107.180,74.0014,-0.073273
107.290,74.0014,-0.073273
107.399,74.0014,-0.071652
107.510,74.0014,-0.071652
107.617,74.0014,-0.070323
107.728,74.0014,-0.070323
107.839,74.0014,-0.069154
107.947,74.0014,-0.069154
108.057,74.0014,-0.069154
108.166,74.0014,-0.068240
108.276,74.0014,-0.068240
108.385,74.0014,-0.067467
108.494,74.0014,-0.067467
108.606,74.0014,-0.066713
108.715,74.0014,-0.066713
108.825,74.0014,-0.066713
108.932,74.0014,-0.066006
109.040,74.0014,-0.066006
109.150,74.0014,-0.065393
109.261,74.0014,-0.065393
109.372,74.0014,-0.064837
109.482,74.0014,-0.064837
109.591,74.0014,-0.064366
109.701,74.0014,-0.064366
109.811,74.0014,-0.064366
109.921,74.0014,-0.063848
110.029,74.0014,-0.063848
110.137,74.0014,-0.063395
110.246,74.0014,-0.063395
110.357,74.0014,-0.063037
110.466,74.0014,-0.063037
110.574,74.0014,-0.063037
110.684,74.0014,-0.062735
110.793,74.0014,-0.062735
110.900,74.0014,-0.062481
111.009,74.0014,-0.062481
111.118,74.0014,-0.062198
111.226,73.9976,-0.062198
111.334,73.9849,-0.062198
111.444,73.9642,-0.061218
111.554,73.9422,-0.061218
111.662,73.9204,-0.050200
111.774,73.8982,-0.050200
111.884,73.8762,-0.025581
111.993,73.8542,-0.025581
112.102,73.8326,0.005900
112.210,73.8111,0.005900
112.318,73.7892,0.005900
112.428,73.7674,0.042801
112.537,73.7456,0.042801
112.645,73.7239,0.085460
112.756,73.7019,0.085460
112.862,73.6805,0.133954
112.971,73.6589,0.133954
113.081,73.6367,0.188131
113.190,73.6150,0.188131
113.300,73.5930,0.188131
113.409,73.5713,0.248001
113.517,73.5495,0.248001
113.628,73.5273,0.313263
113.739,73.5051,0.313263
113.847,73.4834,0.384000
113.956,73.4618,0.384000
114.066,73.4397,0.384000
114.175,73.4179,0.460289
114.285,73.3958,0.460289
114.393,73.3744,0.541367
114.501,73.3527,0.541367
114.610,73.3311,0.627242
114.720,73.3090,0.627242
114.828,73.2874,0.627242
114.936,73.2657,0.718197
115.044,73.2441,0.718197
115.153,73.2224,0.813610
115.264,73.2004,0.813610
115.373,73.1784,0.813610
115.480,73.1568,0.911992
115.589,73.1353,1.012382
115.697,73.1136,1.012382
115.807,73.0915,1.012382
115.916,73.0696,1.116052
116.026,73.0478,1.116052
116.134,73.0261,1.221551
116.244,73.0042,1.221551
116.355,72.9822,1.134404
116.461,72.9608,1.134404
116.571,72.9389,1.134404
116.680,72.9171,0.641710
116.787,72.8958,0.641710
116.897,72.8736,0.147913
117.005,72.8520,0.147913
117.114,72.8302,0.006541
117.223,72.8086,0.006541
117.330,72.7870,0.005749
117.440,72.7649,0.005749
117.549,72.7433,0.005749
117.659,72.7213,0.005410
117.769,72.6992,0.005410
117.878,72.6775,0.005259
117.988,72.6555,0.005259
118.097,72.6336,0.005156
118.206,72.6119,0.005156
118.315,72.5900,0.005156
118.424,72.5682,0.005071
118.532,72.5466,0.005071
118.641,72.5248,0.004939
118.752,72.5027,0.004939
118.860,72.4810,0.004939
118.970,72.4592,0.004864
119.077,72.4375,0.004864
119.185,72.4160,0.004845
119.296,72.3938,0.004845
119.405,72.3720,0.004788
119.514,72.3503,0.004788
119.623,72.3285,0.004788
119.732,72.3067,0.004835
119.840,72.2851,0.004769
119.948,72.2635,0.004769
120.057,72.2415,0.004769
120.165,72.2200,0.004637
120.275,72.1980,0.004637
120.386,72.1758,0.004694
120.495,72.1540,0.004694
120.605,72.1320,0.004637
120.714,72.1103,0.004637
120.824,72.0883,0.004637
120.931,72.0667,0.004647
121.040,72.0451,0.004647
121.148,72.0234,0.004798
121.256,72.0018,0.004798
121.367,71.9797,0.004760
121.474,71.9582,0.004760
121.583,71.9364,0.004760
121.690,71.9149,0.004760
121.799,71.8933,0.004760
121.909,71.8713,0.004788
122.019,71.8493,0.004788
122.128,71.8276,0.004675
122.236,71.8058,0.004675
122.345,71.7838,0.004675
122.456,71.7618,0.004684
122.567,71.7396,0.004684
122.675,71.7180,0.004826
122.784,71.6962,0.004826
122.894,71.6744,0.004845
123.002,71.6527,0.004845
123.111,71.6307,0.004892
123.220,71.6091,0.004892
123.330,71.5871,0.004892
123.438,71.5652,0.004920
123.547,71.5437,0.004920
123.656,71.5220,0.004816
123.765,71.5000,0.004816
123.874,71.4783,0.004845
123.982,71.4566,0.004845
124.091,71.4349,0.004901
124.202,71.4128,0.004901
124.310,71.3911,0.004901
124.420,71.3690,0.004892
124.530,71.3471,0.004892
124.639,71.3254,0.004958
124.748,71.3034,0.004958
124.856,71.2819,0.004995
124.964,71.2601,0.004995
125.073,71.2384,0.004995
125.182,71.2166,0.005033
125.291,71.1948,0.005033
125.401,71.1730,0.005146
125.510,71.1511,0.005146
125.620,71.1289,0.005146
125.728,71.1075,0.005118
125.837,71.0855,0.005061
125.947,71.0636,0.005061
126.056,71.0419,0.005061
126.165,71.0200,0.005184
126.275,70.9982,0.005184
126.382,70.9765,0.005175
126.492,70.9598,0.005175
126.601,70.9521,0.005090
126.710,70.9515,0.005090
126.819,70.9515,0.005090
126.927,70.9515,0.005156
127.037,70.9515,0.005156
127.147,70.9515,0.005109
127.255,70.9536,0.005109
127.363,70.9642,0.004901
127.472,70.9836,0.004901
127.582,71.0055,0.004901
127.691,71.0272,0.004769
127.801,71.0494,0.004769
127.911,71.0713,0.004609
128.020,71.0930,0.004609
128.129,71.1148,0.004609
128.238,71.1366,0.004666
128.347,71.1586,0.004779
128.456,71.1802,0.004779
128.564,71.2021,0.004779
128.673,71.2239,0.004666
128.782,71.2456,0.004666
128.892,71.2673,0.004524
129.000,71.2892,0.004524
129.108,71.3109,0.004468
129.217,71.3325,0.004468
129.328,71.3548,0.004336
129.437,71.3765,0.004336
129.547,71.3984,0.004336
129.657,71.4204,0.004260
129.764,71.4420,0.004260
129.874,71.4639,0.004355
129.984,71.4859,0.004355
130.092,71.5074,0.004298
130.201,71.5292,0.004298
130.309,71.5509,0.004298
130.418,71.5726,0.004194
130.529,71.5948,0.004194
130.637,71.6165,0.004109
130.747,71.6385,0.004109
130.856,71.6602,0.004034
130.965,71.6821,0.004034
131.075,71.7040,0.004034
131.185,71.7261,0.004043
131.296,71.7482,0.004043
131.404,71.7700,0.004006
131.515,71.7920,0.004006
131.624,71.8138,0.003959
131.734,71.8359,0.003959
131.842,71.8574,0.003864
131.951,71.8793,0.003864
132.061,71.9012,0.003864
132.169,71.9228,0.003761
132.279,71.9448,0.003761
132.388,71.9667,0.003761
132.496,71.9884,0.003761
132.604,72.0099,0.003732
132.714,72.0317,0.003732
132.824,72.0539,0.003732
132.934,72.0757,0.003638
133.043,72.0978,0.003638
133.153,72.1196,0.003657
133.263,72.1417,0.003657
133.373,72.1637,0.003657
133.481,72.1854,0.003638
133.592,72.2076,0.003525
133.703,72.2296,0.003525
133.812,72.2515,0.003525
133.921,72.2732,0.003487
134.031,72.2951,0.003487
134.141,72.3173,0.003450
134.251,72.3393,0.003450
134.360,72.3610,0.003346
134.468,72.3827,0.003346
134.577,72.4044,0.003346
134.686,72.4263,0.003271
134.794,72.4479,0.003271
134.903,72.4696,0.003148
135.012,72.4915,0.003148
135.120,72.5130,0.003082
135.229,72.5347,0.003082
135.338,72.5567,0.003054
135.446,72.5781,0.003054
135.555,72.6001,0.003054
135.665,72.6219,0.002978
135.774,72.6438,0.002978
135.882,72.6656,0.002884
135.992,72.6874,0.002884
136.101,72.7094,0.002828
136.211,72.7312,0.002828
136.320,72.7529,0.002828
136.430,72.7750,0.002743
136.537,72.7964,0.002743
136.647,72.8184,0.002611
136.756,72.8402,0.002611
136.865,72.8620,0.002441
136.974,72.8837,0.002441
137.081,72.9052,0.002441
137.190,72.9271,0.002309
137.301,72.9492,0.002309
137.412,72.9714,0.002215
137.521,72.9932,0.002215
137.630,73.0151,0.001979
137.738,73.0367,0.001979
137.847,73.0586,0.001687
137.958,73.0804,0.001687
138.066,73.1024,0.001687
138.175,73.1240,0.001404
138.284,73.1458,0.001404
138.393,73.1679,0.001065
138.501,73.1892,0.001065
138.610,73.2110,0.000716
138.719,73.2329,0.000716
138.830,73.2552,0.000716
138.940,73.2770,0.000226
139.049,73.2988,0.000226
139.159,73.3209,-0.000509
139.267,73.3424,-0.000509
139.375,73.3640,-0.001414
139.485,73.3862,-0.001414
139.595,73.4080,-0.002630
139.703,73.4297,-0.002630
139.813,73.4516,-0.002630
139.924,73.4738,-0.004355
140.034,73.4958,-0.004355
140.142,73.5174,-0.006617
140.251,73.5391,-0.006617
140.359,73.5608,-0.006617
140.468,73.5826,-0.009765
140.578,73.6046,-0.009765
140.687,73.6266,-0.013940
140.797,73.6482,-0.013940
140.906,73.6702,-0.019181
141.016,73.6922,-0.019181
141.124,73.7137,-0.025533
141.234,73.7359,-0.025533
141.344,73.7579,-0.032678
141.454,73.7798,-0.032678
141.564,73.8018,-0.032678
141.674,73.8237,-0.040539
141.783,73.8458,-0.040539
141.892,73.8674,-0.049153
142.001,73.8892,-0.049153
142.110,73.9109,-0.058503
142.221,73.9326,-0.058503
142.330,73.9465,-0.058503
142.439,73.9515,-0.068683
142.549,73.9515,-0.068683
142.658,73.9515,-0.074791
142.766,73.9515,-0.074791
142.876,73.9515,-0.074263
142.985,73.9515,-0.074263
143.095,73.9515,-0.072076
143.204,73.9515,-0.072076
143.313,73.9515,-0.072076
143.421,73.9515,-0.070427
143.530,73.9515,-0.070427
143.640,73.9515,-0.069088
143.749,73.9515,-0.069088
143.858,73.9515,-0.067967
143.968,73.9515,-0.067967
144.078,73.9515,-0.067043
144.186,73.9515,-0.067043
144.296,73.9515,-0.067043
144.406,73.9515,-0.066270
144.513,73.9515,-0.066270
144.623,73.9515,-0.065507
144.732,73.9515,-0.065507
144.843,73.9515,-0.064818
144.954,73.9515,-0.064818
145.063,73.9515,-0.064818
145.170,73.9515,-0.064215
145.280,73.9515,-0.064215
145.389,73.9515,-0.063697
145.500,73.9515,-0.063697
145.611,73.9515,-0.063188
145.720,73.9515,-0.063188
145.829,73.9515,-0.063188
145.938,73.9515,-0.062707
146.049,73.9515,-0.062707
146.158,73.9515,-0.062377
146.269,73.9515,-0.062377
146.379,73.9515,-0.062076
146.488,73.9515,-0.062076
146.597,73.9515,-0.061718
146.704,73.9481,-0.061718
146.813,73.9360,-0.061718
146.923,73.9155,-0.060945
147.032,73.8938,-0.060945
147.141,73.8717,-0.049549
147.251,73.8498,-0.049549
147.360,73.8281,-0.023771
147.470,73.8061,-0.023771
147.577,73.7846,-0.023771
147.687,73.7626,0.008690
147.795,73.7410,0.008690
147.903,73.7195,0.046420
148.012,73.6976,0.046420
148.123,73.6753,0.089899
148.231,73.6539,0.089899
148.339,73.6322,0.139100
148.449,73.6104,0.139100
148.556,73.5889,0.139100
148.664,73.5670,0.193984
148.772,73.5455,0.193984
148.881,73.5239,0.254665
148.990,73.5020,0.254665
149.100,73.4800,0.320699
149.211,73.4578,0.320699
149.322,73.4358,0.320699
149.431,73.4137,0.392002
149.539,73.3924,0.392002
149.648,73.3704,0.468254
149.757,73.3487,0.468254
149.866,73.3269,0.468254
149.975,73.3050,0.548992
150.083,73.2835,0.548992
150.193,73.2615,0.634499
150.303,73.2396,0.634499
150.411,73.2177,0.724286
150.521,73.1959,0.724286
150.631,73.1738,0.818304
150.740,73.1519,0.818304
150.848,73.1304,0.916328
150.957,73.1085,0.916328
151.067,73.0866,0.916328
151.177,73.0646,1.017925
151.285,73.0430,1.017925
151.395,73.0212,1.121792
151.503,72.9993,1.121792
151.611,72.9780,1.126533
151.719,72.9562,1.126533
151.829,72.9342,1.126533
151.936,72.9128,0.844422
152.046,72.8908,0.844422
152.154,72.8692,0.312348
152.263,72.8474,0.312348
152.372,72.8256,0.011160
152.481,72.8037,0.011160
152.589,72.7823,0.006833
152.697,72.7605,0.006833
152.809,72.7384,0.006833
152.916,72.7168,0.006089
153.025,72.6950,0.006089
153.134,72.6734,0.005665
153.243,72.6513,0.005665
153.352,72.6296,0.005401
153.460,72.6080,0.005401
153.570,72.5860,0.005401
153.680,72.5641,0.005203
153.788,72.5424,0.005203
153.898,72.5203,0.005099
154.007,72.4985,0.005099
154.116,72.4767,0.005099
154.226,72.4549,0.005005
154.334,72.4333,0.004939
154.443,72.4115,0.004939
154.554,72.3891,0.004939
154.662,72.3677,0.004854
154.770,72.3460,0.004854
154.881,72.3238,0.004750
154.991,72.3019,0.004750
155.099,72.2804,0.004769
155.209,72.2583,0.004769
155.321,72.2360,0.004769
155.427,72.2146,0.004788
155.536,72.1928,0.004788
155.646,72.1707,0.004732
155.755,72.1491,0.004732
155.864,72.1272,0.004703
155.972,72.1059,0.004703
156.081,72.0838,0.004703
156.191,72.0620,0.004694
156.298,72.0404,0.004694
156.407,72.0187,0.004656
156.517,71.9965,0.004656
156.628,71.9745,0.004581
156.737,71.9524,0.004581
156.847,71.9306,0.004543
156.957,71.9088,0.004543
157.067,71.8866,0.004543
157.176,71.8650,0.004647
157.286,71.8428,0.004647
157.396,71.8209,0.004835
157.506,71.7988,0.004835
157.614,71.7772,0.004798
157.725,71.7551,0.004798
157.833,71.7337,0.004713
157.941,71.7120,0.004713
158.052,71.6896,0.004713
158.160,71.6681,0.004694
158.271,71.6459,0.004694
158.379,71.6242,0.004637
158.488,71.6025,0.004637
158.598,71.5805,0.004618
158.707,71.5587,0.004618
158.817,71.5365,0.004618
158.927,71.5146,0.004807
159.035,71.4932,0.004807
159.145,71.4712,0.004901
159.253,71.4494,0.004901
159.362,71.4276,0.004760
159.471,71.4060,0.004760
159.580,71.3842,0.004760
159.689,71.3622,0.004807
159.797,71.3408,0.004807
159.907,71.3188,0.004816
160.016,71.2969,0.004816
160.125,71.2749,0.004798
160.234,71.2533,0.004798
160.345,71.2312,0.004873
160.454,71.2092,0.004873
160.562,71.1877,0.004873
160.671,71.1658,0.004864
160.779,71.1443,0.004864
160.887,71.1227,0.004920
160.996,71.1010,0.004920
161.104,71.0792,0.005014
161.213,71.0574,0.005014
161.321,71.0360,0.005014
161.429,71.0143,0.005033
161.539,70.9924,0.005033
161.648,70.9703,0.005052
161.759,70.9485,0.005052
161.867,70.9268,0.005071
161.977,70.9098,0.005071
162.086,70.9021,0.004967
162.195,70.9015,0.004967
162.305,70.9015,0.004967
162.414,70.9015,0.004939
162.522,70.9015,0.004939
162.631,70.9015,0.005014
162.740,70.9015,0.005014
162.850,70.9058,0.005014
162.959,70.9192,0.004958
163.068,70.9399,0.004958
163.177,70.9617,0.004732
163.286,70.9837,0.004732
163.396,71.0055,0.004562
163.505,71.0274,0.004562
163.614,71.0492,0.004534
163.721,71.0708,0.004534
163.830,71.0923,0.004534
163.938,71.1142,0.004468
164.048,71.1359,0.004468
164.158,71.1581,0.004458
164.269,71.1802,0.004458
164.379,71.2021,0.004486
164.488,71.2239,0.004486
164.596,71.2456,0.004439
164.706,71.2677,0.004439
164.816,71.2895,0.004439
164.924,71.3114,0.004364
165.033,71.3331,0.004364
165.143,71.3549,0.004326
165.251,71.3767,0.004326
165.361,71.3986,0.004279
165.471,71.4205,0.004279
165.578,71.4421,0.004279
165.687,71.4638,0.004157
165.796,71.4857,0.004157
165.904,71.5072,0.004109
166.013,71.5292,0.004109
166.122,71.5507,0.004109
166.231,71.5724,0.004128
166.340,71.5945,0.004034
166.448,71.6160,0.004034
166.560,71.6384,0.004034
166.671,71.6605,0.003959
166.776,71.6817,0.003959
166.884,71.7032,0.003874
166.994,71.7252,0.003874
167.104,71.7472,0.003940
167.213,71.7691,0.003940
167.322,71.7907,0.003940
167.431,71.8125,0.003959
167.538,71.8341,0.003959
167.647,71.8557,0.003883
167.757,71.8779,0.003883
167.867,71.8997,0.003808
167.975,71.9213,0.003808
168.083,71.9429,0.003695
168.192,71.9648,0.003695
168.304,71.9872,0.003695
168.416,72.0095,0.003695
168.524,72.0311,0.003695
168.634,72.0532,0.003638
168.745,72.0752,0.003638
168.853,72.0969,0.003535
168.962,72.1189,0.003535
169.070,72.1403,0.003535
169.179,72.1622,0.003487
169.289,72.1841,0.003487
169.398,72.2059,0.003431
169.506,72.2277,0.003431
169.615,72.2492,0.003393
169.725,72.2713,0.003393
169.833,72.2930,0.003393
169.942,72.3146,0.003346
170.051,72.3367,0.003346
170.159,72.3582,0.003214
170.268,72.3798,0.003214
170.378,72.4019,0.003139
170.486,72.4236,0.003139
170.595,72.4454,0.003167
170.702,72.4669,0.003167
170.815,72.4892,0.003167
170.923,72.5109,0.003101
171.031,72.5326,0.003101
171.140,72.5543,0.003007
171.250,72.5763,0.003007
171.359,72.5981,0.002922
171.468,72.6198,0.002922
171.578,72.6419,0.002922
171.685,72.6633,0.002809
171.794,72.6852,0.002809
171.903,72.7070,0.002752
172.012,72.7288,0.002752
172.121,72.7504,0.002630
172.230,72.7722,0.002630
172.338,72.7939,0.002460
172.446,72.8155,0.002460
172.556,72.8376,0.002460
172.666,72.8596,0.002319
172.775,72.8814,0.002319
172.884,72.9031,0.002149
172.994,72.9252,0.002149
173.102,72.9466,0.001960
173.212,72.9686,0.001960
173.321,72.9904,0.001960
173.430,73.0122,0.001753
173.540,73.0344,0.001753
173.649,73.0560,0.001527
173.757,73.0778,0.001527
173.867,73.0997,0.001263
173.976,73.1216,0.001263
174.084,73.1431,0.001263
174.195,73.1653,0.000792
174.303,73.1870,0.000792
174.413,73.2089,0.000273
174.522,73.2308,0.000273
174.631,73.2525,-0.000207
174.740,73.2743,-0.000207
174.848,73.2959,-0.000943
174.957,73.3176,-0.000943
175.067,73.3398,-0.000943
175.176,73.3615,-0.002055
175.283,73.3829,-0.002055
175.393,73.4049,-0.003553
175.502,73.4267,-0.003553
175.610,73.4483,-0.005589
175.716,73.4695,-0.005589
175.826,73.4916,-0.005589
175.934,73.5133,-0.008426
176.044,73.5350,-0.008426
176.153,73.5571,-0.012149
176.262,73.5788,-0.012149
176.373,73.6007,-0.016966
176.481,73.6224,-0.016966
176.589,73.6440,-0.022960
176.699,73.6661,-0.022960
176.806,73.6875,-0.022960
176.916,73.7094,-0.029869
177.023,73.7308,-0.029869
177.132,73.7528,-0.037570
177.241,73.7745,-0.037570
177.351,73.7965,-0.037570
177.462,73.8187,-0.045977
177.572,73.8407,-0.045977
177.681,73.8624,-0.055139
177.790,73.8836,-0.055139
177.899,73.8970,-0.065233
178.008,73.9015,-0.065233
178.117,73.9015,-0.072924
178.227,73.9015,-0.072924
178.336,73.9015,-0.073961
178.448,73.9015,-0.073961
178.557,73.9015,-0.073961
178.669,73.9015,-0.071633
178.778,73.9015,-0.071633
178.888,73.9015,-0.069918
178.998,73.9015,-0.069918
179.109,73.9015,-0.068485
179.219,73.9015,-0.068485
179.330,73.9015,-0.068485
179.440,73.9015,-0.067335
179.549,73.9015,-0.067335
179.658,73.9015,-0.066327
179.767,73.9015,-0.066327
179.878,73.9015,-0.065450
179.987,73.9015,-0.065450
180.095,73.9015,-0.065450
180.204,73.9015,-0.064771
180.312,73.9015,-0.064771
180.422,73.9015,-0.064064
180.530,73.9015,-0.064064
180.639,73.9015,-0.063395
180.749,73.9015,-0.063395
180.859,73.9015,-0.062820
180.970,73.9015,-0.062820
181.079,73.9015,-0.062820
181.188,73.9015,-0.062340
181.299,73.9015,-0.062340
181.409,73.9015,-0.061859
181.520,73.9015,-0.061859
181.629,73.9015,-0.061388
181.738,73.9015,-0.061388
181.846,73.9015,-0.061039
181.957,73.9015,-0.061039
182.068,73.9015,-0.061039
182.178,73.9015,-0.060728
182.287,73.9015,-0.060728
182.396,73.9015,-0.060502
182.507,73.9015,-0.060502
182.613,73.9005,-0.060294
182.721,73.8919,-0.060294
182.831,73.8743,-0.060294
182.941,73.8524,-0.057994
183.049,73.8307,-0.057994
183.157,73.8090,-0.043347
183.268,73.7868,-0.043347
183.376,73.7653,-0.015458
183.485,73.7435,-0.015458
183.594,73.7216,0.018021
183.704,73.6998,0.018021
183.814,73.6775,0.018021
183.922,73.6560,0.057203
184.031,73.6343,0.057203
184.140,73.6125,0.102228
184.249,73.5908,0.102228
184.359,73.5686,0.153040
184.469,73.5468,0.153040
184.579,73.5248,0.153040
184.687,73.5032,0.209687
184.794,73.4817,0.209687
184.904,73.4596,0.271885
185.015,73.4375,0.271885
185.123,73.4158,0.339399
185.231,73.3942,0.339399
185.339,73.3728,0.412173
185.448,73.3509,0.412173
185.557,73.3292,0.412173
185.666,73.3073,0.489998
185.776,73.2852,0.489998
185.885,73.2635,0.572593
185.994,73.2417,0.572593
186.104,73.2197,0.659637
186.214,73.1976,0.659637
186.324,73.1756,0.659637
186.431,73.1542,0.750809
186.540,73.1324,0.750809
186.650,73.1106,0.846288
186.759,73.0886,0.846288
186.868,73.0669,0.846288
186.978,73.0450,0.945547
187.086,73.0233,1.048180
187.195,73.0016,1.048180
187.304,72.9795,1.048180
187.412,72.9582,1.153575
187.521,72.9363,1.153575
187.630,72.9144,1.232343
187.740,72.8925,1.232343
187.849,72.8706,0.987264
187.958,72.8489,0.987264
188.066,72.8273,0.987264
188.175,72.8054,0.366827
188.285,72.7834,0.366827
188.395,72.7616,0.011876
188.502,72.7400,0.011876
188.610,72.7185,0.006183
188.720,72.6966,0.006183
188.830,72.6745,0.005618
188.938,72.6529,0.005618
189.047,72.6312,0.005618
189.157,72.6090,0.005410
189.265,72.5876,0.005410
189.374,72.5656,0.005241
189.484,72.5437,0.005241
189.594,72.5217,0.005127
189.702,72.4999,0.005127
189.811,72.4783,0.005127
189.919,72.4566,0.005061
190.028,72.4349,0.005061
190.139,72.4127,0.004995
190.248,72.3907,0.004995
190.358,72.3689,0.004901
190.467,72.3472,0.004901
190.575,72.3255,0.004901
190.685,72.3036,0.004920
190.794,72.2816,0.004920
190.903,72.2599,0.004911
191.011,72.2384,0.004911
191.119,72.2166,0.004807
191.228,72.1949,0.004807
191.336,72.1731,0.004807
191.445,72.1515,0.004826
191.553,72.1300,0.004826
191.662,72.1081,0.004779
191.773,72.0858,0.004779
191.882,72.0641,0.004760
191.993,72.0420,0.004760
192.102,72.0200,0.004826
192.211,71.9983,0.004826
192.322,71.9763,0.004826
192.431,71.9542,0.004826
192.542,71.9321,0.004826
192.651,71.9103,0.004854
192.760,71.8886,0.004854
192.871,71.8662,0.004873
192.981,71.8443,0.004873
193.090,71.8225,0.004807
193.200,71.8005,0.004807
193.309,71.7787,0.004807
193.419,71.7567,0.004769
193.531,71.7344,0.004769
193.640,71.7126,0.004769
193.748,71.6910,0.004769
193.857,71.6691,0.004769
193.967,71.6471,0.004750
194.074,71.6258,0.004750
194.183,71.6039,0.004835
194.292,71.5821,0.004835
194.401,71.5603,0.004939
194.510,71.5387,0.004939
194.618,71.5170,0.004882
194.727,71.4952,0.004882
194.838,71.4731,0.004845
194.946,71.4513,0.004845
195.055,71.4296,0.004845
195.165,71.4075,0.004798
195.273,71.3860,0.004798
195.382,71.3641,0.004788
195.492,71.3420,0.004788
195.602,71.3203,0.004929
195.710,71.2986,0.004929
195.819,71.2768,0.004929
195.929,71.2546,0.004929
196.039,71.2326,0.004929
196.149,71.2108,0.004873
196.256,71.1893,0.004873
196.366,71.1674,0.004948
196.475,71.1457,0.004948
196.586,71.1235,0.004948
196.693,71.1019,0.004948
196.802,71.0802,0.004948
196.909,71.0589,0.004967
197.019,71.0368,0.004967
197.128,71.0151,0.004977
197.236,70.9934,0.004977
197.345,70.9715,0.005005
197.456,70.9493,0.005005
197.564,70.9278,0.005005
197.673,70.9059,0.005156
197.782,70.8841,0.005156
197.892,70.8645,0.005146
198.000,70.8537,0.005146
198.108,70.8515,0.004967
198.218,70.8515,0.004967
198.327,70.8515,0.004967
198.434,70.8515,0.004892
198.542,70.8524,0.004892
198.650,70.8605,0.004948
198.761,70.8783,0.004948
198.871,70.9001,0.004788
198.980,70.9219,0.004788
199.088,70.9436,0.004684
199.196,70.9652,0.004684
199.307,70.9874,0.004684
199.415,71.0090,0.004713
199.524,71.0310,0.004713
199.632,71.0524,0.004600
199.741,71.0741,0.004600
199.850,71.0959,0.004515
199.960,71.1181,0.004515
200.070,71.1400,0.004515
200.179,71.1617,0.004524
200.287,71.1834,0.004524
200.396,71.2052,0.004515
200.506,71.2274,0.004515
200.616,71.2492,0.004336
200.726,71.2713,0.004336
200.834,71.2929,0.004336
200.945,71.3151,0.004251
201.055,71.3369,0.004251
201.162,71.3584,0.004336
201.270,71.3800,0.004336
201.378,71.4015,0.004317
201.487,71.4234,0.004317
201.595,71.4452,0.004185
201.705,71.4670,0.004185
201.812,71.4885,0.004185
201.923,71.5107,0.004119
202.031,71.5324,0.004119
202.142,71.5543,0.004006
202.251,71.5762,0.004006
202.362,71.5984,0.004006
202.470,71.6198,0.003883
202.579,71.6418,0.003912
202.687,71.6633,0.003912
202.796,71.6852,0.003912
202.903,71.7066,0.003912
203.010,71.7280,0.003912
203.121,71.7503,0.003912
203.230,71.7720,0.003912
203.341,71.7942,0.003827
203.451,71.8161,0.003827
203.560,71.8381,0.003827
203.670,71.8599,0.003761
203.778,71.8816,0.003761
203.887,71.9032,0.003761
203.993,71.9247,0.003761
204.104,71.9469,0.003695
204.213,71.9686,0.003695
204.321,71.9901,0.003695
204.430,72.0120,0.003619
204.539,72.0338,0.003619
204.648,72.0556,0.003591
204.756,72.0772,0.003591
204.865,72.0992,0.003591
204.974,72.1207,0.003591
205.084,72.1429,0.003478
205.197,72.1653,0.003478
205.304,72.1867,0.003478
205.412,72.2084,0.003393
205.521,72.2301,0.003393
205.630,72.2521,0.003337
205.740,72.2739,0.003337
205.848,72.2955,0.003280
205.956,72.3172,0.003280
206.064,72.3388,0.003280
206.173,72.3605,0.003214
206.283,72.3826,0.003214
206.391,72.4041,0.003129
206.501,72.4262,0.003129
206.609,72.4478,0.003092
206.717,72.4694,0.003092
206.827,72.4912,0.003092
206.935,72.5129,0.003035
207.044,72.5350,0.003035
207.151,72.5562,0.002922
207.262,72.5785,0.002922
207.372,72.6002,0.002818
207.480,72.6219,0.002818
207.590,72.6440,0.002762
207.699,72.6657,0.002762
207.808,72.6874,0.002762
207.916,72.7092,0.002639
208.026,72.7311,0.002639
208.137,72.7534,0.002460
208.245,72.7750,0.002460
208.355,72.7970,0.002356
208.463,72.8186,0.002356
208.571,72.8401,0.002356
208.681,72.8623,0.002234
208.791,72.8841,0.002234
208.900,72.9059,0.002055
209.008,72.9275,0.002055
209.117,72.9492,0.001866
209.226,72.9712,0.001866
209.335,72.9929,0.001866
209.445,73.0148,0.001640
209.555,73.0370,0.001640
209.662,73.0584,0.001357
209.772,73.0802,0.001357
209.881,73.1021,0.001009
209.991,73.1241,0.001009
210.100,73.1460,0.000594
210.209,73.1676,0.000594
210.317,73.1895,0.000594
210.426,73.2113,-0.000047
210.535,73.2329,-0.000047
210.643,73.2546,-0.000829
210.754,73.2768,-0.000829
210.862,73.2982,-0.001838
210.970,73.3199,-0.001838
211.078,73.3418,-0.003299
211.189,73.3638,-0.003299
211.299,73.3857,-0.003299
211.406,73.4071,-0.005307
211.515,73.4288,-0.005307
211.624,73.4506,-0.008012
211.734,73.4726,-0.008012
211.844,73.4948,-0.008012
211.952,73.5163,-0.011697
212.060,73.5378,-0.011697
212.168,73.5594,-0.016466
212.277,73.5812,-0.016466
212.386,73.6032,-0.016466
212.495,73.6249,-0.022338
212.604,73.6467,-0.029181
212.712,73.6686,-0.029181
212.821,73.6901,-0.029181
212.931,73.7121,-0.036703
213.040,73.7338,-0.036703
213.149,73.7556,-0.045101
213.259,73.7777,-0.045101
213.367,73.7994,-0.054205
213.477,73.8212,-0.054205
213.586,73.8400,-0.054205
213.696,73.8500,-0.064055
213.805,73.8515,-0.064055
213.913,73.8515,-0.071737
214.023,73.8515,-0.071737
214.132,73.8515,-0.072840
214.242,73.8515,-0.072840
214.350,73.8515,-0.070502
