Elapsed Time (s),Position (mm),Force (N)
-0.036,66.1593,-0.878657
0.001,66.1593,-0.878657
0.026,66.1593,-0.878657
0.058,66.1593,-0.878657
0.089,66.1593,-0.723104
0.120,66.1593,-0.723104
0.151,66.1593,-0.723104
0.182,66.1593,-0.723104
0.214,66.1593,-0.723104
0.243,66.1593,-0.723104
0.274,66.1593,-0.723104
0.305,66.1593,-0.723104
0.336,66.1593,-0.486771
0.367,66.1593,-0.486771
0.398,66.1593,-0.486771
0.429,66.1593,-0.486771
0.461,66.1593,-0.486771
0.491,66.1593,-0.486771
0.522,66.1593,-0.486771
0.553,66.1593,-0.486771
0.584,66.1593,-0.486771
0.614,66.1593,-0.387106
0.646,66.1593,-0.387106
0.678,66.1593,-0.387106
0.708,66.1593,-0.387106
0.740,66.1593,-0.387106
0.771,66.1593,-0.387106
0.803,66.1593,-0.387106
0.833,66.1593,-0.336243
0.864,66.1593,-0.336243
0.895,66.1593,-0.336243
0.929,66.1593,-0.336243
0.957,66.1593,-0.336243
0.988,66.1593,-0.336243
1.018,66.1593,-0.336243
1.053,66.1593,-0.336243
1.082,66.1593,-0.307729
1.112,66.1593,-0.307729
1.143,66.1593,-0.307729
1.173,66.1593,-0.307729
1.204,66.1593,-0.307729
1.235,66.1593,-0.307729
1.266,66.1593,-0.307729
1.297,66.1593,-0.307729
1.328,66.1593,-0.289162
1.363,66.1593,-0.289162
1.389,66.1593,-0.289162
1.420,66.1593,-0.289162
1.451,66.1593,-0.289162
1.487,66.1593,-0.289162
1.513,66.1593,-0.289162
1.545,66.1593,-0.289162
1.577,66.1593,-0.276185
1.608,66.1593,-0.276185
1.640,66.1593,-0.276185
1.671,66.1593,-0.276185
1.702,66.1593,-0.276185
1.734,66.1593,-0.276185
1.764,66.1593,-0.276185
1.795,66.1593,-0.276185
1.825,66.1593,-0.276185
1.857,66.1593,-0.266436
1.888,66.1593,-0.266436
1.917,66.1593,-0.266436
1.951,66.1593,-0.266436
1.979,66.1593,-0.266436
2.010,66.1593,-0.266436
2.042,66.1593,-0.266436
2.073,66.1593,-0.266436
2.103,66.1593,-0.258682
2.134,66.1593,-0.258682
2.165,66.1593,-0.258682
2.197,66.1593,-0.258682
2.228,66.1593,-0.258682
2.258,66.1593,-0.258682
2.290,66.1593,-0.258682
2.320,66.1593,-0.258682
2.352,66.1593,-0.253130
2.383,66.1593,-0.253130
2.414,66.1593,-0.253130
2.448,66.1593,-0.253130
2.475,66.1593,-0.253130
2.506,66.1593,-0.253130
2.538,66.1593,-0.253130
2.569,66.1593,-0.253130
2.601,66.1593,-0.247757
2.632,66.1593,-0.247757
2.663,66.1593,-0.247757
2.694,66.1593,-0.247757
2.726,66.1593,-0.247757
2.757,66.1593,-0.247757
2.788,66.1593,-0.247757
2.820,66.1593,-0.243051
2.851,66.1593,-0.243051
2.882,66.1593,-0.243051
2.913,66.1593,-0.243051
2.944,66.1593,-0.243051
2.975,66.1593,-0.243051
3.011,66.1593,-0.243051
3.037,66.1593,-0.243051
3.068,66.1593,-0.243051
3.099,66.1593,-0.239946
3.129,66.1593,-0.239946
3.160,66.1593,-0.239946
3.191,66.1593,-0.239946
3.222,66.1593,-0.239946
3.252,66.1593,-0.239946
3.283,66.1593,-0.239946
3.314,66.1593,-0.239946
3.344,66.1593,-0.237311
3.375,66.1593,-0.237311
3.407,66.1593,-0.237311
3.437,66.1593,-0.237311
3.468,66.1593,-0.237311
3.499,66.1593,-0.237311
3.530,66.1593,-0.237311
3.562,66.1593,-0.233509
3.592,66.1593,-0.233509
3.622,66.1593,-0.233509
3.653,66.1593,-0.233509
3.685,66.1593,-0.233509
3.715,66.1593,-0.233509
3.746,66.1593,-0.233509
3.778,66.1593,-0.233509
3.810,66.1593,-0.233509
3.840,66.1593,-0.229566
3.871,66.1593,-0.229566
3.903,66.1593,-0.229566
3.933,66.1593,-0.229566
3.963,66.1593,-0.229566
3.995,66.1593,-0.229566
4.026,66.1593,-0.229566
4.058,66.1593,-0.229566
4.090,66.1593,-0.225633
4.120,66.1593,-0.225633
4.152,66.1592,-0.225633
4.183,66.1582,-0.225633
4.213,66.1566,-0.225633
4.244,66.1545,-0.225633
4.275,66.1514,-0.225633
4.305,66.1477,-0.225633
4.336,66.1432,-0.225633
4.367,66.1381,-0.216796
4.398,66.1320,-0.216796
4.428,66.1255,-0.216796
4.459,66.1183,-0.216796
4.490,66.1102,-0.216796
4.522,66.1010,-0.216796
4.552,66.0918,-0.216796
4.585,66.0809,-0.216796
4.614,66.0704,0.346265
4.646,66.0584,0.346265
4.677,66.0461,0.346265
4.708,66.0326,0.346265
4.739,66.0188,0.346265
4.769,66.0045,0.346265
4.802,65.9877,0.346265
4.832,65.9730,0.346265
4.863,65.9557,0.456526
4.895,65.9376,0.456526
4.927,65.9186,0.456526
4.957,65.8997,0.456526
4.994,65.8767,0.456526
5.035,65.8491,0.456526
5.066,65.8279,0.013909
5.096,65.8058,0.013909
5.128,65.7823,0.013909
5.158,65.7586,0.013909
5.190,65.7335,0.013909
5.221,65.7084,0.013909
5.253,65.6821,0.013909
5.287,65.6523,0.013909
5.315,65.6280,0.013909
5.346,65.5995,0.030207
5.377,65.5706,0.030207
5.410,65.5383,0.030207
5.439,65.5105,0.030207
5.470,65.4795,0.030207
5.502,65.4469,0.030207
5.532,65.4149,0.030207
5.564,65.3807,0.030207
5.595,65.3461,0.054044
5.626,65.3126,0.054044
5.656,65.2778,0.054044
5.688,65.2409,0.054044
5.719,65.2038,0.054044
5.751,65.1651,0.054044
5.783,65.1255,0.054044
5.814,65.0846,0.054044
5.846,65.0453,0.070042
5.876,65.0051,0.070042
5.907,64.9632,0.070042
5.939,64.9207,0.070042
5.970,64.8780,0.070042
6.001,64.8351,0.070042
6.032,64.7905,0.070042
6.062,64.7451,0.070042
6.093,64.7008,0.076601
6.124,64.6539,0.076601
6.155,64.6081,0.076601
6.186,64.5615,0.076601
6.217,64.5143,0.076601
6.248,64.4674,0.076601
6.279,64.4209,0.076601
6.310,64.3751,0.076601
6.342,64.3266,0.078040
6.373,64.2806,0.078040
6.404,64.2331,0.078040
6.436,64.1867,0.078040
6.467,64.1393,0.078040
6.498,64.0932,0.078040
6.529,64.0455,0.078040
6.561,63.9991,0.078040
6.593,63.9498,0.078605
6.624,63.9046,0.078605
6.656,63.8557,0.078605
6.686,63.8117,0.078605
6.717,63.7650,0.078605
6.746,63.7205,0.078605
6.777,63.6733,0.078605
6.808,63.6270,0.082746
6.839,63.5811,0.082746
6.870,63.5337,0.082746
6.903,63.4852,0.082746
6.932,63.4416,0.082746
6.964,63.3942,0.082746
6.994,63.3453,0.082746
7.026,63.3023,0.082746
7.057,63.2547,0.082746
7.088,63.2088,0.082746
7.119,63.1625,0.090744
7.149,63.1168,0.090744
7.180,63.0704,0.090744
7.211,63.0244,0.090744
7.242,62.9769,0.090744
7.272,62.9315,0.090744
7.304,62.8851,0.090744
7.334,62.8393,0.090744
7.365,62.7924,0.101547
7.395,62.7479,0.101547
7.426,62.6996,0.101547
7.457,62.6539,0.101547
7.488,62.6075,0.101547
7.519,62.5600,0.101547
7.550,62.5159,0.101547
7.581,62.4716,0.110723
7.612,62.4263,0.110723
7.643,62.3842,0.110723
7.675,62.3385,0.110723
7.705,62.2997,0.110723
7.736,62.2588,0.110723
7.767,62.2180,0.110723
7.798,62.1778,0.110723
7.829,62.1383,0.069806
7.860,62.0999,0.069806
7.892,62.0612,0.069806
7.924,62.0240,0.069806
7.954,61.9875,0.069806
7.986,61.9521,0.069806
8.019,61.9147,0.069806
8.047,61.8841,0.069806
8.079,61.8499,0.069806
8.110,61.8174,0.069806
8.142,61.7845,0.021973
8.172,61.7545,0.021973
8.204,61.7239,0.021973
8.234,61.6952,0.021973
8.265,61.6656,0.021973
8.296,61.6383,0.021973
8.326,61.6114,0.021973
8.357,61.5855,0.016958
8.388,61.5590,0.016958
8.419,61.5335,0.016958
8.450,61.5091,0.016958
8.481,61.4859,0.016958
8.511,61.4630,0.016958
8.543,61.4405,0.016958
8.573,61.4193,0.016958
8.604,61.3984,0.015706
8.635,61.3780,0.015706
8.666,61.3589,0.015706
8.697,61.3400,0.015706
8.728,61.3225,0.015706
8.758,61.3054,0.015706
8.789,61.2890,0.015706
8.820,61.2730,0.015706
8.851,61.2580,0.014925
8.882,61.2438,0.014925
8.913,61.2304,0.014925
8.943,61.2175,0.014925
8.974,61.2056,0.014925
9.004,61.1943,0.014925
9.035,61.1836,0.014925
9.066,61.1736,0.014925
9.097,61.1643,0.014492
9.133,61.1542,0.014492
9.159,61.1476,0.014492
9.190,61.1406,0.014492
9.221,61.1343,0.014492
9.252,61.1287,0.014492
9.283,61.1237,0.014492
9.315,61.1195,0.014492
9.346,61.1159,0.014492
9.377,61.1132,0.014144
9.408,61.1112,0.014144
9.439,61.1099,0.014144
9.470,61.1093,0.014144
9.501,61.1093,0.014144
9.532,61.1093,0.014144
9.564,61.1093,0.014144
9.595,61.1093,0.013871
9.626,61.1093,0.013871
9.657,61.1093,0.013871
9.688,61.1093,0.013871
9.720,61.1093,0.013871
9.751,61.1093,0.013871
9.781,61.1093,0.013871
9.813,61.1093,0.013871
9.844,61.1093,0.013871
9.875,61.1093,0.013824
9.905,61.1093,0.013824
9.937,61.1093,0.013824
9.968,61.1093,0.013824
9.999,61.1093,0.013824
10.029,61.1093,0.013824
10.060,61.1093,0.013824
10.091,61.1097,0.013824
10.122,61.1108,0.013824
10.154,61.1127,0.013824
10.184,61.1153,0.013824
10.215,61.1186,0.013824
10.246,61.1226,0.013824
10.279,61.1277,0.013824
10.309,61.1330,0.013824
10.340,61.1393,0.013824
10.370,61.1460,0.013654
10.402,61.1540,0.013654
10.433,61.1623,0.013654
10.464,61.1712,0.013654
10.494,61.1809,0.013654
10.525,61.1914,0.013654
10.556,61.2031,0.013654
10.587,61.2149,0.013654
10.618,61.2275,0.013372
10.649,61.2415,0.013372
10.680,61.2553,0.013372
10.711,61.2703,0.013372
10.742,61.2858,0.013372
10.773,61.3024,0.013372
10.804,61.3194,0.013372
10.835,61.3373,0.013372
10.866,61.3559,0.013052
10.897,61.3752,0.013052
10.929,61.3953,0.013052
10.959,61.4165,0.013052
10.990,61.4374,0.013052
11.021,61.4599,0.013052
11.053,61.4831,0.013052
11.084,61.5068,0.013052
11.115,61.5311,0.012676
11.147,61.5584,0.012676
11.177,61.5820,0.012676
11.209,61.6105,0.012676
11.240,61.6369,0.012676
11.271,61.6653,0.012676
11.302,61.6942,0.012676
11.333,61.7239,0.012676
11.364,61.7544,0.012149
11.395,61.7845,0.012149
11.426,61.8161,0.012149
11.457,61.8494,0.012149
11.488,61.8822,0.012149
11.519,61.9161,0.012149
11.550,61.9502,0.012149
11.581,61.9862,0.012149
11.612,62.0218,0.011424
11.644,62.0603,0.011424
11.674,62.0975,0.011424
11.708,62.1385,0.011424
11.737,62.1759,0.011424
11.769,62.2161,0.011424
11.799,62.2555,0.011424
11.831,62.2980,0.011424
11.862,62.3390,0.010257
11.893,62.3829,0.010257
11.923,62.4245,0.010257
11.954,62.4689,0.010257
11.985,62.5136,0.010257
12.016,62.5585,0.010257
12.047,62.6060,0.010257
12.078,62.6513,0.010257
12.109,62.6989,0.008582
12.141,62.7472,0.008582
12.171,62.7923,0.008582
12.202,62.8390,0.008582
12.234,62.8862,0.008582
12.266,62.9341,0.008582
12.296,62.9792,0.008582
12.327,63.0265,0.008582
12.359,63.0742,0.006531
12.389,63.1191,0.006531
12.420,63.1651,0.006531
12.451,63.2116,0.006531
12.482,63.2570,0.006531
12.512,63.3040,0.006531
12.537,63.3419,0.006531
12.574,63.3969,0.003745
12.605,63.4427,0.003745
12.637,63.4907,0.003745
12.668,63.5377,0.003745
12.699,63.5846,0.003745
12.730,63.6294,0.003745
12.761,63.6769,0.003745
12.792,63.7226,0.003745
12.823,63.7707,0.003745
12.854,63.8153,0.003745
12.885,63.8648,-0.000094
12.916,63.9094,-0.000094
12.948,63.9564,-0.000094
12.980,64.0043,-0.000094
13.012,64.0534,-0.000094
13.042,64.0992,-0.000094
13.070,64.1400,-0.000094
13.104,64.1909,-0.006098
13.136,64.2391,-0.006098
13.167,64.2853,-0.006098
13.198,64.3313,-0.006098
13.229,64.3785,-0.006098
13.259,64.4236,-0.006098
13.290,64.4699,-0.006098
13.321,64.5155,-0.006098
13.352,64.5631,-0.016233
13.383,64.6093,-0.016233
13.413,64.6545,-0.016233
13.445,64.7007,-0.016233
13.476,64.7473,-0.016233
13.508,64.7915,-0.016233
13.539,64.8360,-0.016233
13.570,64.8775,-0.016233
13.601,64.9204,-0.033275
13.633,64.9622,-0.033275
13.664,65.0033,-0.033275
13.695,65.0424,-0.033275
13.726,65.0817,-0.033275
13.756,65.1191,-0.033275
13.788,65.1577,-0.033275
13.819,65.1942,-0.059869
13.852,65.2337,-0.059869
13.881,65.2655,-0.059869
13.912,65.3004,-0.059869
13.943,65.3339,-0.059869
13.974,65.3672,-0.059869
14.006,65.4013,-0.059869
14.037,65.4333,-0.059869
14.068,65.4642,-0.097567
14.098,65.4934,-0.097567
14.130,65.5236,-0.097567
14.161,65.5527,-0.097567
14.191,65.5797,-0.097567
14.222,65.6069,-0.097567
14.252,65.6335,-0.097567
14.283,65.6592,-0.097567
14.314,65.6844,-0.148985
14.346,65.7092,-0.148985
14.376,65.7324,-0.148985
14.407,65.7559,-0.148985
14.438,65.7777,-0.148985
14.469,65.7995,-0.148985
14.503,65.8221,-0.148985
14.531,65.8404,-0.148985
14.563,65.8608,-0.148985
14.594,65.8794,-0.239918
14.625,65.8970,-0.239918
14.655,65.9142,-0.239918
14.687,65.9309,-0.239918
14.719,65.9470,-0.239918
14.749,65.9619,-0.239918
14.780,65.9760,-0.239918
14.811,65.9896,-0.239918
14.842,66.0024,-0.401428
14.875,66.0152,-0.401428
14.903,66.0256,-0.401428
14.934,66.0359,-0.401428
14.966,66.0462,-0.401428
15.001,66.0569,-0.401428
15.028,66.0641,-0.401428
15.058,66.0717,-0.401428
15.090,66.0788,-0.626779
15.121,66.0850,-0.626779
15.152,66.0906,-0.626779
15.183,66.0954,-0.626779
15.214,66.0995,-0.626779
15.249,66.1035,-0.626779
15.275,66.1056,-0.626779
15.306,66.1076,-0.626779
15.336,66.1088,-0.626779
15.368,66.1093,-0.842333
15.399,66.1093,-0.842333
15.429,66.1093,-0.842333
15.461,66.1093,-0.842333
15.492,66.1093,-0.842333
15.523,66.1093,-0.842333
15.555,66.1093,-0.842333
15.585,66.1093,-0.790040
15.616,66.1093,-0.790040
15.647,66.1093,-0.790040
15.678,66.1093,-0.790040
15.709,66.1093,-0.790040
15.740,66.1093,-0.790040
15.772,66.1093,-0.790040
15.803,66.1093,-0.790040
15.834,66.1093,-0.549821
15.865,66.1093,-0.549821
15.895,66.1093,-0.549821
15.926,66.1093,-0.549821
15.957,66.1093,-0.549821
15.988,66.1093,-0.549821
16.018,66.1093,-0.549821
16.049,66.1093,-0.549821
16.080,66.1093,-0.410810
16.111,66.1093,-0.410810
16.142,66.1093,-0.410810
16.175,66.1093,-0.410810
16.204,66.1093,-0.410810
16.235,66.1093,-0.410810
16.267,66.1093,-0.410810
16.297,66.1093,-0.410810
16.328,66.1093,-0.347827
16.358,66.1093,-0.347827
16.389,66.1093,-0.347827
16.420,66.1093,-0.347827
16.452,66.1093,-0.347827
16.483,66.1093,-0.347827
16.514,66.1093,-0.347827
16.546,66.1093,-0.347827
16.577,66.1093,-0.312829
16.610,66.1093,-0.312829
16.639,66.1093,-0.312829
16.670,66.1093,-0.312829
16.701,66.1093,-0.312829
16.732,66.1093,-0.312829
16.762,66.1093,-0.312829
16.793,66.1093,-0.312829
16.825,66.1093,-0.312829
16.854,66.1093,-0.291355
16.886,66.1093,-0.291355
16.921,66.1093,-0.291355
16.949,66.1093,-0.291355
16.979,66.1093,-0.291355
17.012,66.1093,-0.291355
17.043,66.1093,-0.291355
17.073,66.1093,-0.291355
17.104,66.1093,-0.276684
17.135,66.1093,-0.276684
17.167,66.1093,-0.276684
17.198,66.1093,-0.276684
17.228,66.1093,-0.276684
17.260,66.1093,-0.276684
17.291,66.1093,-0.276684
17.322,66.1093,-0.265900
17.353,66.1093,-0.265900
17.388,66.1093,-0.265900
17.415,66.1093,-0.265900
17.446,66.1093,-0.265900
17.477,66.1093,-0.265900
17.507,66.1093,-0.265900
17.540,66.1093,-0.265900
17.569,66.1093,-0.265900
17.600,66.1093,-0.258052
17.631,66.1093,-0.258052
17.661,66.1093,-0.258052
17.693,66.1093,-0.258052
17.724,66.1093,-0.258052
17.755,66.1093,-0.258052
17.787,66.1093,-0.258052
17.818,66.1093,-0.258052
17.849,66.1093,-0.251323
17.879,66.1093,-0.251323
17.911,66.1093,-0.251323
17.942,66.1093,-0.251323
17.972,66.1093,-0.251323
18.004,66.1093,-0.251323
18.036,66.1093,-0.251323
18.066,66.1093,-0.246157
18.096,66.1093,-0.246157
18.127,66.1093,-0.246157
18.158,66.1093,-0.246157
18.189,66.1093,-0.246157
18.219,66.1093,-0.246157
18.250,66.1093,-0.246157
18.281,66.1093,-0.246157
18.312,66.1093,-0.241565
18.343,66.1093,-0.241565
18.372,66.1093,-0.241565
18.403,66.1093,-0.241565
18.434,66.1093,-0.241565
18.466,66.1093,-0.241565
18.496,66.1093,-0.241565
18.528,66.1093,-0.241565
18.559,66.1093,-0.241565
18.590,66.1093,-0.237998
18.621,66.1093,-0.237998
18.653,66.1093,-0.237998
18.683,66.1093,-0.237998
18.715,66.1093,-0.237998
18.745,66.1093,-0.237998
18.775,66.1093,-0.237998
18.807,66.1093,-0.237998
18.837,66.1093,-0.237998
18.869,66.1093,-0.234780
18.900,66.1093,-0.234780
18.930,66.1093,-0.234780
18.962,66.1093,-0.234780
18.992,66.1093,-0.234780
19.024,66.1093,-0.234780
19.054,66.1093,-0.234780
19.086,66.1093,-0.234780
19.117,66.1093,-0.231411
19.148,66.1093,-0.231411
19.179,66.1093,-0.231411
19.210,66.1093,-0.231411
19.241,66.1093,-0.231411
19.272,66.1093,-0.231411
19.303,66.1093,-0.231411
19.334,66.1093,-0.231411
19.365,66.1093,-0.228070
19.396,66.1093,-0.228070
19.426,66.1093,-0.228070
19.458,66.1093,-0.228070
19.489,66.1093,-0.228070
19.520,66.1093,-0.228070
19.551,66.1093,-0.228070
19.582,66.1093,-0.228070
19.613,66.1093,-0.223675
19.645,66.1091,-0.223675
19.676,66.1082,-0.223675
19.707,66.1065,-0.223675
19.738,66.1042,-0.223675
19.769,66.1010,-0.223675
19.800,66.0972,-0.223675
19.831,66.0926,-0.223675
19.862,66.0875,-0.215112
19.893,66.0811,-0.215112
19.924,66.0746,-0.215112
19.954,66.0673,-0.215112
19.986,66.0590,-0.215112
20.016,66.0502,-0.215112
20.047,66.0405,-0.215112
20.078,66.0305,-0.215112
20.108,66.0195,-0.215112
20.140,66.0074,0.333721
20.171,65.9950,0.333721
20.202,65.9816,0.333721
20.233,65.9676,0.333721
20.264,65.9523,0.333721
20.295,65.9373,0.333721
20.327,65.9204,0.333721
20.357,65.9043,0.442674
20.388,65.8865,0.442674
20.420,65.8677,0.442674
20.451,65.8486,0.442674
20.482,65.8290,0.442674
20.513,65.8083,0.442674
20.544,65.7866,0.442674
20.575,65.7643,0.442674
20.607,65.7418,0.013212
20.638,65.7182,0.013212
20.669,65.6940,0.013212
20.699,65.6690,0.013212
20.730,65.6431,0.013212
20.762,65.6168,0.013212
20.793,65.5892,0.013212
20.818,65.5672,0.013212
20.855,65.5329,0.030461
20.886,65.5038,0.030461
20.917,65.4732,0.030461
20.949,65.4412,0.030461
20.980,65.4096,0.030461
21.011,65.3780,0.030461
21.043,65.3434,0.030461
21.075,65.3084,0.030461
21.107,65.2734,0.054025
21.138,65.2381,0.054025
21.169,65.2011,0.054025
21.200,65.1654,0.054025
21.231,65.1287,0.054025
21.262,65.0899,0.054025
21.292,65.0522,0.054025
21.323,65.0127,0.054025
21.354,64.9728,0.069825
21.385,64.9307,0.069825
21.417,64.8891,0.069825
21.447,64.8469,0.069825
21.478,64.8041,0.069825
21.509,64.7597,0.069825
21.540,64.7153,0.069825
21.572,64.6690,0.069825
21.603,64.6233,0.076384
21.633,64.5766,0.076384
21.665,64.5290,0.076384
21.695,64.4840,0.076384
21.727,64.4369,0.076384
21.758,64.3896,0.076384
21.789,64.3431,0.076384
21.821,64.2960,0.076384
21.852,64.2495,0.077871
21.883,64.2011,0.077871
21.914,64.1556,0.077871
21.948,64.1041,0.077871
21.976,64.0631,0.077871
22.008,64.0148,0.077871
22.039,63.9687,0.077871
22.071,63.9201,0.077871
22.102,63.8746,0.078426
22.134,63.8259,0.078426
22.165,63.7802,0.078426
22.195,63.7353,0.078426
22.225,63.6894,0.078426
22.256,63.6432,0.078426
22.287,63.5969,0.078426
22.312,63.5583,0.078426
22.349,63.5025,0.082294
22.380,63.4580,0.082294
22.414,63.4059,0.082294
22.441,63.3651,0.082294
22.474,63.3164,0.082294
22.504,63.2706,0.082294
22.539,63.2188,0.082294
22.566,63.1785,0.082294
22.597,63.1321,0.090067
22.628,63.0846,0.090067
22.663,63.0327,0.090067
22.690,62.9920,0.090067
22.721,62.9451,0.090067
22.752,62.8975,0.090067
22.782,62.8531,0.090067
22.814,62.8061,0.090067
22.839,62.7683,0.101331
22.876,62.7118,0.101331
22.908,62.6652,0.101331
22.939,62.6188,0.101331
22.972,62.5688,0.101331
23.001,62.5260,0.101331
23.032,62.4795,0.101331
23.062,62.4359,0.101331
23.093,62.3920,0.110666
23.124,62.3487,0.110666
23.158,62.3001,0.110666
23.186,62.2626,0.110666
23.217,62.2221,0.110666
23.248,62.1801,0.110666
23.283,62.1357,0.110666
23.311,62.1005,0.110666
23.341,62.0623,0.069148
23.372,62.0246,0.069148
23.403,61.9870,0.069148
23.435,61.9507,0.069148
23.466,61.9142,0.069148
23.497,61.8800,0.069148
23.529,61.8452,0.069148
23.559,61.8123,0.069148
23.589,61.7800,0.021503
23.621,61.7479,0.021503
23.651,61.7164,0.021503
23.682,61.6862,0.021503
23.713,61.6563,0.021503
23.745,61.6267,0.021503
23.776,61.5979,0.021503
23.807,61.5709,0.021503
23.837,61.5443,0.021503
23.869,61.5177,0.016929
23.899,61.4927,0.016929
23.930,61.4661,0.016929
23.961,61.4438,0.016929
23.992,61.4205,0.016929
24.022,61.3990,0.016929
24.053,61.3767,0.016929
24.084,61.3560,0.016929
24.115,61.3349,0.015668
24.146,61.3155,0.015668
24.176,61.2977,0.015668
24.207,61.2791,0.015668
24.238,61.2619,0.015668
24.271,61.2439,0.015668
24.301,61.2286,0.015668
24.332,61.2129,0.015668
24.363,61.1982,0.015000
24.394,61.1845,0.015000
24.426,61.1708,0.015000
24.456,61.1592,0.015000
24.486,61.1474,0.015000
24.517,61.1366,0.015000
24.548,61.1264,0.015000
24.580,61.1168,0.015000
24.611,61.1080,0.014530
24.643,61.0997,0.014530
24.673,61.0926,0.014530
24.704,61.0860,0.014530
24.734,61.0803,0.014530
24.765,61.0751,0.014530
24.796,61.0706,0.014530
24.828,61.0669,0.014530
24.858,61.0641,0.014181
24.893,61.0616,0.014181
24.920,61.0602,0.014181
24.951,61.0595,0.014181
24.982,61.0593,0.014181
25.012,61.0593,0.014181
25.044,61.0593,0.014181
25.074,61.0593,0.014181
25.105,61.0593,0.014181
25.135,61.0593,0.013956
25.166,61.0593,0.013956
25.197,61.0593,0.013956
25.228,61.0593,0.013956
25.261,61.0593,0.013956
25.289,61.0593,0.013956
25.321,61.0593,0.013956
25.353,61.0593,0.013918
25.383,61.0593,0.013918
25.414,61.0593,0.013918
25.445,61.0593,0.013918
25.476,61.0593,0.013918
25.507,61.0593,0.013918
25.539,61.0593,0.013918
25.570,61.0593,0.013918
25.600,61.0593,0.013918
25.631,61.0597,0.013918
25.662,61.0608,0.013918
25.694,61.0627,0.013918
25.724,61.0652,0.013918
25.755,61.0685,0.013918
25.786,61.0725,0.013918
25.818,61.0773,0.013918
25.849,61.0827,0.013796
25.880,61.0890,0.013796
25.910,61.0956,0.013796
25.942,61.1035,0.013796
25.972,61.1117,0.013796
26.003,61.1210,0.013796
26.035,61.1310,0.013796
26.066,61.1416,0.013796
26.096,61.1526,0.013523
26.128,61.1648,0.013523
26.158,61.1770,0.013523
26.189,61.1908,0.013523
26.219,61.2045,0.013523
26.250,61.2195,0.013523
26.281,61.2350,0.013523
26.313,61.2517,0.013523
26.344,61.2688,0.013212
26.375,61.2870,0.013212
26.406,61.3055,0.013212
26.438,61.3246,0.013212
26.469,61.3451,0.013212
26.501,61.3668,0.013212
26.532,61.3878,0.013212
26.562,61.4100,0.013212
26.594,61.4329,0.012883
26.626,61.4572,0.012883
26.658,61.4826,0.012883
26.688,61.5076,0.012883
26.720,61.5334,0.012883
26.750,61.5603,0.012883
26.782,61.5876,0.012883
26.811,61.6148,0.012883
26.843,61.6437,0.012403
26.874,61.6734,0.012403
26.905,61.7034,0.012403
26.936,61.7345,0.012403
26.967,61.7659,0.012403
26.998,61.7984,0.012403
27.028,61.8311,0.012403
27.060,61.8659,0.012403
27.092,61.9012,0.011641
27.123,61.9383,0.011641
27.155,61.9741,0.011641
27.186,62.0113,0.011641
27.217,62.0486,0.011641
27.248,62.0866,0.011641
27.279,62.1267,0.011641
27.310,62.1654,0.011641
27.340,62.2064,0.010615
27.372,62.2472,0.010615
27.403,62.2905,0.010615
27.434,62.3323,0.010615
27.467,62.3787,0.010615
27.497,62.4211,0.010615
27.528,62.4669,0.010615
27.559,62.5110,0.010615
27.589,62.5583,0.009043
27.622,62.6064,0.009043
27.652,62.6522,0.009043
27.684,62.6991,0.009043
27.714,62.7446,0.009043
27.745,62.7903,0.009043
27.777,62.8382,0.009043
27.808,62.8852,0.009043
27.838,62.9307,0.006907
27.870,62.9781,0.006907
27.901,63.0239,0.006907
27.931,63.0703,0.006907
27.963,63.1170,0.006907
27.996,63.1681,0.006907
28.024,63.2094,0.006907
28.056,63.2582,0.006907
28.086,63.3024,0.004338
28.116,63.3465,0.004338
28.147,63.3951,0.004338
28.179,63.4410,0.004338
28.209,63.4878,0.004338
28.241,63.5347,0.004338
28.274,63.5858,0.004338
28.302,63.6258,0.004338
28.332,63.6718,0.000706
28.364,63.7188,0.000706
28.395,63.7653,0.000706
28.426,63.8122,0.000706
28.459,63.8624,0.000706
28.488,63.9056,0.000706
28.521,63.9557,0.000706
28.550,63.9973,0.000706
28.582,64.0458,-0.004743
28.612,64.0912,-0.004743
28.643,64.1370,-0.004743
28.673,64.1832,-0.004743
28.706,64.2329,-0.004743
28.735,64.2745,-0.004743
28.766,64.3225,-0.004743
28.798,64.3690,-0.004743
28.831,64.4199,-0.013918
28.860,64.4635,-0.013918
28.891,64.5100,-0.013918
28.922,64.5572,-0.013918
28.953,64.6024,-0.013918
28.984,64.6482,-0.013918
29.016,64.6946,-0.013918
29.048,64.7400,-0.013918
29.078,64.7824,-0.029605
29.109,64.8251,-0.029605
29.140,64.8666,-0.029605
29.171,64.9087,-0.029605
29.202,64.9486,-0.029605
29.232,64.9880,-0.029605
29.264,65.0267,-0.029605
29.295,65.0662,-0.029605
29.325,65.1026,-0.054505
29.358,65.1418,-0.054505
29.388,65.1768,-0.054505
29.418,65.2105,-0.054505
29.449,65.2462,-0.054505
29.480,65.2797,-0.054505
29.511,65.3133,-0.054505
29.542,65.3460,-0.054505
29.574,65.3787,-0.054505
29.605,65.4097,-0.090189
29.635,65.4396,-0.090189
29.666,65.4691,-0.090189
29.698,65.4989,-0.090189
29.730,65.5273,-0.090189
29.761,65.5556,-0.090189
29.792,65.5817,-0.090189
29.823,65.6078,-0.138352
29.853,65.6325,-0.138352
29.885,65.6578,-0.138352
29.915,65.6814,-0.138352
29.947,65.7043,-0.138352
29.979,65.7273,-0.138352
30.009,65.7488,-0.138352
30.041,65.7704,-0.138352
30.072,65.7901,-0.219111
30.103,65.8096,-0.219111
30.134,65.8282,-0.219111
30.165,65.8466,-0.219111
30.196,65.8636,-0.219111
30.227,65.8804,-0.219111
30.258,65.8961,-0.219111
30.290,65.9114,-0.219111
30.321,65.9257,-0.367673
30.352,65.9395,-0.367673
30.383,65.9521,-0.367673
30.415,65.9647,-0.367673
30.445,65.9759,-0.367673
30.476,65.9863,-0.367673
30.507,65.9962,-0.367673
30.537,66.0055,-0.367673
30.568,66.0137,-0.583021
30.599,66.0216,-0.583021
30.630,66.0286,-0.583021
30.662,66.0350,-0.583021
30.692,66.0404,-0.583021
30.723,66.0455,-0.583021
30.754,66.0495,-0.583021
30.785,66.0530,-0.583021
30.815,66.0555,-0.806113
30.846,66.0575,-0.806113
30.877,66.0587,-0.806113
30.912,66.0593,-0.806113
30.938,66.0593,-0.806113
30.970,66.0593,-0.806113
31.001,66.0593,-0.806113
31.031,66.0593,-0.806113
31.062,66.0593,-0.806113
31.094,66.0593,-0.806113
31.125,66.0593,-0.807261
31.155,66.0593,-0.807261
31.189,66.0593,-0.807261
31.216,66.0593,-0.807261
31.248,66.0593,-0.807261
31.278,66.0593,-0.807261
31.312,66.0593,-0.807261
31.340,66.0593,-0.807261
31.372,66.0593,-0.586945
31.404,66.0593,-0.586945
31.434,66.0593,-0.586945
31.466,66.0593,-0.586945
31.499,66.0593,-0.586945
31.528,66.0593,-0.586945
31.559,66.0593,-0.586945
31.589,66.0593,-0.586945
31.620,66.0593,-0.418772
31.652,66.0593,-0.418772
31.682,66.0593,-0.418772
31.715,66.0593,-0.418772
31.744,66.0593,-0.418772
31.776,66.0593,-0.418772
31.806,66.0593,-0.418772
31.837,66.0593,-0.418772
31.868,66.0593,-0.344467
31.899,66.0593,-0.344467
31.930,66.0593,-0.344467
31.961,66.0593,-0.344467
31.992,66.0593,-0.344467
32.023,66.0593,-0.344467
32.054,66.0593,-0.344467
32.086,66.0593,-0.344467
32.117,66.0593,-0.307221
32.149,66.0593,-0.307221
32.179,66.0593,-0.307221
32.210,66.0593,-0.307221
32.241,66.0593,-0.307221
32.272,66.0593,-0.307221
32.303,66.0593,-0.307221
32.335,66.0593,-0.286678
32.365,66.0593,-0.286678
32.397,66.0593,-0.286678
32.428,66.0593,-0.286678
32.458,66.0593,-0.286678
32.491,66.0593,-0.286678
32.521,66.0593,-0.286678
32.552,66.0593,-0.286678
32.583,66.0593,-0.273419
32.614,66.0593,-0.273419
32.647,66.0593,-0.273419
32.675,66.0593,-0.273419
32.710,66.0593,-0.273419
32.738,66.0593,-0.273419
32.769,66.0593,-0.273419
32.800,66.0593,-0.273419
32.836,66.0593,-0.263190
32.863,66.0593,-0.263190
32.894,66.0593,-0.263190
32.926,66.0593,-0.263190
32.957,66.0593,-0.263190
32.987,66.0593,-0.263190
33.019,66.0593,-0.263190
33.050,66.0593,-0.263190
33.081,66.0593,-0.255417
33.112,66.0593,-0.255417
33.143,66.0593,-0.255417
33.174,66.0593,-0.255417
33.205,66.0593,-0.255417
33.235,66.0593,-0.255417
33.267,66.0593,-0.255417
33.298,66.0593,-0.255417
33.330,66.0593,-0.255417
33.361,66.0593,-0.249460
33.392,66.0593,-0.249460
33.423,66.0593,-0.249460
33.455,66.0593,-0.249460
33.484,66.0593,-0.249460
33.520,66.0593,-0.249460
33.546,66.0593,-0.249460
33.577,66.0593,-0.249460
33.608,66.0593,-0.244265
33.639,66.0593,-0.244265
33.670,66.0593,-0.244265
33.700,66.0593,-0.244265
33.731,66.0593,-0.244265
33.762,66.0593,-0.244265
33.793,66.0593,-0.244265
33.824,66.0593,-0.244265
33.856,66.0593,-0.239899
33.888,66.0593,-0.239899
33.919,66.0593,-0.239899
33.949,66.0593,-0.239899
33.980,66.0593,-0.239899
34.011,66.0593,-0.239899
34.042,66.0593,-0.239899
34.073,66.0593,-0.239899
34.104,66.0593,-0.236031
34.135,66.0593,-0.236031
34.166,66.0593,-0.236031
34.197,66.0593,-0.236031
34.227,66.0593,-0.236031
34.258,66.0593,-0.236031
34.289,66.0593,-0.236031
34.320,66.0593,-0.236031
34.351,66.0593,-0.233114
34.382,66.0593,-0.233114
34.414,66.0593,-0.233114
34.445,66.0593,-0.233114
34.476,66.0593,-0.233114
34.508,66.0593,-0.233114
34.539,66.0593,-0.233114
34.570,66.0593,-0.230404
34.601,66.0593,-0.230404
34.632,66.0593,-0.230404
34.663,66.0593,-0.230404
34.694,66.0593,-0.230404
34.725,66.0593,-0.230404
34.755,66.0593,-0.230404
34.787,66.0593,-0.230404
34.818,66.0593,-0.227609
34.848,66.0593,-0.227609
34.879,66.0593,-0.227609
34.910,66.0593,-0.227609
34.940,66.0593,-0.227609
34.971,66.0593,-0.227609
35.002,66.0593,-0.227609
35.033,66.0593,-0.227609
35.064,66.0593,-0.225021
35.096,66.0593,-0.225021
35.127,66.0593,-0.225021
35.157,66.0593,-0.225021
35.189,66.0593,-0.225021
35.219,66.0593,-0.225021
35.250,66.0593,-0.225021
35.281,66.0593,-0.225021
35.312,66.0593,-0.225021
35.342,66.0593,-0.222829
35.373,66.0593,-0.222829
35.404,66.0593,-0.222829
35.435,66.0593,-0.222829
35.469,66.0593,-0.222829
35.497,66.0593,-0.222829
35.528,66.0593,-0.222829
35.558,66.0593,-0.222829
35.588,66.0593,-0.222829
35.620,66.0593,-0.220184
35.653,66.0593,-0.220184
35.683,66.0593,-0.220184
35.714,66.0593,-0.220184
35.745,66.0593,-0.220184
35.775,66.0593,-0.220184
35.806,66.0593,-0.220184
35.837,66.0593,-0.220184
35.868,66.0593,-0.220184
35.899,66.0593,-0.216533
35.930,66.0593,-0.216533
35.962,66.0591,-0.216533
35.993,66.0582,-0.216533
36.024,66.0565,-0.216533
36.055,66.0541,-0.216533
36.086,66.0510,-0.216533
36.117,66.0472,-0.210520
36.148,66.0426,-0.210520
36.178,66.0374,-0.210520
36.209,66.0316,-0.210520
36.240,66.0247,-0.210520
36.272,66.0171,-0.210520
36.302,66.0090,-0.210520
36.333,66.0003,-0.210520
36.364,65.9908,0.207932
36.395,65.9801,0.207932
36.426,65.9691,0.207932
36.458,65.9568,0.207932
36.489,65.9446,0.207932
36.520,65.9310,0.207932
36.551,65.9170,0.207932
36.582,65.9020,0.207932
36.613,65.8867,0.322428
36.643,65.8712,0.322428
36.674,65.8541,0.322428
36.705,65.8365,0.322428
36.735,65.8186,0.322428
36.766,65.7993,0.322428
36.797,65.7800,0.322428
36.828,65.7593,0.322428
36.859,65.7385,0.018567
36.890,65.7165,0.018567
36.921,65.6929,0.018567
36.951,65.6710,0.018567
36.982,65.6471,0.018567
37.013,65.6219,0.018567
37.044,65.5964,0.018567
37.075,65.5697,0.018567
37.106,65.5429,0.026885
37.137,65.5141,0.026885
37.168,65.4862,0.026885
37.203,65.4536,0.026885
37.230,65.4271,0.026885
37.261,65.3962,0.026885
37.293,65.3646,0.026885
37.324,65.3313,0.026885
37.355,65.2995,0.050844
37.385,65.2663,0.050844
37.416,65.2329,0.050844
37.446,65.1974,0.050844
37.477,65.1628,0.050844
37.507,65.1271,0.050844
37.539,65.0894,0.050844
37.570,65.0502,0.068846
37.601,65.0127,0.068846
37.632,64.9723,0.068846
37.663,64.9335,0.068846
37.694,64.8924,0.068846
37.725,64.8504,0.068846
37.756,64.8084,0.068846
37.787,64.7659,0.068846
37.818,64.7206,0.077043
37.850,64.6747,0.077043
37.881,64.6305,0.077043
37.913,64.5830,0.077043
37.944,64.5372,0.077043
37.975,64.4896,0.077043
38.007,64.4420,0.077043
38.037,64.3957,0.077043
38.068,64.3496,0.077043
38.101,64.3012,0.079010
38.130,64.2573,0.079010
38.162,64.2087,0.079010
38.192,64.1635,0.079010
38.224,64.1168,0.079010
38.254,64.0711,0.079010
38.285,64.0247,0.079010
38.316,63.9779,0.079010
38.347,63.9317,0.079160
38.377,63.8863,0.079160
38.409,63.8382,0.079160
38.439,63.7938,0.079160
38.469,63.7483,0.079160
38.500,63.7023,0.079160
38.531,63.6565,0.079160
38.562,63.6091,0.082087
38.593,63.5624,0.082087
38.625,63.5134,0.082087
38.655,63.4695,0.082087
38.686,63.4232,0.082087
38.717,63.3765,0.082087
38.748,63.3305,0.082087
38.780,63.2818,0.082087
38.810,63.2377,0.082087
38.841,63.1896,0.089145
38.871,63.1460,0.089145
38.901,63.1001,0.089145
38.933,63.0534,0.089145
38.963,63.0076,0.089145
38.995,62.9602,0.089145
39.026,62.9131,0.089145
39.056,62.8679,0.099825
39.088,62.8206,0.099825
39.119,62.7745,0.099825
39.151,62.7267,0.099825
39.181,62.6809,0.099825
39.213,62.6325,0.099825
39.244,62.5866,0.099825
39.277,62.5357,0.099825
39.306,62.4931,0.099825
39.336,62.4479,0.099825
39.368,62.4023,0.111598
39.399,62.3572,0.111598
39.431,62.3121,0.111598
39.462,62.2683,0.111598
39.492,62.2268,0.111598
39.528,62.1783,0.111598
39.556,62.1424,0.111598
39.587,62.1024,0.078398
39.618,62.0627,0.078398
39.647,62.0261,0.078398
39.678,61.9887,0.078398
39.709,61.9512,0.078398
39.740,61.9140,0.078398
39.771,61.8780,0.078398
39.802,61.8428,0.078398
39.833,61.8083,0.078398
39.864,61.7748,0.029360
39.895,61.7423,0.029360
39.926,61.7098,0.029360
39.957,61.6775,0.029360
39.988,61.6468,0.029360
40.019,61.6165,0.029360
40.050,61.5881,0.029360
40.080,61.5593,0.029360
40.111,61.5319,0.017616
40.147,61.4999,0.017616
40.174,61.4772,0.017616
40.206,61.4513,0.017616
40.236,61.4266,0.017616
40.267,61.4025,0.017616
40.301,61.3762,0.017616
40.329,61.3561,0.017616
40.360,61.3341,0.016035
40.392,61.3120,0.016035
40.425,61.2897,0.016035
40.454,61.2714,0.016035
40.485,61.2521,0.016035
40.515,61.2347,0.016035
40.545,61.2166,0.016035
40.576,61.2000,0.016035
40.608,61.1837,0.015207
40.639,61.1676,0.015207
40.670,61.1530,0.015207
40.700,61.1390,0.015207
40.731,61.1258,0.015207
40.762,61.1132,0.015207
40.794,61.1010,0.015207
40.824,61.0902,0.015207
40.854,61.0798,0.014633
40.884,61.0703,0.014633
40.915,61.0613,0.014633
40.948,61.0526,0.014633
40.978,61.0453,0.014633
41.008,61.0386,0.014633
41.040,61.0323,0.014633
41.071,61.0268,0.014633
41.103,61.0220,0.014229
41.133,61.0182,0.014229
41.165,61.0149,0.014229
41.196,61.0125,0.014229
41.229,61.0106,0.014229
41.259,61.0096,0.014229
41.289,61.0094,0.014229
41.321,61.0094,0.014229
41.351,61.0094,0.013984
41.382,61.0094,0.013984
41.414,61.0094,0.013984
41.443,61.0094,0.013984
41.475,61.0094,0.013984
41.505,61.0094,0.013984
41.539,61.0094,0.013984
41.566,61.0094,0.013984
41.598,61.0094,0.013956
41.629,61.0094,0.013956
41.662,61.0094,0.013956
41.690,61.0094,0.013956
41.721,61.0094,0.013956
41.753,61.0094,0.013956
41.783,61.0094,0.013956
41.814,61.0094,0.013956
41.846,61.0094,0.013946
41.876,61.0094,0.013946
41.907,61.0094,0.013946
41.938,61.0094,0.013946
41.969,61.0094,0.013946
42.000,61.0094,0.013946
42.031,61.0099,0.013946
42.062,61.0110,0.013871
42.093,61.0130,0.013871
42.123,61.0154,0.013871
42.154,61.0188,0.013871
42.185,61.0228,0.013871
42.216,61.0276,0.013871
42.247,61.0332,0.013871
42.280,61.0399,0.013871
42.308,61.0462,0.013871
42.339,61.0540,0.013871
42.371,61.0624,0.013730
42.401,61.0716,0.013730
42.433,61.0818,0.013730
42.463,61.0920,0.013730
42.495,61.1037,0.013730
42.526,61.1156,0.013730
42.558,61.1290,0.013730
42.587,61.1416,0.013447
42.619,61.1565,0.013447
42.650,61.1710,0.013447
42.680,61.1866,0.013447
42.710,61.2022,0.013447
42.741,61.2192,0.013447
42.772,61.2377,0.013447
42.803,61.2558,0.013447
42.834,61.2751,0.013156
42.865,61.2950,0.013156
42.896,61.3161,0.013156
42.927,61.3370,0.013156
42.958,61.3595,0.013156
42.988,61.3818,0.013156
43.019,61.4059,0.013156
43.051,61.4304,0.013156
43.082,61.4553,0.013156
43.113,61.4814,0.012695
43.144,61.5084,0.012695
43.176,61.5360,0.012695
43.207,61.5646,0.012695
43.238,61.5934,0.012695
43.270,61.6234,0.012695
43.302,61.6552,0.012695
43.332,61.6854,0.012695
43.364,61.7170,0.012102
43.395,61.7502,0.012102
43.425,61.7825,0.012102
43.456,61.8172,0.012102
43.488,61.8515,0.012102
43.518,61.8867,0.012102
43.549,61.9219,0.012102
43.580,61.9585,0.012102
43.613,61.9987,0.011255
43.642,62.0340,0.011255
43.675,62.0760,0.011255
43.704,62.1139,0.011255
43.735,62.1535,0.011255
43.765,62.1935,0.011255
43.795,62.2356,0.011255
43.826,62.2770,0.011255
43.858,62.3207,0.009956
43.889,62.3654,0.009956
43.920,62.4098,0.009956
43.951,62.4563,0.009956
43.982,62.5020,0.009956
44.014,62.5499,0.009956
44.044,62.5945,0.009956
44.074,62.6400,0.008291
44.107,62.6906,0.008291
44.135,62.7318,0.008291
44.167,62.7800,0.008291
44.197,62.8256,0.008291
44.229,62.8721,0.008291
44.259,62.9186,0.008291
44.290,62.9652,0.008291
44.321,63.0100,0.008291
44.352,63.0572,0.006023
44.383,63.1026,0.006023
44.417,63.1553,0.006023
44.444,63.1959,0.006023
44.475,63.2424,0.006023
44.505,63.2874,0.006023
44.537,63.3352,0.006023
44.568,63.3807,0.006023
44.599,63.4281,0.003011
44.629,63.4728,0.003011
44.661,63.5210,0.003011
44.692,63.5670,0.003011
44.723,63.6135,0.003011
44.754,63.6601,0.003011
44.785,63.7070,0.003011
44.816,63.7538,-0.001176
44.847,63.7998,-0.001176
44.878,63.8455,-0.001176
44.909,63.8923,-0.001176
44.940,63.9390,-0.001176
44.971,63.9853,-0.001176
45.002,64.0316,-0.001176
45.033,64.0781,-0.001176
45.063,64.1228,-0.001176
45.094,64.1696,-0.007933
45.126,64.2176,-0.007933
45.157,64.2649,-0.007933
45.187,64.3100,-0.007933
45.219,64.3584,-0.007933
45.250,64.4040,-0.007933
45.281,64.4520,-0.007933
45.312,64.4964,-0.019395
45.342,64.5428,-0.019395
45.373,64.5872,-0.019395
45.404,64.6327,-0.019395
45.435,64.6776,-0.019395
45.466,64.7208,-0.019395
45.497,64.7652,-0.019395
45.529,64.8072,-0.019395
45.560,64.8494,-0.038432
45.591,64.8898,-0.038432
45.622,64.9297,-0.038432
45.654,64.9703,-0.038432
45.685,65.0080,-0.038432
45.715,65.0460,-0.038432
45.747,65.0829,-0.038432
45.779,65.1211,-0.038432
45.808,65.1540,-0.038432
45.838,65.1890,-0.038432
45.869,65.2221,-0.067576
45.903,65.2610,-0.067576
45.932,65.2903,-0.067576
45.963,65.3224,-0.067576
45.994,65.3529,-0.067576
46.025,65.3839,-0.067576
46.055,65.4133,-0.067576
46.087,65.4422,-0.067576
46.118,65.4712,-0.107758
46.149,65.4979,-0.107758
46.180,65.5248,-0.107758
46.210,65.5507,-0.107758
46.241,65.5755,-0.107758
46.271,65.6002,-0.107758
46.302,65.6240,-0.107758
46.333,65.6481,-0.107758
46.364,65.6702,-0.164155
46.397,65.6936,-0.164155
46.427,65.7136,-0.164155
46.458,65.7340,-0.164155
46.489,65.7542,-0.164155
46.522,65.7735,-0.164155
46.554,65.7921,-0.164155
46.583,65.8088,-0.164155
46.613,65.8249,-0.268544
46.644,65.8416,-0.268544
46.676,65.8568,-0.268544
46.708,65.8718,-0.268544
46.739,65.8856,-0.268544
46.770,65.8987,-0.268544
46.801,65.9111,-0.268544
46.831,65.9223,-0.268544
46.862,65.9333,-0.443766
46.893,65.9434,-0.443766
46.923,65.9527,-0.443766
46.955,65.9615,-0.443766
46.986,65.9696,-0.443766
47.017,65.9767,-0.443766
47.049,65.9834,-0.443766
47.079,65.9890,-0.443766
47.109,65.9940,-0.676212
47.140,65.9983,-0.676212
47.171,66.0019,-0.676212
47.202,66.0049,-0.676212
47.233,66.0071,-0.676212
47.265,66.0085,-0.676212
47.297,66.0092,-0.676212
47.327,66.0094,-0.676212
47.358,66.0094,-0.839134
47.390,66.0094,-0.839134
47.421,66.0094,-0.839134
47.452,66.0094,-0.839134
47.483,66.0094,-0.839134
47.514,66.0094,-0.839134
47.545,66.0094,-0.839134
47.577,66.0094,-0.719443
47.608,66.0094,-0.719443
47.640,66.0094,-0.719443
47.674,66.0094,-0.719443
47.703,66.0094,-0.719443
47.733,66.0094,-0.719443
47.763,66.0094,-0.719443
47.796,66.0094,-0.719443
47.825,66.0094,-0.489077
47.856,66.0094,-0.489077
47.887,66.0094,-0.489077
47.918,66.0094,-0.489077
47.949,66.0094,-0.489077
47.980,66.0094,-0.489077
48.011,66.0094,-0.489077
48.043,66.0094,-0.489077
48.074,66.0094,-0.489077
48.105,66.0094,-0.378373
48.136,66.0094,-0.378373
48.167,66.0094,-0.378373
48.198,66.0094,-0.378373
48.228,66.0094,-0.378373
48.259,66.0094,-0.378373
48.290,66.0094,-0.378373
48.321,66.0094,-0.378373
48.349,66.0094,-0.326079
48.383,66.0094,-0.326079
48.414,66.0094,-0.326079
48.445,66.0094,-0.326079
48.476,66.0094,-0.326079
48.507,66.0094,-0.326079
48.538,66.0094,-0.326079
48.569,66.0094,-0.297481
48.600,66.0094,-0.297481
48.630,66.0094,-0.297481
48.661,66.0094,-0.297481
48.692,66.0094,-0.297481
48.722,66.0094,-0.297481
48.754,66.0094,-0.297481
48.785,66.0094,-0.297481
48.816,66.0094,-0.297481
48.847,66.0094,-0.297481
48.879,66.0094,-0.278811
48.909,66.0094,-0.278811
48.940,66.0094,-0.278811
48.972,66.0094,-0.278811
49.003,66.0094,-0.278811
49.034,66.0094,-0.278811
49.065,66.0094,-0.278811
49.095,66.0094,-0.278811
49.126,66.0094,-0.265815
49.158,66.0094,-0.265815
49.189,66.0094,-0.265815
49.220,66.0094,-0.265815
49.251,66.0094,-0.265815
49.283,66.0094,-0.265815
49.314,66.0094,-0.265815
49.345,66.0094,-0.265815
49.376,66.0094,-0.256621
49.403,66.0094,-0.256621
49.437,66.0094,-0.256621
49.469,66.0094,-0.256621
49.500,66.0094,-0.256621
49.531,66.0094,-0.256621
49.563,66.0094,-0.256621
49.593,66.0094,-0.256621
49.624,66.0094,-0.250175
49.655,66.0094,-0.250175
49.687,66.0094,-0.250175
49.717,66.0094,-0.250175
49.748,66.0094,-0.250175
49.779,66.0094,-0.250175
49.810,66.0094,-0.250175
49.841,66.0094,-0.250175
49.871,66.0094,-0.244143
49.903,66.0094,-0.244143
49.934,66.0094,-0.244143
49.966,66.0094,-0.244143
49.996,66.0094,-0.244143
50.028,66.0094,-0.244143
50.059,66.0094,-0.244143
50.090,66.0094,-0.244143
50.121,66.0094,-0.239005
50.152,66.0094,-0.239005
50.184,66.0094,-0.239005
50.216,66.0094,-0.239005
50.247,66.0094,-0.239005
50.278,66.0094,-0.239005
50.309,66.0094,-0.239005
50.340,66.0094,-0.239005
50.370,66.0094,-0.235062
50.402,66.0094,-0.235062
50.433,66.0094,-0.235062
50.463,66.0094,-0.235062
50.494,66.0094,-0.235062
50.526,66.0094,-0.235062
50.556,66.0094,-0.235062
50.588,66.0094,-0.231307
50.619,66.0094,-0.231307
50.650,66.0094,-0.231307
50.681,66.0094,-0.231307
50.712,66.0094,-0.231307
50.743,66.0094,-0.231307
50.774,66.0094,-0.231307
50.806,66.0094,-0.231307
50.837,66.0094,-0.228823
50.869,66.0094,-0.228823
50.900,66.0094,-0.228823
50.931,66.0094,-0.228823
50.963,66.0094,-0.228823
50.994,66.0094,-0.228823
51.025,66.0094,-0.228823
51.056,66.0094,-0.228823
51.087,66.0094,-0.225680
51.118,66.0094,-0.225680
51.150,66.0094,-0.225680
51.181,66.0094,-0.225680
51.211,66.0094,-0.225680
51.243,66.0094,-0.225680
51.273,66.0094,-0.225680
51.303,66.0094,-0.225680
51.335,66.0094,-0.222405
51.365,66.0094,-0.222405
51.397,66.0094,-0.222405
51.426,66.0094,-0.222405
51.457,66.0094,-0.222405
51.488,66.0094,-0.222405
51.519,66.0094,-0.222405
51.550,66.0094,-0.222405
51.582,66.0094,-0.218387
51.611,66.0091,-0.218387
51.642,66.0082,-0.218387
51.675,66.0065,-0.218387
51.704,66.0043,-0.218387
51.736,66.0011,-0.218387
51.766,65.9975,-0.218387
51.797,65.9927,-0.218387
51.828,65.9877,-0.199048
51.860,65.9813,-0.199048
51.890,65.9746,-0.199048
51.921,65.9673,-0.199048
51.953,65.9590,-0.199048
51.983,65.9502,-0.199048
52.014,65.9407,-0.199048
52.045,65.9304,-0.199048
52.076,65.9194,-0.199048
52.106,65.9075,0.270492
52.137,65.8953,0.270492
52.168,65.8817,0.270492
52.200,65.8676,0.270492
52.230,65.8533,0.270492
52.261,65.8378,0.270492
52.292,65.8217,0.270492
52.323,65.8052,0.365537
52.353,65.7875,0.365537
52.384,65.7696,0.365537
52.419,65.7476,0.365537
52.446,65.7312,0.365537
52.477,65.7101,0.365537
52.508,65.6890,0.365537
52.542,65.6646,0.365537
52.570,65.6439,0.014492
52.601,65.6213,0.014492
52.632,65.5967,0.014492
52.663,65.5714,0.014492
52.693,65.5474,0.014492
52.725,65.5202,0.014492
52.755,65.4942,0.014492
52.786,65.4656,0.014492
52.817,65.4382,0.034527
52.848,65.4087,0.034527
52.878,65.3801,0.034527
52.908,65.3492,0.034527
52.942,65.3150,0.034527
52.970,65.2866,0.034527
53.001,65.2541,0.034527
53.032,65.2203,0.034527
53.065,65.1836,0.034527
53.093,65.1524,0.034527
53.124,65.1163,0.057610
53.155,65.0808,0.057610
53.186,65.0429,0.057610
53.217,65.0040,0.057610
53.249,64.9658,0.057610
53.279,64.9271,0.057610
53.313,64.8825,0.057610
53.341,64.8459,0.072140
53.372,64.8037,0.072140
53.405,64.7601,0.072140
53.434,64.7203,0.072140
53.466,64.6744,0.072140
53.496,64.6317,0.072140
53.527,64.5873,0.072140
53.557,64.5419,0.072140
53.588,64.4960,0.077410
53.619,64.4494,0.077410
53.650,64.4026,0.077410
53.681,64.3558,0.077410
53.712,64.3089,0.077410
53.743,64.2625,0.077410
53.774,64.2169,0.077410
53.805,64.1702,0.077410
53.838,64.1216,0.077410
53.868,64.0744,0.078276
53.899,64.0278,0.078276
53.930,63.9825,0.078276
53.963,63.9335,0.078276
53.994,63.8871,0.078276
54.025,63.8392,0.078276
54.056,63.7936,0.078276
54.088,63.7453,0.078276
54.119,63.6997,0.079151
54.151,63.6501,0.079151
54.181,63.6058,0.079151
54.213,63.5577,0.079151
54.243,63.5128,0.079151
54.274,63.4669,0.079151
54.304,63.4216,0.079151
54.335,63.3745,0.079151
54.366,63.3281,0.083545
54.398,63.2805,0.083545
54.428,63.2353,0.083545
54.459,63.1885,0.083545
54.490,63.1432,0.083545
54.522,63.0942,0.083545
54.553,63.0474,0.083545
54.584,63.0014,0.083545
54.614,62.9568,0.091939
54.645,62.9105,0.091939
54.676,62.8646,0.091939
54.706,62.8173,0.091939
54.737,62.7729,0.091939
54.770,62.7235,0.091939
54.799,62.6796,0.091939
54.830,62.6327,0.091939
54.860,62.5879,0.103608
54.892,62.5402,0.103608
54.922,62.4943,0.103608
54.953,62.4473,0.103608
54.984,62.4025,0.103608
55.016,62.3553,0.103608
55.046,62.3124,0.103608
55.077,62.2665,0.103608
55.107,62.2262,0.110054
55.139,62.1824,0.110054
55.170,62.1410,0.110054
55.201,62.0994,0.110054
55.232,62.0581,0.110054
55.264,62.0178,0.110054
55.295,61.9793,0.110054
55.326,61.9407,0.110054
55.357,61.9038,0.110054
55.387,61.8679,0.066381
55.418,61.8323,0.066381
55.449,61.7969,0.066381
55.479,61.7633,0.066381
55.510,61.7292,0.066381
55.541,61.6967,0.066381
55.572,61.6633,0.066381
55.604,61.6312,0.020336
55.636,61.5988,0.020336
55.666,61.5697,0.020336
55.697,61.5403,0.020336
55.728,61.5124,0.020336
55.759,61.4845,0.020336
55.790,61.4561,0.020336
55.822,61.4292,0.020336
55.853,61.4036,0.016826
55.884,61.3788,0.016826
55.915,61.3544,0.016826
55.946,61.3305,0.016826
55.976,61.3085,0.016826
56.007,61.2864,0.016826
56.038,61.2651,0.016826
56.069,61.2441,0.016826
56.100,61.2243,0.015555
56.130,61.2051,0.015555
56.162,61.1866,0.015555
56.194,61.1682,0.015555
56.224,61.1515,0.015555
56.256,61.1344,0.015555
56.287,61.1191,0.015555
56.319,61.1039,0.015555
56.349,61.0901,0.015000
56.381,61.0763,0.015000
56.411,61.0637,0.015000
56.442,61.0517,0.015000
56.473,61.0409,0.015000
56.503,61.0303,0.015000
56.535,61.0205,0.015000
56.567,61.0108,0.015000
56.598,61.0028,0.014596
56.628,60.9952,0.014596
56.660,60.9884,0.014596
56.691,60.9822,0.014596
56.721,60.9769,0.014596
56.752,60.9722,0.014596
56.783,60.9683,0.014596
56.813,60.9651,0.014596
56.844,60.9626,0.014238
56.875,60.9607,0.014238
56.906,60.9598,0.014238
56.937,60.9594,0.014238
56.967,60.9594,0.014238
57.003,60.9594,0.014238
57.029,60.9594,0.014238
57.060,60.9594,0.014238
57.091,60.9594,0.014125
57.123,60.9594,0.014125
57.153,60.9594,0.014125
57.184,60.9594,0.014125
57.214,60.9594,0.014125
57.246,60.9594,0.014125
57.277,60.9594,0.014125
57.309,60.9594,0.014125
57.340,60.9594,0.014003
57.370,60.9594,0.014003
57.401,60.9594,0.014003
57.433,60.9594,0.014003
57.463,60.9594,0.014003
57.495,60.9594,0.014003
57.526,60.9594,0.014003
57.557,60.9598,0.014003
57.588,60.9610,0.014003
57.620,60.9629,0.013909
57.651,60.9655,0.013909
57.682,60.9689,0.013909
57.713,60.9729,0.013909
57.744,60.9777,0.013909
57.774,60.9832,0.013909
57.805,60.9894,0.013909
57.837,60.9965,0.013805
57.869,61.0046,0.013805
57.899,61.0128,0.013805
57.930,61.0221,0.013805
57.961,61.0318,0.013805
57.993,61.0427,0.013805
58.024,61.0541,0.013805
58.055,61.0662,0.013805
58.086,61.0794,0.013579
58.117,61.0927,0.013579
58.148,61.1070,0.013579
58.179,61.1217,0.013579
58.210,61.1378,0.013579
58.241,61.1542,0.013579
58.272,61.1712,0.013579
58.302,61.1892,0.013579
58.333,61.2078,0.013297
58.364,61.2270,0.013297
58.397,61.2481,0.013297
58.427,61.2689,0.013297
58.459,61.2909,0.013297
58.489,61.3128,0.013297
58.525,61.3396,0.013297
58.552,61.3594,0.013297
58.583,61.3844,0.013297
58.614,61.4098,0.012826
58.645,61.4355,0.012826
58.675,61.4612,0.012826
58.706,61.4893,0.012826
58.737,61.5166,0.012826
58.768,61.5465,0.012826
58.799,61.5748,0.012826
58.829,61.6050,0.012826
58.860,61.6348,0.012281
58.892,61.6689,0.012281
58.923,61.7007,0.012281
58.955,61.7354,0.012281
58.988,61.7714,0.012281
59.018,61.8057,0.012281
59.049,61.8401,0.012281
59.080,61.8763,0.011481
59.111,61.9142,0.011481
59.143,61.9519,0.011481
59.174,61.9909,0.011481
59.205,62.0304,0.011481
59.236,62.0689,0.011481
59.266,62.1082,0.011481
59.297,62.1495,0.011481
59.328,62.1925,0.010248
59.359,62.2343,0.010248
59.390,62.2779,0.010248
59.421,62.3217,0.010248
59.451,62.3662,0.010248
59.483,62.4121,0.010248
59.514,62.4588,0.010248
59.545,62.5056,0.010248
59.576,62.5521,0.010248
59.607,62.5981,0.008620
59.638,62.6452,0.008620
59.669,62.6914,0.008620
59.700,62.7385,0.008620
59.732,62.7856,0.008620
59.762,62.8310,0.008620
59.790,62.8734,0.008620
59.823,62.9233,0.006352
59.854,62.9692,0.006352
59.885,63.0162,0.006352
59.916,63.0621,0.006352
59.946,63.1082,0.006352
59.977,63.1541,0.006352
60.008,63.2000,0.006352
60.040,63.2485,0.006352
60.071,63.2940,0.006352
60.103,63.3430,0.003557
60.133,63.3878,0.003557
60.164,63.4350,0.003557
60.196,63.4813,0.003557
60.226,63.5274,0.003557
60.258,63.5749,0.003557
60.288,63.6210,0.003557
60.320,63.6681,0.003557
60.351,63.7156,-0.000499
60.383,63.7627,-0.000499
60.414,63.8089,-0.000499
60.444,63.8542,-0.000499
60.476,63.9013,-0.000499
60.506,63.9487,-0.000499
60.538,63.9946,-0.000499
60.569,64.0421,-0.006907
60.599,64.0868,-0.006907
60.630,64.1340,-0.006907
60.661,64.1795,-0.006907
60.692,64.2271,-0.006907
60.723,64.2729,-0.006907
60.754,64.3202,-0.006907
60.785,64.3657,-0.006907
60.816,64.4136,-0.017692
60.847,64.4588,-0.017692
60.880,64.5083,-0.017692
60.907,64.5476,-0.017692
60.940,64.5964,-0.017692
60.972,64.6416,-0.017692
61.003,64.6847,-0.017692
61.034,64.7280,-0.017692
61.065,64.7694,-0.035816
61.096,64.8109,-0.035816
61.127,64.8520,-0.035816
61.158,64.8908,-0.035816
61.189,64.9292,-0.035816
61.220,64.9686,-0.035816
61.250,65.0059,-0.035816
61.281,65.0416,-0.035816
61.311,65.0765,-0.035816
61.343,65.1127,-0.063642
61.374,65.1480,-0.063642
61.406,65.1824,-0.063642
61.437,65.2165,-0.063642
61.468,65.2491,-0.063642
61.499,65.2809,-0.063642
61.530,65.3122,-0.063642
61.562,65.3427,-0.063642
61.594,65.3737,-0.102554
61.625,65.4024,-0.102554
61.657,65.4314,-0.102554
61.688,65.4593,-0.102554
61.720,65.4862,-0.102554
61.751,65.5122,-0.102554
61.782,65.5373,-0.102554
61.812,65.5613,-0.102554
61.844,65.5855,-0.156344
61.873,65.6073,-0.156344
61.904,65.6290,-0.156344
61.936,65.6514,-0.156344
61.966,65.6718,-0.156344
61.997,65.6920,-0.156344
62.028,65.7110,-0.156344
62.059,65.7298,-0.156344
62.090,65.7471,-0.252528
62.120,65.7645,-0.252528
62.151,65.7807,-0.252528
62.182,65.7965,-0.252528
62.212,65.8108,-0.252528
62.243,65.8253,-0.252528
62.274,65.8391,-0.252528
62.305,65.8516,-0.252528
62.336,65.8638,-0.252528
62.367,65.8753,-0.418348
62.398,65.8861,-0.418348
62.429,65.8959,-0.418348
62.460,65.9052,-0.418348
62.491,65.9136,-0.418348
62.522,65.9214,-0.418348
62.553,65.9285,-0.418348
62.584,65.9351,-0.418348
62.615,65.9405,-0.646983
62.646,65.9454,-0.646983
62.678,65.9496,-0.646983
62.710,65.9532,-0.646983
62.740,65.9558,-0.646983
62.772,65.9578,-0.646983
62.804,65.9589,-0.646983
62.835,65.9594,-0.646983
62.866,65.9594,-0.831577
62.897,65.9594,-0.831577
62.928,65.9594,-0.831577
62.960,65.9594,-0.831577
62.991,65.9594,-0.831577
63.022,65.9594,-0.831577
63.053,65.9594,-0.831577
63.084,65.9594,-0.831577
63.115,65.9594,-0.736551
63.147,65.9594,-0.736551
63.178,65.9594,-0.736551
63.209,65.9594,-0.736551
63.239,65.9594,-0.736551
63.270,65.9594,-0.736551
63.301,65.9594,-0.736551
63.333,65.9594,-0.736551
63.364,65.9594,-0.498995
63.395,65.9594,-0.498995
63.427,65.9594,-0.498995
63.457,65.9594,-0.498995
63.488,65.9594,-0.498995
63.519,65.9594,-0.498995
63.550,65.9594,-0.498995
63.581,65.9594,-0.378109
63.612,65.9594,-0.378109
63.643,65.9594,-0.378109
63.673,65.9594,-0.378109
63.706,65.9594,-0.378109
63.734,65.9594,-0.378109
63.766,65.9594,-0.378109
63.798,65.9594,-0.378109
63.828,65.9594,-0.378109
63.860,65.9594,-0.324781
63.892,65.9594,-0.324781
63.922,65.9594,-0.324781
63.953,65.9594,-0.324781
63.984,65.9594,-0.324781
64.014,65.9594,-0.324781
64.045,65.9594,-0.324781
64.079,65.9594,-0.324781
64.106,65.9594,-0.324781
64.137,65.9594,-0.295458
64.168,65.9594,-0.295458
64.201,65.9594,-0.295458
64.230,65.9594,-0.295458
64.261,65.9594,-0.295458
64.292,65.9594,-0.295458
64.323,65.9594,-0.295458
64.353,65.9594,-0.277268
64.384,65.9594,-0.277268
64.414,65.9594,-0.277268
64.451,65.9594,-0.277268
64.477,65.9594,-0.277268
64.508,65.9594,-0.277268
64.539,65.9594,-0.277268
64.570,65.9594,-0.277268
64.601,65.9594,-0.264545
64.633,65.9594,-0.264545
64.664,65.9594,-0.264545
64.694,65.9594,-0.264545
64.725,65.9594,-0.264545
64.756,65.9594,-0.264545
64.788,65.9594,-0.264545
64.819,65.9594,-0.264545
64.850,65.9594,-0.254843
64.881,65.9594,-0.254843
64.912,65.9594,-0.254843
64.943,65.9594,-0.254843
64.973,65.9594,-0.254843
65.006,65.9594,-0.254843
65.036,65.9594,-0.254843
65.067,65.9594,-0.254843
65.099,65.9594,-0.247851
65.130,65.9594,-0.247851
65.161,65.9594,-0.247851
65.192,65.9594,-0.247851
65.224,65.9594,-0.247851
65.255,65.9594,-0.247851
65.286,65.9594,-0.247851
65.317,65.9594,-0.247851
65.348,65.9594,-0.241894
65.379,65.9594,-0.241894
65.410,65.9594,-0.241894
65.441,65.9594,-0.241894
65.472,65.9594,-0.241894
65.504,65.9594,-0.241894
65.535,65.9594,-0.241894
65.566,65.9594,-0.241894
65.601,65.9594,-0.237001
65.628,65.9594,-0.237001
65.659,65.9594,-0.237001
65.690,65.9594,-0.237001
65.724,65.9594,-0.237001
65.752,65.9594,-0.237001
65.783,65.9594,-0.237001
65.814,65.9594,-0.237001
65.845,65.9594,-0.233867
65.876,65.9594,-0.233867
65.907,65.9594,-0.233867
65.938,65.9594,-0.233867
65.969,65.9594,-0.233867
66.000,65.9594,-0.233867
66.031,65.9594,-0.233867
66.062,65.9594,-0.233867
66.092,65.9594,-0.231044
66.124,65.9594,-0.231044
66.155,65.9594,-0.231044
66.186,65.9594,-0.231044
66.217,65.9594,-0.231044
66.247,65.9594,-0.231044
66.278,65.9594,-0.231044
66.310,65.9594,-0.227101
66.342,65.9594,-0.227101
66.373,65.9594,-0.227101
66.404,65.9594,-0.227101
66.435,65.9594,-0.227101
66.466,65.9594,-0.227101
66.498,65.9594,-0.227101
66.528,65.9594,-0.227101
66.559,65.9594,-0.227101
66.590,65.9594,-0.224626
66.621,65.9594,-0.224626
66.653,65.9594,-0.224626
66.684,65.9594,-0.224626
66.715,65.9594,-0.224626
66.746,65.9594,-0.224626
66.777,65.9594,-0.224626
66.808,65.9594,-0.224626
66.838,65.9594,-0.221633
66.870,65.9594,-0.221633
66.901,65.9594,-0.221633
66.932,65.9594,-0.221633
66.964,65.9594,-0.221633
66.994,65.9594,-0.221633
67.025,65.9594,-0.221633
67.056,65.9594,-0.221633
67.087,65.9594,-0.217220
67.118,65.9594,-0.217220
67.150,65.9593,-0.217220
67.179,65.9585,-0.217220
67.210,65.9570,-0.217220
67.242,65.9548,-0.217220
67.273,65.9517,-0.217220
67.305,65.9479,-0.217220
67.337,65.9434,-0.210821
67.367,65.9384,-0.210821
67.399,65.9323,-0.210821
67.429,65.9259,-0.210821
67.459,65.9187,-0.210821
67.491,65.9105,-0.210821
67.522,65.9017,-0.210821
67.553,65.8923,-0.210821
67.584,65.8819,-0.210821
67.616,65.8707,0.320885
67.647,65.8586,0.320885
67.678,65.8463,0.320885
67.713,65.8311,0.320885
67.739,65.8199,0.320885
67.770,65.8052,0.320885
67.801,65.7898,0.320885
67.832,65.7736,0.320885
67.863,65.7571,0.320885
67.894,65.7394,0.429208
67.924,65.7216,0.429208
67.955,65.7029,0.429208
67.985,65.6833,0.429208
68.016,65.6627,0.429208
68.048,65.6418,0.429208
68.081,65.6186,0.429208
68.111,65.5964,0.013861
68.142,65.5728,0.013861
68.173,65.5485,0.013861
68.205,65.5232,0.013861
68.236,65.4973,0.013861
68.267,65.4714,0.013861
68.298,65.4451,0.013861
68.328,65.4178,0.013861
68.359,65.3886,0.030132
68.396,65.3537,0.030132
68.436,65.3147,0.030132
68.467,65.2851,0.030132
68.498,65.2527,0.030132
68.528,65.2212,0.030132
68.559,65.1875,0.030132
68.591,65.1536,0.054016
68.622,65.1178,0.054016
68.654,65.0827,0.054016
68.687,65.0441,0.054016
68.716,65.0100,0.054016
68.748,64.9709,0.054016
68.778,64.9342,0.054016
68.808,64.8950,0.054016
68.840,64.8541,0.070249
68.871,64.8146,0.070249
68.902,64.7732,0.070249
68.933,64.7316,0.070249
68.964,64.6885,0.070249
68.995,64.6456,0.070249
69.026,64.6008,0.070249
69.058,64.5551,0.070249
69.088,64.5115,0.076666
69.118,64.4654,0.076666
69.149,64.4199,0.076666
69.180,64.3734,0.076666
69.210,64.3282,0.076666
69.241,64.2818,0.076666
69.271,64.2366,0.076666
69.302,64.1893,0.076666
69.333,64.1445,0.078276
69.363,64.0970,0.078276
69.394,64.0513,0.078276
69.425,64.0042,0.078276
69.456,63.9596,0.078276
69.487,63.9121,0.078276
69.518,63.8664,0.078276
69.549,63.8196,0.078276
69.579,63.7742,0.078276
69.611,63.7263,0.078661
69.642,63.6806,0.078661
69.673,63.6323,0.078661
69.704,63.5872,0.078661
69.735,63.5402,0.078661
69.767,63.4934,0.078661
69.797,63.4469,0.078661
69.828,63.4018,0.082331
69.859,63.3546,0.082331
69.891,63.3071,0.082331
69.921,63.2618,0.082331
69.952,63.2147,0.082331
69.983,63.1684,0.082331
70.013,63.1231,0.082331
70.044,63.0766,0.082331
70.075,63.0303,0.090311
70.106,62.9828,0.090311
70.137,62.9373,0.090311
70.169,62.8901,0.090311
70.199,62.8448,0.090311
70.230,62.7974,0.090311
70.261,62.7521,0.090311
70.293,62.7038,0.090311
70.323,62.6578,0.101726
70.355,62.6104,0.101726
70.385,62.5652,0.101726
70.418,62.5165,0.101726
70.447,62.4725,0.101726
70.478,62.4250,0.101726
70.509,62.3802,0.101726
70.539,62.3349,0.101726
70.570,62.2897,0.111297
70.601,62.2460,0.111297
70.631,62.2022,0.111297
70.668,62.1512,0.111297
70.694,62.1155,0.111297
70.725,62.0755,0.111297
70.757,62.0323,0.111297
70.787,61.9941,0.111297
70.818,61.9542,0.111297
70.849,61.9165,0.070183
70.880,61.8776,0.070183
70.912,61.8402,0.070183
70.946,61.7994,0.070183
70.973,61.7688,0.070183
71.005,61.7327,0.070183
71.036,61.6986,0.070183
71.070,61.6617,0.070183
71.098,61.6313,0.070183
71.129,61.5996,0.022237
71.160,61.5692,0.022237
71.190,61.5387,0.022237
71.221,61.5083,0.022237
71.253,61.4792,0.022237
71.284,61.4500,0.022237
71.316,61.4222,0.017136
71.346,61.3957,0.017136
71.378,61.3693,0.017136
71.411,61.3420,0.017136
71.439,61.3192,0.017136
71.472,61.2944,0.017136
71.501,61.2712,0.017136
71.537,61.2456,0.017136
71.564,61.2270,0.015847
71.595,61.2059,0.015847
71.626,61.1856,0.015847
71.656,61.1656,0.015847
71.688,61.1468,0.015847
71.718,61.1284,0.015847
71.749,61.1117,0.015847
71.780,61.0947,0.015847
71.810,61.0793,0.015847
71.840,61.0641,0.015179
71.870,61.0503,0.015179
71.901,61.0362,0.015179
71.932,61.0229,0.015179
71.963,61.0102,0.015179
71.995,60.9986,0.015179
72.026,60.9874,0.015179
72.056,60.9776,0.015179
72.087,60.9678,0.015179
72.118,60.9590,0.014737
72.149,60.9508,0.014737
72.180,60.9433,0.014737
72.212,60.9366,0.014737
72.243,60.9306,0.014737
72.275,60.9254,0.014737
72.305,60.9209,0.014737
72.336,60.9171,0.014737
72.367,60.9142,0.014737
72.398,60.9119,0.014388
72.429,60.9104,0.014388
72.460,60.9095,0.014388
72.491,60.9094,0.014388
72.523,60.9094,0.014388
72.553,60.9094,0.014388
72.584,60.9094,0.014388
72.614,60.9094,0.014106
72.645,60.9099,0.014106
72.677,60.9110,0.014106
72.708,60.9130,0.014106
72.739,60.9155,0.014106
72.769,60.9188,0.014106
72.800,60.9229,0.014106
72.831,60.9276,0.014106
72.862,60.9333,0.013974
72.893,60.9393,0.013974
72.924,60.9462,0.013974
72.955,60.9542,0.013974
72.986,60.9624,0.013974
73.018,60.9718,0.013974
73.049,60.9817,0.013974
73.080,60.9926,0.013974
73.111,61.0038,0.013749
73.142,61.0158,0.013749
73.173,61.0286,0.013749
73.204,61.0424,0.013749
73.235,61.0564,0.013749
73.265,61.0710,0.013749
73.295,61.0861,0.013749
73.326,61.1030,0.013749
73.356,61.1195,0.013466
73.393,61.1413,0.013466
73.419,61.1565,0.013466
73.450,61.1759,0.013466
73.482,61.1958,0.013466
73.512,61.2166,0.013466
73.543,61.2382,0.013466
73.578,61.2629,0.013466
73.606,61.2837,0.013080
73.637,61.3075,0.013080
73.668,61.3317,0.013080
73.699,61.3569,0.013080
73.731,61.3835,0.013080
73.762,61.4101,0.013080
73.793,61.4376,0.013080
73.824,61.4664,0.012553
73.855,61.4947,0.012553
73.885,61.5237,0.012553
73.917,61.5547,0.012553
73.948,61.5853,0.012553
73.979,61.6172,0.012553
74.010,61.6494,0.012553
74.041,61.6832,0.012553
74.072,61.7174,0.012553
74.103,61.7515,0.011885
74.135,61.7882,0.011885
74.166,61.8244,0.011885
74.197,61.8610,0.011885
74.228,61.8982,0.011885
74.259,61.9369,0.011885
74.290,61.9756,0.011885
74.321,62.0161,0.011885
74.352,62.0565,0.010831
74.382,62.0961,0.010831
74.413,62.1385,0.010831
74.443,62.1799,0.010831
74.474,62.2237,0.010831
74.505,62.2670,0.010831
74.537,62.3127,0.010831
74.571,62.3625,0.010831
74.597,62.4021,0.009345
74.629,62.4500,0.009345
74.659,62.4945,0.009345
74.690,62.5417,0.009345
74.721,62.5881,0.009345
74.752,62.6348,0.009345
74.783,62.6800,0.009345
74.814,62.7275,0.009345
74.844,62.7725,0.007321
74.879,62.8259,0.007321
74.906,62.8655,0.007321
74.939,62.9161,0.007321
74.969,62.9594,0.007321
75.000,63.0051,0.007321
75.031,63.0531,0.007321
75.067,63.1070,0.007321
75.107,63.1661,0.007321
75.138,63.2135,0.004780
75.168,63.2579,0.004780
75.199,63.3055,0.004780
75.230,63.3509,0.004780
75.266,63.4051,0.004780
75.292,63.4441,0.004780
75.325,63.4927,0.004780
75.355,63.5378,0.001223
75.385,63.5843,0.001223
75.416,63.6297,0.001223
75.447,63.6762,0.001223
75.478,63.7245,0.001223
75.509,63.7686,0.001223
75.540,63.8163,0.001223
75.571,63.8625,0.001223
75.603,63.9095,-0.004244
75.634,63.9574,-0.004244
75.665,64.0034,-0.004244
75.696,64.0508,-0.004244
75.729,64.1004,-0.004244
75.757,64.1431,-0.004244
75.792,64.1939,-0.004244
75.820,64.2367,-0.004244
75.855,64.2883,-0.012996
75.883,64.3308,-0.012996
75.914,64.3762,-0.012996
75.946,64.4251,-0.012996
75.976,64.4697,-0.012996
76.008,64.5162,-0.012996
76.038,64.5599,-0.012996
76.070,64.6048,-0.028156
76.101,64.6486,-0.028156
76.131,64.6904,-0.028156
76.162,64.7312,-0.028156
76.193,64.7724,-0.028156
76.225,64.8155,-0.028156
76.256,64.8537,-0.028156
76.286,64.8910,-0.028156
76.317,64.9300,-0.028156
76.348,64.9666,-0.052265
76.379,65.0035,-0.052265
76.410,65.0391,-0.052265
76.442,65.0760,-0.052265
76.473,65.1106,-0.052265
76.504,65.1433,-0.052265
76.535,65.1779,-0.052265
76.565,65.2089,-0.052265
76.599,65.2431,-0.086952
76.627,65.2712,-0.086952
76.661,65.3042,-0.086952
76.690,65.3307,-0.086952
76.721,65.3595,-0.086952
76.752,65.3873,-0.086952
76.782,65.4139,-0.086952
76.814,65.4408,-0.086952
76.845,65.4665,-0.134042
76.876,65.4921,-0.134042
76.908,65.5166,-0.134042
76.940,65.5409,-0.134042
76.971,65.5637,-0.134042
77.002,65.5856,-0.134042
77.032,65.6070,-0.134042
77.063,65.6272,-0.209880
77.094,65.6473,-0.209880
77.125,65.6662,-0.209880
77.156,65.6849,-0.209880
77.188,65.7029,-0.209880
77.218,65.7193,-0.209880
77.249,65.7358,-0.209880
77.280,65.7513,-0.209880
77.310,65.7655,-0.209880
77.342,65.7799,-0.349586
77.372,65.7932,-0.349586
77.403,65.8058,-0.349586
77.435,65.8181,-0.349586
77.467,65.8293,-0.349586
77.498,65.8398,-0.349586
77.529,65.8494,-0.349586
77.560,65.8583,-0.349586
77.590,65.8667,-0.556380
77.621,65.8739,-0.556380
77.653,65.8809,-0.556380
77.683,65.8868,-0.556380
77.714,65.8922,-0.556380
77.745,65.8969,-0.556380
77.776,65.9007,-0.556380
77.807,65.9038,-0.556380
77.838,65.9063,-0.777552
77.869,65.9080,-0.777552
77.900,65.9090,-0.777552
77.931,65.9093,-0.777552
77.962,65.9093,-0.777552
77.993,65.9093,-0.777552
78.024,65.9093,-0.777552
78.056,65.9093,-0.777552
78.086,65.9093,-0.781589
78.118,65.9093,-0.781589
78.149,65.9093,-0.781589
78.180,65.9093,-0.781589
78.211,65.9093,-0.781589
78.242,65.9093,-0.781589
78.274,65.9093,-0.781589
78.305,65.9093,-0.781589
78.336,65.9093,-0.781589
78.366,65.9093,-0.563437
78.397,65.9093,-0.563437
78.429,65.9093,-0.563437
78.460,65.9093,-0.563437
78.491,65.9093,-0.563437
78.522,65.9093,-0.563437
78.552,65.9093,-0.563437
78.583,65.9093,-0.563437
78.614,65.9093,-0.400901
78.645,65.9093,-0.400901
78.676,65.9093,-0.400901
78.708,65.9093,-0.400901
78.739,65.9093,-0.400901
78.770,65.9093,-0.400901
78.801,65.9093,-0.400901
78.832,65.9093,-0.400901
78.864,65.9093,-0.333683
78.894,65.9093,-0.333683
78.925,65.9093,-0.333683
78.956,65.9093,-0.333683
78.988,65.9093,-0.333683
79.018,65.9093,-0.333683
79.051,65.9093,-0.333683
79.080,65.9093,-0.333683
79.110,65.9093,-0.299476
79.141,65.9093,-0.299476
79.173,65.9093,-0.299476
79.203,65.9093,-0.299476
79.234,65.9093,-0.299476
79.266,65.9093,-0.299476
79.297,65.9093,-0.299476
79.326,65.9093,-0.279159
79.358,65.9093,-0.279159
79.389,65.9093,-0.279159
79.420,65.9093,-0.279159
79.451,65.9093,-0.279159
79.482,65.9093,-0.279159
79.512,65.9093,-0.279159
79.543,65.9093,-0.279159
79.574,65.9093,-0.265279
79.605,65.9093,-0.265279
79.636,65.9093,-0.265279
79.670,65.9093,-0.265279
79.697,65.9093,-0.265279
79.729,65.9093,-0.265279
79.759,65.9093,-0.265279
79.790,65.9093,-0.265279
79.821,65.9093,-0.255294
79.858,65.9093,-0.255294
79.899,65.9093,-0.255294
79.929,65.9093,-0.255294
79.960,65.9093,-0.255294
79.991,65.9093,-0.255294
80.022,65.9093,-0.255294
80.053,65.9093,-0.255294
80.083,65.9093,-0.255294
80.114,65.9093,-0.247371
80.145,65.9093,-0.247371
80.176,65.9093,-0.247371
80.206,65.9093,-0.247371
80.237,65.9093,-0.247371
80.268,65.9093,-0.247371
80.300,65.9093,-0.247371
80.330,65.9093,-0.247371
80.361,65.9093,-0.241574
80.392,65.9093,-0.241574
80.423,65.9093,-0.241574
80.455,65.9093,-0.241574
80.485,65.9093,-0.241574
80.516,65.9093,-0.241574
80.546,65.9093,-0.241574
80.580,65.9093,-0.236803
80.608,65.9093,-0.236803
80.639,65.9093,-0.236803
80.669,65.9093,-0.236803
80.701,65.9093,-0.236803
80.733,65.9093,-0.236803
80.766,65.9093,-0.236803
80.795,65.9093,-0.236803
80.832,65.9093,-0.231326
80.858,65.9093,-0.231326
80.888,65.9093,-0.231326
80.919,65.9093,-0.231326
80.950,65.9093,-0.231326
80.981,65.9093,-0.231326
81.012,65.9093,-0.231326
81.043,65.9093,-0.231326
81.074,65.9093,-0.228032
81.105,65.9093,-0.228032
81.136,65.9093,-0.228032
81.167,65.9093,-0.228032
81.198,65.9093,-0.228032
81.228,65.9093,-0.228032
81.259,65.9093,-0.228032
81.290,65.9093,-0.228032
81.321,65.9093,-0.228032
81.351,65.9093,-0.225360
81.382,65.9093,-0.225360
81.414,65.9093,-0.225360
81.445,65.9093,-0.225360
81.477,65.9093,-0.225360
81.507,65.9093,-0.225360
81.538,65.9093,-0.225360
81.569,65.9093,-0.225360
81.600,65.9093,-0.221323
81.631,65.9093,-0.221323
81.662,65.9093,-0.221323
81.694,65.9093,-0.221323
81.725,65.9093,-0.221323
81.756,65.9093,-0.221323
81.788,65.9093,-0.221323
81.818,65.9093,-0.221323
81.850,65.9093,-0.219789
81.881,65.9093,-0.219789
81.912,65.9093,-0.219789
81.943,65.9093,-0.219789
81.974,65.9093,-0.219789
82.005,65.9093,-0.219789
82.036,65.9093,-0.219789
82.067,65.9093,-0.219789
82.098,65.9093,-0.219789
82.129,65.9093,-0.216307
82.161,65.9093,-0.216307
82.191,65.9092,-0.216307
82.223,65.9083,-0.216307
82.253,65.9068,-0.216307
82.284,65.9047,-0.216307
82.315,65.9017,-0.216307
82.346,65.8980,-0.210623
82.377,65.8935,-0.210623
82.408,65.8883,-0.210623
82.440,65.8822,-0.210623
82.471,65.8758,-0.210623
82.501,65.8684,-0.210623
82.532,65.8604,-0.210623
82.563,65.8515,-0.210623
82.594,65.8422,0.222744
82.625,65.8318,0.222744
82.656,65.8209,0.222744
82.688,65.8089,0.222744
82.719,65.7967,0.222744
82.749,65.7836,0.222744
82.780,65.7698,0.222744
82.811,65.7555,0.222744
82.841,65.7404,0.335593
82.873,65.7237,0.335593
82.903,65.7075,0.335593
82.935,65.6891,0.335593
82.967,65.6707,0.335593
82.999,65.6511,0.335593
83.029,65.6317,0.335593
83.060,65.6113,0.335593
83.091,65.5909,0.015132
83.126,65.5650,0.015132
83.153,65.5458,0.015132
83.184,65.5222,0.015132
83.215,65.4978,0.015132
83.246,65.4736,0.015132
83.277,65.4484,0.015132
83.308,65.4214,0.015132
83.340,65.3941,0.026029
83.371,65.3661,0.026029
83.402,65.3379,0.026029
83.433,65.3080,0.026029
83.464,65.2779,0.026029
83.495,65.2477,0.026029
83.527,65.2159,0.026029
83.558,65.1831,0.026029
83.589,65.1505,0.050157
83.620,65.1160,0.050157
83.651,65.0824,0.050157
83.682,65.0468,0.050157
83.713,65.0115,0.050157
83.745,64.9748,0.050157
83.776,64.9377,0.050157
83.806,64.8996,0.050157
83.837,64.8608,0.067990
83.867,64.8228,0.067990
83.898,64.7822,0.067990
83.929,64.7430,0.067990
83.960,64.6996,0.067990
83.992,64.6566,0.067990
84.024,64.6122,0.067990
84.055,64.5675,0.067990
84.086,64.5239,0.076092
84.118,64.4771,0.076092
84.147,64.4345,0.076092
84.179,64.3876,0.076092
84.209,64.3411,0.076092
84.241,64.2931,0.076092
84.271,64.2487,0.076092
84.303,64.2015,0.076092
84.333,64.1557,0.078219
84.371,64.0994,0.078219
84.410,64.0393,0.078219
84.441,63.9921,0.078219
84.474,63.9428,0.078219
84.503,63.9000,0.078219
84.534,63.8536,0.078219
84.565,63.8067,0.078219
84.596,63.7611,0.078304
84.627,63.7154,0.078304
84.658,63.6678,0.078304
84.688,63.6223,0.078304
84.719,63.5757,0.078304
84.751,63.5289,0.078304
84.780,63.4845,0.078304
84.811,63.4385,0.078304
84.843,63.3904,0.081052
84.873,63.3455,0.081052
84.904,63.2980,0.081052
84.935,63.2531,0.081052
84.967,63.2041,0.081052
84.996,63.1608,0.081052
85.028,63.1138,0.081052
85.059,63.0660,0.081052
85.089,63.0214,0.088081
85.119,62.9766,0.088081
85.150,62.9297,0.088081
85.181,62.8834,0.088081
85.212,62.8367,0.088081
85.242,62.7923,0.088081
85.274,62.7440,0.088081
85.304,62.6984,0.088081
85.336,62.6507,0.088081
85.366,62.6068,0.088081
85.397,62.5592,0.098273
85.428,62.5136,0.098273
85.459,62.4656,0.098273
85.490,62.4201,0.098273
85.521,62.3726,0.098273
85.552,62.3266,0.098273
85.584,62.2799,0.098273
85.614,62.2362,0.108812
85.645,62.1909,0.108812
85.676,62.1473,0.108812
85.707,62.1055,0.108812
85.738,62.0634,0.108812
85.768,62.0226,0.108812
85.800,61.9801,0.108812
85.831,61.9410,0.108812
85.861,61.9018,0.072629
85.893,61.8634,0.072629
85.924,61.8247,0.072629
85.955,61.7882,0.072629
85.986,61.7511,0.072629
86.017,61.7160,0.072629
86.048,61.6812,0.072629
86.078,61.6472,0.072629
86.110,61.6135,0.025220
86.141,61.5800,0.025220
86.172,61.5482,0.025220
86.204,61.5169,0.025220
86.234,61.4866,0.025220
86.271,61.4509,0.025220
86.311,61.4136,0.025220
86.342,61.3854,0.017484
86.373,61.3581,0.017484
86.404,61.3317,0.017484
86.434,61.3065,0.017484
86.466,61.2806,0.017484
86.498,61.2562,0.017484
86.529,61.2324,0.017484
86.559,61.2099,0.017484
86.590,61.1868,0.016026
86.622,61.1653,0.016026
86.653,61.1443,0.016026
86.684,61.1247,0.016026
86.715,61.1056,0.016026
86.749,61.0850,0.016026
86.777,61.0689,0.016026
86.809,61.0510,0.016026
86.841,61.0345,0.015311
86.872,61.0190,0.015311
86.904,61.0034,0.015311
86.938,60.9880,0.015311
86.965,60.9760,0.015311
86.997,60.9633,0.015311
87.027,60.9516,0.015311
87.058,60.9405,0.015311
87.092,60.9291,0.015311
87.120,60.9204,0.014765
87.152,60.9109,0.014765
87.182,60.9029,0.014765
87.214,60.8951,0.014765
87.244,60.8884,0.014765
87.275,60.8824,0.014765
87.307,60.8767,0.014765
87.337,60.8722,0.014436
87.368,60.8681,0.014436
87.399,60.8650,0.014436
87.430,60.8624,0.014436
87.461,60.8607,0.014436
87.492,60.8597,0.014436
87.524,60.8593,0.014436
87.554,60.8593,0.014436
87.586,60.8593,0.014436
87.616,60.8593,0.014106
87.651,60.8593,0.014106
87.678,60.8593,0.014106
87.709,60.8593,0.014106
87.740,60.8593,0.014106
87.771,60.8593,0.014106
87.802,60.8593,0.014106
87.833,60.8593,0.014106
87.864,60.8593,0.014031
87.890,60.8593,0.014031
87.927,60.8593,0.014031
87.959,60.8593,0.014031
87.990,60.8593,0.014031
88.021,60.8593,0.014031
88.047,60.8593,0.014031
88.083,60.8593,0.014087
88.113,60.8593,0.014087
88.145,60.8594,0.014087
88.174,60.8602,0.014087
88.207,60.8618,0.014087
88.238,60.8640,0.014087
88.270,60.8671,0.014087
88.301,60.8707,0.014087
88.332,60.8753,0.013937
88.363,60.8804,0.013937
88.395,60.8865,0.013937
88.425,60.8929,0.013937
88.456,60.9003,0.013937
88.487,60.9083,0.013937
88.518,60.9172,0.013937
88.549,60.9266,0.013937
88.580,60.9371,0.013937
88.612,60.9481,0.013767
88.643,60.9599,0.013767
88.673,60.9722,0.013767
88.704,60.9855,0.013767
88.736,60.9997,0.013767
88.767,61.0148,0.013767
88.798,61.0297,0.013767
88.829,61.0462,0.013767
88.860,61.0627,0.013410
88.891,61.0804,0.013410
88.922,61.0983,0.013410
88.953,61.1180,0.013410
88.984,61.1372,0.013410
89.015,61.1583,0.013410
89.046,61.1788,0.013410
89.077,61.2007,0.013410
89.108,61.2231,0.013071
89.139,61.2471,0.013071
89.169,61.2708,0.013071
89.200,61.2949,0.013071
89.231,61.3213,0.013071
89.262,61.3468,0.013071
89.293,61.3742,0.013071
89.327,61.4046,0.013071
89.355,61.4308,0.012619
89.388,61.4609,0.012619
89.418,61.4907,0.012619
89.449,61.5213,0.012619
89.480,61.5520,0.012619
89.511,61.5838,0.012619
89.542,61.6170,0.012619
89.573,61.6513,0.012619
89.604,61.6862,0.011942
89.636,61.7205,0.011942
89.663,61.7528,0.011942
89.698,61.7931,0.011942
89.729,61.8310,0.011942
89.761,61.8692,0.011942
89.793,61.9110,0.011942
89.822,61.9457,0.010897
89.856,61.9908,0.010897
89.884,62.0272,0.010897
89.917,62.0727,0.010897
89.945,62.1106,0.010897
89.976,62.1527,0.010897
90.007,62.1978,0.010897
90.041,62.2458,0.010897
90.069,62.2863,0.010897
90.100,62.3324,0.009439
90.131,62.3785,0.009439
90.166,62.4310,0.009439
90.194,62.4742,0.009439
90.225,62.5203,0.009439
90.256,62.5659,0.009439
90.289,62.6162,0.009439
90.318,62.6595,0.009439
90.349,62.7058,0.007566
90.380,62.7531,0.007566
90.414,62.8044,0.007566
90.442,62.8453,0.007566
90.473,62.8928,0.007566
90.504,62.9384,0.007566
90.535,62.9863,0.007566
90.566,63.0322,0.007566
90.598,63.0806,0.005035
90.628,63.1250,0.005035
90.659,63.1717,0.005035
90.689,63.2164,0.005035
90.720,63.2635,0.005035
90.751,63.3096,0.005035
90.782,63.3551,0.005035
90.812,63.4010,0.005035
90.843,63.4467,0.001553
90.875,63.4947,0.001553
90.904,63.5391,0.001553
90.935,63.5859,0.001553
90.966,63.6330,0.001553
90.997,63.6788,0.001553
91.028,63.7250,0.001553
91.064,63.7810,0.001553
91.090,63.8174,-0.003708
91.121,63.8643,-0.003708
91.151,63.9098,-0.003708
91.187,63.9637,-0.003708
91.214,64.0035,-0.003708
91.245,64.0505,-0.003708
91.276,64.0973,-0.003708
91.307,64.1431,-0.003708
91.339,64.1903,-0.003708
91.371,64.2398,-0.012252
91.401,64.2836,-0.012252
91.432,64.3301,-0.012252
91.463,64.3776,-0.012252
91.494,64.4234,-0.012252
91.526,64.4701,-0.012252
91.557,64.5143,-0.012252
91.588,64.5584,-0.026895
91.619,64.6010,-0.026895
91.650,64.6451,-0.026895
91.682,64.6862,-0.026895
91.712,64.7276,-0.026895
91.744,64.7675,-0.026895
91.774,64.8071,-0.026895
91.805,64.8466,-0.026895
91.836,64.8837,-0.026895
91.867,64.9216,-0.050496
91.898,64.9572,-0.050496
91.930,64.9944,-0.050496
91.960,65.0285,-0.050496
91.991,65.0632,-0.050496
92.022,65.0969,-0.050496
92.053,65.1302,-0.050496
92.085,65.1629,-0.084618
92.117,65.1952,-0.084618
92.148,65.2258,-0.084618
92.179,65.2568,-0.084618
92.210,65.2844,-0.084618
92.241,65.3130,-0.084618
92.272,65.3410,-0.084618
92.302,65.3674,-0.084618
92.333,65.3947,-0.084618
92.366,65.4206,-0.130786
92.396,65.4453,-0.130786
92.426,65.4685,-0.130786
92.458,65.4927,-0.130786
92.488,65.5148,-0.130786
92.519,65.5376,-0.130786
92.551,65.5589,-0.130786
92.582,65.5795,-0.203989
92.613,65.5991,-0.203989
92.646,65.6192,-0.203989
92.677,65.6375,-0.203989
92.707,65.6553,-0.203989
92.737,65.6710,-0.203989
92.768,65.6876,-0.203989
92.800,65.7036,-0.203989
92.830,65.7178,-0.203989
92.862,65.7320,-0.338275
92.892,65.7448,-0.338275
92.924,65.7576,-0.338275
92.954,65.7695,-0.338275
92.986,65.7807,-0.338275
93.016,65.7906,-0.338275
93.046,65.7999,-0.338275
93.078,65.8092,-0.338275
93.109,65.8175,-0.541530
93.140,65.8249,-0.541530
93.172,65.8316,-0.541530
93.204,65.8378,-0.541530
93.234,65.8429,-0.541530
93.266,65.8475,-0.541530
93.296,65.8512,-0.541530
93.327,65.8543,-0.768678
93.358,65.8567,-0.768678
93.389,65.8583,-0.768678
93.419,65.8590,-0.768678
93.451,65.8593,-0.768678
93.482,65.8593,-0.768678
93.514,65.8593,-0.768678
93.545,65.8593,-0.768678
