Elapsed Time (s),Position (mm),Force (N)
-0.016,56.6000,-0.027794
0.001,56.6000,-0.024169
0.015,56.6000,-0.020544
0.031,56.6000,-0.025377
0.046,56.6000,-0.018127
0.063,56.6000,-0.029003
0.079,56.6000,-0.029003
0.094,56.6000,-0.027794
0.110,56.6000,-0.020544
0.126,56.6000,-0.021752
0.142,56.6000,-0.019335
0.159,56.6000,-0.021752
0.175,56.6000,-0.016918
0.192,56.6000,-0.015710
0.206,56.6000,-0.030211
0.225,56.6000,-0.024169
0.239,56.6000,-0.019335
0.255,56.6000,-0.019335
0.271,56.6000,-0.016918
0.286,56.6000,-0.025377
0.303,56.6000,-0.025377
0.320,56.6000,-0.020544
0.337,56.6000,-0.020544
0.350,56.6000,-0.015710
0.366,56.6000,-0.018127
0.382,56.6000,-0.018127
0.398,56.6000,-0.026586
0.414,56.6000,-0.020544
0.430,56.6000,-0.016918
0.446,56.6000,-0.015710
0.462,56.6000,-0.019335
0.479,56.6000,-0.015710
0.495,56.6000,-0.016918
0.510,56.6000,-0.021752
0.526,56.6000,-0.018127
0.543,56.6000,-0.016918
0.559,56.6000,-0.014501
0.574,56.6000,-0.013293
0.590,56.6000,-0.014501
0.607,56.6000,-0.021752
0.622,56.6000,-0.021752
0.639,56.6000,-0.019335
0.654,56.6000,-0.019335
0.670,56.6000,-0.014501
0.687,56.6000,-0.010876
0.702,56.6000,-0.016918
0.718,56.6000,-0.013293
0.735,56.6000,-0.013293
0.752,56.6000,-0.021752
0.769,56.6000,-0.021752
0.782,56.6000,-0.019335
0.799,56.6000,-0.015710
0.815,56.6000,-0.012084
0.830,56.6000,-0.012084
0.848,56.6000,-0.014501
0.863,56.6000,-0.014501
0.878,56.6000,-0.014501
0.896,56.6000,-0.012084
0.912,56.6000,-0.014501
0.927,56.6000,-0.018127
0.942,56.6000,-0.015710
0.960,56.6000,-0.014501
0.974,56.6000,-0.013293
0.991,56.6000,-0.013293
1.006,56.6000,-0.014501
1.022,56.6000,-0.014501
1.038,56.6000,-0.012084
1.054,56.6000,-0.012084
1.072,56.6000,-0.012084
1.087,56.6000,-0.018127
1.102,56.6000,-0.019335
1.130,56.6000,-0.014501
1.145,56.6000,-0.013293
1.162,56.6000,-0.015710
1.177,56.6000,-0.014501
1.194,56.6000,-0.014501
1.209,56.6000,-0.018127
1.225,56.6000,-0.021752
1.241,56.6000,-0.012084
1.258,56.6000,-0.016918
1.273,56.6000,-0.013293
1.290,56.6000,-0.010876
1.305,56.6000,-0.018127
1.323,56.6000,-0.018127
1.337,56.6000,-0.018127
1.353,56.6000,-0.016918
1.369,56.6000,-0.013293
1.385,56.6000,-0.009668
1.402,56.6000,-0.012084
1.417,56.6000,-0.015710
1.433,56.6000,-0.010876
1.451,56.6000,-0.016918
1.465,56.6000,-0.016918
1.482,56.6000,-0.009668
1.497,56.6000,-0.015710
1.513,56.6000,-0.016918
1.529,56.6000,-0.013293
1.546,56.6000,-0.014501
1.561,56.6000,-0.020544
1.577,56.6000,-0.013293
1.593,56.6000,-0.014501
1.610,56.6000,-0.014501
1.625,56.6000,-0.019335
1.642,56.6000,-0.022961
1.672,56.6000,-0.019335
1.687,56.6000,-0.018127
1.703,56.6000,-0.007251
1.720,56.6000,-0.007251
1.735,56.6000,-0.012084
1.751,56.6000,-0.009668
1.768,56.6000,-0.015710
1.783,56.6000,-0.014501
1.801,56.6000,-0.019335
1.815,56.6000,-0.015710
1.831,56.6000,-0.013293
1.847,56.6000,-0.012084
1.864,56.6000,-0.012084
1.879,56.6000,-0.018127
1.895,56.6000,-0.013293
1.913,56.6000,-0.013293
1.927,56.6000,-0.013293
1.943,56.6000,-0.012084
1.960,56.6000,-0.015710
1.975,56.6000,-0.010876
1.991,56.6000,-0.018127
2.007,56.6000,-0.016918
2.028,56.6000,-0.014501
2.039,56.6000,-0.014501
2.055,56.6000,-0.012084
2.071,56.6000,-0.001208
2.087,56.6000,-0.009668
2.104,56.6000,-0.016918
2.119,56.6000,-0.016918
2.135,56.6000,-0.014501
2.152,56.6000,-0.014501
2.167,56.6000,-0.018127
2.183,56.6000,-0.008459
2.213,56.6000,-0.016918
2.229,56.6000,-0.014501
2.245,56.6000,-0.010876
2.261,56.6000,-0.009668
2.278,56.6000,-0.010876
2.293,56.6000,-0.007251
2.309,56.6000,-0.014501
2.325,56.6000,-0.014501
2.341,56.6000,-0.014501
2.357,56.6000,-0.020544
2.374,56.6000,-0.020544
2.389,56.6000,-0.009668
2.405,56.6000,-0.012084
2.421,56.6000,-0.009668
2.437,56.6000,-0.012084
2.453,56.6000,-0.016918
2.469,56.6000,-0.012084
2.484,56.6000,-0.012084
2.500,56.6000,-0.014501
2.519,56.6000,-0.003625
2.533,56.6000,-0.008459
2.548,56.6000,-0.013293
2.564,56.6000,-0.012084
2.581,56.6000,-0.008459
2.597,56.6000,-0.012084
2.612,56.6000,-0.012084
2.628,56.6000,-0.010876
2.648,56.6000,-0.010876
2.660,56.6000,-0.015710
2.677,56.6000,-0.015710
2.693,56.6000,-0.015710
2.709,56.6000,-0.018127
2.725,56.6000,-0.018127
2.742,56.6000,-0.012084
2.770,56.6000,-0.007251
2.785,56.6000,-0.019335
2.801,56.6000,-0.016918
2.817,56.6000,-0.013293
2.833,56.6000,-0.013293
2.849,56.6000,-0.013293
2.865,56.6000,-0.007251
2.880,56.6000,-0.012084
2.899,56.6000,-0.018127
2.913,56.6000,-0.018127
2.928,56.6000,-0.014501
2.945,56.6000,-0.016918
2.961,56.6000,-0.008459
2.976,56.6000,-0.013293
2.992,56.6000,-0.013293
3.008,56.6000,-0.018127
3.024,56.6000,-0.018127
3.040,56.6000,-0.018127
3.058,56.6000,-0.016918
3.072,56.6000,-0.010876
3.089,56.6000,-0.009668
3.104,56.6000,-0.012084
3.123,56.6000,-0.012084
3.136,56.6000,-0.016918
3.152,56.6000,-0.018127
3.168,56.6000,-0.014501
3.185,56.6000,-0.010876
3.200,56.6000,-0.013293
3.216,56.6000,-0.009668
3.232,56.6000,-0.010876
3.251,56.6000,-0.014501
3.266,56.6000,-0.014501
3.281,56.6000,-0.014501
3.296,56.6000,-0.008459
3.327,56.6000,-0.009668
3.342,56.6000,-0.008459
3.358,56.6000,-0.014501
3.374,56.6000,-0.012084
3.392,56.6000,-0.012084
3.407,56.6000,-0.008459
3.425,56.6000,-0.010876
3.439,56.6000,-0.009668
3.455,56.6000,-0.010876
3.470,56.6000,-0.014501
3.486,56.6000,-0.013293
3.503,56.6000,-0.013293
3.518,56.6000,-0.009668
3.534,56.6000,-0.009668
3.550,56.6000,-0.015710
3.566,56.6000,-0.014501
3.582,56.6000,-0.016918
3.598,56.6000,-0.016918
3.615,56.6000,-0.015710
3.631,56.6000,-0.009668
3.647,56.6000,-0.009668
3.662,56.6000,-0.009668
3.681,56.6000,-0.014501
3.694,56.6000,-0.015710
3.710,56.6000,-0.010876
3.726,56.6000,-0.009668
3.742,56.6000,-0.012084
3.758,56.6000,-0.013293
3.774,56.6000,-0.008459
3.790,56.6000,-0.012084
3.806,56.6000,-0.016918
3.822,56.6000,-0.014501
3.838,56.6000,-0.012084
3.870,56.6000,-0.007251
3.889,56.6000,-0.008459
3.902,56.6000,-0.010876
3.918,56.6000,-0.013293
3.934,56.6000,-0.013293
3.952,56.6000,-0.008459
3.967,56.6000,-0.016918
3.981,56.6000,-0.016918
3.998,56.6000,-0.009668
4.015,56.6000,-0.016918
4.030,56.6000,-0.019335
4.046,56.6000,-0.018127
4.063,56.6000,-0.018127
4.078,56.6000,-0.010876
4.094,56.6000,-0.010876
4.112,56.6000,-0.008459
4.126,56.6000,-0.012084
4.142,56.6000,-0.009668
4.158,56.6000,-0.015710
4.174,56.6000,-0.018127
4.190,56.6000,-0.008459
4.206,56.6000,-0.004834
4.222,56.6000,-0.010876
4.238,56.6000,-0.012084
4.254,56.6000,-0.007251
4.270,56.6000,-0.006042
4.286,56.6000,-0.019335
4.302,56.6000,-0.015710
4.318,56.6000,-0.009668
4.334,56.6000,-0.009668
4.350,56.6000,-0.014501
4.366,56.6000,-0.012084
4.381,56.6000,-0.015710
4.398,56.6000,-0.013293
4.421,56.6000,-0.013293
4.437,56.6000,-0.013293
4.454,56.6000,-0.013293
4.471,56.6000,-0.003625
4.485,56.6000,-0.014501
4.500,56.6000,-0.018127
4.516,56.6000,-0.015710
4.533,56.6000,-0.003625
4.550,56.6000,-0.001208
4.564,56.6000,-0.009668
4.580,56.6000,-0.013293
4.596,56.6000,-0.007251
4.614,56.6000,-0.007251
4.629,56.6000,-0.013293
4.644,56.6000,-0.010876
4.661,56.6000,-0.007251
4.678,56.6000,-0.009668
4.693,56.6000,-0.012084
4.708,56.6000,-0.015710
4.724,56.6000,-0.009668
4.742,56.6000,-0.012084
4.756,56.6000,-0.012084
4.773,56.6000,-0.007251
4.789,56.6000,-0.010876
4.804,56.6000,-0.008459
4.820,56.6000,-0.010876
4.838,56.6000,-0.022961
4.852,56.6000,-0.020544
4.868,56.6000,-0.009668
4.884,56.6000,-0.013293
4.902,56.6000,-0.007251
4.917,56.6000,-0.007251
4.934,56.6000,-0.013293
4.948,56.6000,-0.009668
4.964,56.6000,-0.008459
4.980,56.6000,-0.006042
4.996,56.6000,-0.008459
5.012,56.6000,-0.004834
5.029,56.6000,-0.014501
5.045,56.6000,-0.007251
5.061,56.6000,-0.010876
5.076,56.6000,-0.013293
5.092,56.6000,-0.009668
5.109,56.6000,-0.013293
5.126,56.6000,-0.013293
5.140,56.6000,-0.014501
5.156,56.6000,-0.012084
5.172,56.6000,-0.012084
5.188,56.6000,-0.013293
5.204,56.6000,-0.013293
5.220,56.6000,-0.012084
5.236,56.6000,-0.013293
5.252,56.6000,-0.013293
5.269,56.6000,-0.008459
5.284,56.6000,-0.014501
5.300,56.6000,-0.014501
5.316,56.6000,-0.012084
5.333,56.6000,-0.008459
5.349,56.6000,-0.012084
5.364,56.6000,-0.012084
5.380,56.6000,-0.008459
5.399,56.6000,-0.014501
5.412,56.6000,-0.015710
5.428,56.6000,-0.010876
5.444,56.6000,-0.008459
5.463,56.6000,-0.007251
5.476,56.6000,-0.015710
5.493,56.6000,-0.016918
5.520,56.6000,-0.009668
5.536,56.6000,-0.012084
5.552,56.6000,-0.014501
5.568,56.6000,-0.008459
5.585,56.6000,-0.009668
5.600,56.6000,-0.009668
5.619,56.6000,-0.013293
5.632,56.6000,-0.009668
5.648,56.6000,-0.008459
5.664,56.6000,-0.008459
5.680,56.6000,-0.002417
5.696,56.6000,-0.013293
5.712,56.6000,-0.012084
5.728,56.6000,-0.014501
5.744,56.6000,-0.013293
5.763,56.6000,-0.013293
5.776,56.6000,-0.013293
5.792,56.6000,-0.013293
5.808,56.6000,-0.012084
5.825,56.6000,-0.010876
5.840,56.6000,-0.013293
5.857,56.6000,-0.013293
5.872,56.6000,-0.014501
5.889,56.6000,-0.013293
5.904,56.6000,-0.008459
5.920,56.6000,-0.013293
5.936,56.6000,-0.014501
5.953,56.6000,-0.014501
5.968,56.6000,-0.010876
5.985,56.6000,-0.013293
6.000,56.6000,-0.007251
6.016,56.6000,-0.010876
6.032,56.6000,-0.010876
6.048,56.6000,-0.010876
6.072,56.6000,-0.013293
6.087,56.6000,-0.014501
6.103,56.6000,-0.010876
6.119,56.6000,-0.016918
6.137,56.6000,-0.012084
6.151,56.6000,-0.009668
6.167,56.6000,-0.009668
6.183,56.6000,-0.014501
6.205,56.6000,-0.014501
6.222,56.6000,-0.015710
6.238,56.6000,-0.010876
6.254,56.6000,-0.015710
6.269,56.6000,-0.015710
6.285,56.6000,-0.007251
6.301,56.6000,-0.006042
6.312,56.6000,-0.013293
6.327,56.6000,-0.008459
6.344,56.6000,-0.008459
6.359,56.6000,-0.007251
6.375,56.6000,-0.007251
6.391,56.6000,-0.012084
6.407,56.6000,-0.010876
6.424,56.6000,-0.010876
6.440,56.6000,-0.019335
6.455,56.6000,-0.006042
6.471,56.6000,-0.003625
6.489,56.6000,-0.007251
6.503,56.6000,-0.012084
6.519,56.6000,-0.016918
6.535,56.6000,-0.008459
6.552,56.6000,-0.008459
6.567,56.6000,-0.009668
6.583,56.6000,-0.009668
6.613,56.6000,-0.012084
6.628,56.6000,-0.009668
6.645,56.6000,-0.015710
6.660,56.6000,-0.010876
6.677,56.6000,-0.018127
6.692,56.6000,-0.018127
6.708,56.6000,-0.016918
6.726,56.6000,-0.010876
6.742,56.6000,-0.014501
6.757,56.6000,-0.014501
6.772,56.6000,-0.008459
6.788,56.6000,-0.009668
6.805,56.6000,-0.009668
6.821,56.6000,-0.007251
6.837,56.6000,-0.007251
6.853,56.6000,-0.010876
6.869,56.6000,-0.012084
6.884,56.6000,-0.012084
6.901,56.6000,-0.008459
6.917,56.6000,-0.006042
6.933,56.6000,-0.007251
6.948,56.6000,-0.009668
6.965,56.6000,-0.009668
6.981,56.6000,-0.013293
6.997,56.6000,-0.008459
7.012,56.6000,-0.009668
7.029,56.6000,-0.008459
7.045,56.6000,-0.010876
7.060,56.6000,-0.012084
7.077,56.6000,-0.012084
7.097,56.6000,-0.012084
7.109,56.6000,-0.010876
7.124,56.6000,-0.008459
7.142,56.6000,-0.007251
7.166,56.6000,-0.008459
7.182,56.6000,-0.012084
7.198,56.6000,-0.012084
7.214,56.6000,-0.012084
7.231,56.6000,-0.014501
7.247,56.6000,-0.009668
7.262,56.6000,-0.010876
7.279,56.6000,-0.007251
7.295,56.6000,-0.013293
7.311,56.6000,-0.008459
7.327,56.6000,-0.013293
7.342,56.6000,-0.007251
7.360,56.6000,-0.014501
7.375,56.6000,-0.012084
7.393,56.6000,-0.013293
7.406,56.6000,-0.009668
7.423,56.6000,-0.009668
7.439,56.6000,-0.006042
7.455,56.6000,-0.006042
7.470,56.6000,-0.009668
7.486,56.6000,-0.010876
7.502,56.6000,-0.010876
7.518,56.6000,-0.012084
7.535,56.6000,-0.012084
7.551,56.6000,-0.014501
7.567,56.6000,-0.007251
7.582,56.6000,-0.010876
7.599,56.6000,-0.013293
7.614,56.6000,-0.010876
7.630,56.6000,-0.004834
7.647,56.6000,-0.009668
7.662,56.6000,-0.012084
7.678,56.6000,-0.013293
7.694,56.6000,-0.014501
7.711,56.6000,-0.009668
7.726,56.6000,-0.009668
7.743,56.6000,-0.012084
7.758,56.6000,-0.012084
7.774,56.6000,-0.010876
7.790,56.6000,-0.014501
7.806,56.6000,-0.008459
7.823,56.6000,-0.008459
7.838,56.6000,-0.006042
7.854,56.6000,-0.006042
7.870,56.6000,-0.013293
7.886,56.6000,-0.010876
7.902,56.6000,-0.008459
7.919,56.6000,-0.012084
7.934,56.6000,-0.012084
7.950,56.6000,-0.009668
7.966,56.6000,-0.007251
7.982,56.6000,-0.016918
8.001,56.6000,-0.014501
8.014,56.6000,-0.014501
8.030,56.6000,-0.008459
8.046,56.6000,-0.009668
8.062,56.6000,-0.012084
8.078,56.6000,-0.012084
8.094,56.6000,-0.012084
8.110,56.6000,-0.008459
8.127,56.6000,-0.012084
8.142,56.6000,-0.012084
8.158,56.6000,-0.008459
8.174,56.6000,-0.015710
8.191,56.6000,-0.014501
8.206,56.6000,-0.007251
8.222,56.6000,-0.014501
8.252,56.6000,-0.014501
8.268,56.6000,-0.004834
8.284,56.6000,-0.004834
8.300,56.6000,-0.010876
8.317,56.6000,-0.007251
8.332,56.6000,-0.014501
8.350,56.6000,-0.013293
8.364,56.6000,-0.013293
8.380,56.6000,-0.010876
8.396,56.6000,-0.004834
8.411,56.6000,-0.004834
8.428,56.6000,-0.009668
8.444,56.6000,-0.008459
8.460,56.6000,-0.012084
8.476,56.6000,-0.012084
8.497,56.6000,-0.009668
8.508,56.6000,-0.006042
8.524,56.6000,-0.013293
8.541,56.6000,-0.006042
8.557,56.6000,-0.014501
8.573,56.6000,-0.012084
8.588,56.6000,-0.008459
8.604,56.6000,-0.015710
8.622,56.6000,-0.007251
8.636,56.6000,-0.013293
8.652,56.6000,-0.010876
8.667,56.6000,-0.012084
8.688,56.6000,-0.010876
8.700,56.6000,-0.014501
8.716,56.6000,-0.009668
8.732,56.6000,-0.009668
8.748,56.6000,-0.009668
8.764,56.6000,-0.002417
8.780,56.6000,-0.014501
8.803,56.6000,-0.013293
8.818,56.6000,-0.010876
8.835,56.6000,-0.004834
8.850,56.6000,-0.014501
8.867,56.6000,-0.013293
8.883,56.6000,-0.009668
8.898,56.6000,-0.009668
8.915,56.6000,-0.012084
8.931,56.6000,-0.012084
8.946,56.6000,-0.007251
8.963,56.6000,-0.010876
8.979,56.6000,-0.013293
8.995,56.6000,-0.013293
9.011,56.6000,-0.013293
9.026,56.6000,-0.010876
9.043,56.6000,-0.012084
9.060,56.6000,-0.013293
9.075,56.6000,-0.013293
9.091,56.6000,-0.002417
9.106,56.6000,-0.012084
9.123,56.6000,-0.013293
9.139,56.6000,-0.009668
9.155,56.6000,-0.010876
9.172,56.6000,-0.013293
9.186,56.6000,-0.013293
9.202,56.6000,-0.008459
9.232,56.6000,-0.012084
9.250,56.6000,-0.009668
9.266,56.6000,-0.012084
9.282,56.6000,-0.012084
9.299,56.6000,-0.015710
9.314,56.6000,-0.008459
9.346,56.6000,-0.009668
9.362,56.6000,-0.013293
9.377,56.6000,-0.008459
9.394,56.6000,-0.008459
9.409,56.6000,-0.007251
9.425,56.6000,-0.009668
9.442,56.6000,-0.008459
9.457,56.6000,-0.015710
9.474,56.6000,-0.015710
9.490,56.6000,-0.006042
9.505,56.6000,-0.006042
9.521,56.6000,-0.008459
9.537,56.6000,-0.008459
9.553,56.6000,-0.007251
9.569,56.6000,-0.010876
9.585,56.6000,-0.012084
9.601,56.6000,-0.010876
9.618,56.6000,-0.012084
9.634,56.6000,-0.012084
9.649,56.6000,-0.010876
9.665,56.6000,-0.010876
9.681,56.6000,-0.013293
9.700,56.6000,-0.010876
9.713,56.6000,-0.010876
9.729,56.6000,-0.012084
9.745,56.6000,-0.010876
9.762,56.6000,-0.010876
9.777,56.6000,-0.006042
9.793,56.6000,-0.013293
9.809,56.6000,-0.007251
9.825,56.6000,-0.012084
9.841,56.6000,-0.008459
9.858,56.6000,-0.008459
9.887,56.6000,-0.007251
9.902,56.6000,-0.012084
9.919,56.6000,-0.013293
9.934,56.6000,-0.010876
9.950,56.6000,-0.012084
9.967,56.6000,-0.010876
9.982,56.6000,-0.010876
9.998,56.6000,-0.007251
10.015,56.6000,-0.007251
10.030,56.6000,-0.007251
10.047,56.6000,-0.010876
10.063,56.6000,-0.016918
10.080,56.6000,-0.003625
10.094,56.6000,-0.003625
10.112,56.6000,-0.003625
10.126,56.6000,-0.010876
10.142,56.6000,-0.010876
10.158,56.6000,-0.010876
10.174,56.6000,-0.010876
10.190,56.6000,-0.008459
10.206,56.6000,-0.010876
10.222,56.6000,-0.010876
10.238,56.6000,-0.008459
10.260,56.6000,-0.007251
10.270,56.6000,-0.008459
10.286,56.6000,-0.010876
10.303,56.6000,-0.007251
10.319,56.6000,-0.012084
10.335,56.6000,-0.002417
10.352,56.6000,-0.008459
10.366,56.6000,-0.012084
10.383,56.6000,-0.009668
10.398,56.6000,-0.010876
10.414,56.6000,-0.010876
10.443,56.6000,-0.007251
10.459,56.6000,-0.006042
10.475,56.6000,-0.009668
10.491,56.6000,-0.008459
10.507,56.6000,-0.015710
10.524,56.6000,-0.015710
10.539,56.6000,-0.010876
10.555,56.6000,-0.006042
10.571,56.6000,-0.010876
10.587,56.6000,-0.009668
10.604,56.6000,-0.014501
10.619,56.6000,-0.009668
10.635,56.6000,-0.009668
10.651,56.6000,-0.010876
10.667,56.6000,-0.012084
10.690,56.6000,-0.010876
10.713,56.6000,-0.013293
10.731,56.6000,-0.002417
10.747,56.6000,0.000000
10.763,56.6000,-0.006042
10.779,56.6000,-0.006042
10.795,56.6000,-0.013293
10.814,56.6000,-0.013293
10.827,56.6000,-0.012084
10.843,56.6000,-0.012084
10.859,56.6000,-0.007251
10.877,56.6000,-0.007251
10.891,56.6000,-0.007251
10.907,56.6000,-0.009668
10.923,56.6000,-0.012084
10.939,56.6000,-0.010876
10.955,56.6000,-0.009668
10.970,56.6000,-0.012084
10.993,56.6000,-0.012084
11.009,56.6000,-0.009668
11.025,56.6000,-0.009668
11.041,56.6000,-0.013293
11.057,56.6000,-0.015710
11.073,56.6000,-0.010876
11.089,56.6000,-0.009668
11.105,56.6000,-0.003625
11.123,56.6000,-0.010876
11.137,56.6000,-0.008459
11.154,56.6000,-0.010876
11.170,56.5590,-0.012084
11.185,56.3441,0.169183
11.201,56.0704,0.080966
11.217,55.7950,0.076132
11.234,55.5061,0.076132
11.249,55.2425,0.107552
11.266,54.9637,0.129304
11.280,54.7172,0.161932
11.298,54.4231,0.212687
11.313,54.1664,0.212687
11.329,53.8893,0.192143
11.345,53.6122,0.192143
11.360,53.3555,0.003625
11.377,53.0802,-0.002417
11.393,52.8149,-0.002417
11.411,52.4953,-0.008459
11.425,52.2641,-0.001208
11.440,51.9972,-0.002417
11.456,51.7270,0.004834
11.472,51.4464,0.000000
11.489,51.1744,0.009668
11.506,50.8566,0.000000
11.529,50.5606,0.000000
11.545,50.5500,-0.015710
11.561,50.5500,-0.015710
11.577,50.5500,-0.001208
11.594,50.5500,-0.001208
11.609,50.5500,0.003625
11.626,50.5500,0.001208
11.642,50.5500,0.001208
11.658,50.5500,-0.009668
11.674,50.5500,-0.009668
11.690,50.5500,-0.002417
11.706,50.5500,0.002417
11.721,50.5500,-0.001208
11.737,50.5500,0.000000
11.753,50.5500,-0.006042
11.769,50.5500,0.002417
11.785,50.5500,0.002417
11.802,50.5500,-0.004834
11.819,50.5500,-0.001208
11.833,50.5500,-0.001208
11.850,50.5755,-0.004834
11.866,50.7973,-0.171600
11.882,51.0676,-0.108760
11.897,51.3311,-0.004834
11.913,51.6167,-0.004834
11.929,51.8768,-0.012084
11.945,52.1505,0.008459
11.963,52.4429,0.008459
11.978,52.7116,0.006042
11.994,52.9717,-0.010876
12.009,53.2351,-0.001208
12.025,53.5139,-0.007251
12.042,53.7843,0.007251
12.057,54.0800,0.002417
12.079,54.4251,0.004834
12.095,54.6955,-0.003625
12.111,54.9692,-0.010876
12.127,55.2412,-0.014501
12.144,55.5233,-0.014501
12.159,55.7834,-0.013293
12.175,56.0571,-0.013293
12.191,56.3275,-0.027794
12.207,56.5343,-0.032628
12.223,56.5500,0.085800
12.239,56.5500,-0.042296
12.257,56.5500,-0.044713
12.271,56.5500,-0.050755
12.287,56.5500,-0.043504
12.303,56.5500,-0.038670
12.320,56.5500,-0.026586
12.335,56.5500,-0.037462
12.351,56.5500,-0.031420
12.367,56.5500,-0.032628
12.384,56.5500,-0.031420
12.399,56.5500,-0.025377
12.415,56.5500,-0.027794
12.433,56.5500,-0.024169
12.447,56.5500,-0.031420
12.463,56.5500,-0.022961
12.479,56.5500,-0.025377
12.495,56.5500,-0.026586
12.512,56.5500,-0.026586
12.527,56.5500,-0.018127
12.546,56.5500,-0.027794
12.559,56.5500,-0.022961
12.575,56.5500,-0.024169
12.591,56.5500,-0.018127
12.614,56.5500,-0.019335
12.629,56.5500,-0.019335
12.645,56.5500,-0.020544
12.661,56.5500,-0.026586
12.677,56.5500,-0.025377
12.693,56.5500,-0.021752
12.709,56.5500,-0.022961
12.725,56.5500,-0.019335
12.744,56.5500,-0.016918
12.757,56.5500,-0.018127
12.773,56.5500,-0.021752
12.789,56.5500,-0.020544
12.808,56.5500,-0.027794
12.822,56.5500,-0.018127
12.838,56.5500,-0.018127
12.853,56.5500,-0.016918
12.869,56.5500,-0.026586
12.886,56.5500,-0.024169
12.901,56.5500,-0.018127
12.918,56.5500,-0.021752
12.933,56.5500,-0.021752
12.950,56.5500,-0.016918
12.965,56.5500,-0.016918
12.981,56.5500,-0.016918
12.997,56.5500,-0.015710
13.013,56.5500,-0.022961
13.033,56.5500,-0.022961
13.045,56.5500,-0.015710
13.061,56.5500,-0.015710
13.077,56.5500,-0.018127
13.093,56.5500,-0.019335
13.109,56.5500,-0.018127
13.125,56.5500,-0.021752
13.141,56.5500,-0.019335
13.163,56.5500,-0.018127
13.179,56.5500,-0.018127
13.195,56.5500,-0.018127
13.211,56.5500,-0.018127
13.227,56.5500,-0.022961
13.243,56.5500,-0.024169
13.260,56.5500,-0.021752
13.275,56.5500,-0.020544
13.291,56.5500,-0.014501
13.307,56.5500,-0.012084
13.323,56.5500,-0.014501
13.339,56.5500,-0.019335
13.355,56.5500,-0.015710
13.371,56.5500,-0.014501
13.387,56.5500,-0.016918
13.403,56.5500,-0.015710
13.419,56.5500,-0.016918
13.436,56.5500,-0.013293
13.451,56.5500,-0.015710
13.467,56.5500,-0.013293
13.487,56.5500,-0.013293
13.499,56.5500,-0.009668
13.514,56.5500,-0.016918
13.533,56.5500,-0.012084
13.547,56.5500,-0.012084
13.563,56.5500,-0.012084
13.578,56.5500,-0.013293
13.594,56.5500,-0.016918
13.612,56.5500,-0.016918
13.626,56.5500,-0.016918
13.642,56.5500,-0.015710
13.659,56.5500,-0.008459
13.674,56.5500,-0.012084
13.691,56.5500,-0.015710
13.706,56.5500,-0.015710
13.729,56.5500,-0.013293
13.746,56.5500,-0.016918
13.762,56.5500,-0.014501
13.777,56.5500,-0.009668
13.794,56.5500,-0.018127
13.809,56.5500,-0.012084
13.825,56.5500,-0.015710
13.842,56.5500,-0.018127
13.858,56.5500,-0.015710
13.874,56.5500,-0.015710
13.890,56.5500,-0.006042
13.905,56.5500,-0.013293
13.923,56.5500,-0.019335
13.939,56.5500,-0.009668
13.954,56.5500,-0.009668
13.969,56.5500,-0.009668
13.985,56.5500,-0.013293
14.001,56.5500,-0.012084
14.017,56.5500,-0.016918
14.033,56.5500,-0.016918
14.050,56.5500,-0.019335
14.065,56.5500,-0.019335
14.083,56.5500,-0.013293
14.098,56.5500,-0.016918
14.113,56.5500,-0.013293
14.129,56.5500,-0.009668
14.148,56.5500,-0.009668
14.161,56.5500,-0.013293
14.177,56.5500,-0.012084
14.193,56.5500,-0.015710
14.211,56.5500,-0.016918
14.225,56.5500,-0.010876
14.242,56.5500,-0.012084
14.270,56.5500,-0.013293
14.290,56.5500,-0.013293
14.301,56.5500,-0.016918
14.317,56.5500,-0.018127
14.333,56.5500,-0.014501
14.349,56.5500,-0.012084
14.365,56.5500,-0.012084
14.381,56.5500,-0.012084
14.402,56.5500,-0.016918
14.413,56.5500,-0.012084
14.430,56.5500,-0.014501
14.445,56.5500,-0.014501
14.461,56.5500,-0.015710
14.478,56.5500,-0.010876
14.493,56.5500,-0.012084
14.513,56.5500,-0.021752
14.525,56.5500,-0.019335
14.543,56.5500,-0.014501
14.557,56.5500,-0.015710
14.574,56.5500,-0.014501
14.589,56.5500,-0.016918
14.605,56.5500,-0.014501
14.621,56.5500,-0.016918
14.637,56.5500,-0.016918
14.654,56.5500,-0.016918
14.669,56.5500,-0.012084
14.687,56.5500,-0.008459
14.701,56.5500,-0.018127
14.717,56.5500,-0.012084
14.733,56.5500,-0.012084
14.749,56.5500,-0.018127
14.766,56.5500,-0.015710
14.781,56.5500,-0.007251
14.797,56.5500,-0.016918
14.818,56.5500,-0.013293
14.835,56.5500,-0.015710
14.850,56.5500,-0.016918
14.866,56.5500,-0.021752
14.883,56.5500,-0.021752
14.898,56.5500,-0.016918
14.914,56.5500,-0.012084
14.930,56.5500,-0.014501
14.946,56.5500,-0.008459
14.962,56.5500,-0.012084
14.978,56.5500,-0.018127
14.994,56.5500,-0.009668
15.011,56.5500,-0.009668
15.026,56.5500,-0.007251
15.042,56.5500,-0.016918
15.060,56.5500,-0.016918
15.075,56.5500,-0.016918
15.090,56.5500,-0.014501
15.107,56.5500,-0.014501
15.122,56.5500,-0.013293
15.138,56.5500,-0.013293
15.154,56.5500,-0.018127
15.170,56.5500,-0.015710
15.186,56.5500,-0.021752
15.202,56.5500,-0.021752
15.218,56.5500,-0.015710
15.235,56.5500,-0.010876
15.250,56.5500,-0.012084
15.267,56.5500,-0.014501
15.282,56.5500,-0.014501
15.298,56.5500,-0.014501
15.314,56.5500,-0.012084
15.332,56.5500,-0.015710
15.356,56.5500,-0.009668
15.372,56.5500,-0.007251
15.388,56.5500,-0.016918
15.404,56.5500,-0.019335
15.421,56.5500,-0.015710
15.436,56.5500,-0.014501
15.452,56.5500,-0.014501
15.467,56.5500,-0.010876
15.484,56.5500,-0.016918
15.500,56.5500,-0.013293
15.516,56.5500,-0.013293
15.532,56.5500,-0.013293
15.549,56.5500,-0.015710
15.564,56.5500,-0.015710
15.580,56.5500,-0.010876
15.596,56.5500,-0.007251
15.612,56.5500,-0.013293
15.628,56.5500,-0.009668
15.652,56.5500,-0.013293
15.674,56.5500,-0.013293
15.692,56.5500,-0.009668
15.708,56.5500,-0.010876
15.724,56.5500,-0.009668
15.740,56.5500,-0.014501
15.756,56.5500,-0.015710
15.772,56.5500,-0.010876
15.788,56.5500,-0.010876
15.804,56.5500,-0.013293
15.820,56.5500,-0.010876
15.836,56.5500,-0.010876
15.852,56.5500,-0.014501
15.868,56.5500,-0.014501
15.896,56.5500,-0.014501
15.913,56.5500,-0.007251
15.929,56.5500,-0.014501
15.944,56.5500,-0.009668
15.962,56.5500,-0.010876
15.977,56.5500,-0.013293
15.995,56.5500,-0.013293
16.009,56.5500,-0.014501
16.024,56.5500,-0.014501
16.041,56.5500,-0.006042
16.057,56.5500,-0.012084
16.073,56.5500,-0.014501
16.090,56.5500,-0.018127
16.105,56.5500,-0.020544
16.121,56.5500,-0.013293
16.137,56.5500,-0.013293
16.153,56.5500,-0.013293
16.168,56.5500,-0.010876
16.185,56.5500,-0.007251
16.200,56.5500,-0.013293
16.216,56.5500,-0.010876
16.232,56.5500,-0.013293
16.248,56.5500,-0.012084
16.265,56.5500,-0.012084
16.281,56.5500,-0.016918
16.297,56.5500,-0.003625
16.312,56.5500,-0.003625
16.328,56.5500,-0.013293
16.344,56.5500,-0.012084
16.363,56.5500,-0.009668
16.377,56.5500,-0.010876
16.393,56.5500,-0.013293
16.422,56.5500,-0.013293
16.438,56.5500,-0.014501
16.455,56.5500,-0.009668
16.470,56.5500,-0.010876
16.488,56.5500,-0.008459
16.503,56.5500,-0.008459
16.518,56.5500,-0.014501
16.534,56.5500,-0.015710
16.552,56.5500,-0.015710
16.566,56.5500,-0.018127
16.584,56.5500,-0.009668
16.598,56.5500,-0.006042
16.615,56.5500,-0.006042
16.630,56.5500,-0.010876
16.646,56.5500,-0.014501
16.663,56.5500,-0.014501
16.680,56.5500,-0.014501
16.694,56.5500,-0.008459
16.710,56.5500,-0.012084
16.727,56.5500,-0.009668
16.742,56.5500,-0.009668
16.760,56.5500,-0.012084
16.775,56.5500,-0.008459
16.790,56.5500,-0.014501
16.806,56.5500,-0.013293
16.822,56.5500,-0.009668
16.840,56.5500,-0.014501
16.854,56.5500,-0.006042
16.870,56.5500,-0.008459
16.886,56.5500,-0.010876
16.904,56.5500,-0.012084
16.919,56.5500,-0.015710
16.934,56.5500,-0.007251
16.950,56.5500,-0.010876
16.967,56.5500,-0.008459
16.982,56.5500,-0.008459
16.999,56.5500,-0.013293
17.014,56.5500,-0.015710
17.032,56.5500,-0.014501
17.047,56.5500,-0.012084
17.063,56.5500,-0.012084
17.078,56.5500,-0.010876
17.095,56.5500,-0.010876
17.111,56.5500,-0.018127
17.126,56.5500,-0.016918
17.143,56.5500,-0.015710
17.158,56.5500,-0.004834
17.175,56.5500,-0.004834
17.190,56.5500,-0.012084
17.207,56.5500,-0.012084
17.222,56.5500,-0.015710
17.237,56.5500,-0.016918
17.255,56.5500,-0.016918
17.272,56.5500,-0.009668
17.286,56.5500,-0.012084
17.302,56.5500,-0.004834
17.319,56.5500,-0.006042
17.335,56.5500,-0.013293
17.350,56.5500,-0.016918
17.366,56.5500,-0.015710
17.382,56.5500,-0.013293
17.398,56.5500,-0.009668
17.414,56.5500,-0.013293
17.430,56.5500,-0.013293
17.446,56.5500,-0.010876
17.462,56.5500,-0.010876
17.479,56.5500,-0.008459
17.506,56.5500,-0.010876
17.522,56.5500,-0.004834
17.538,56.5500,-0.014501
17.554,56.5500,-0.009668
17.572,56.5500,-0.009668
17.586,56.5500,-0.015710
17.602,56.5500,-0.010876
17.618,56.5500,-0.006042
17.635,56.5500,-0.006042
17.651,56.5500,-0.013293
17.669,56.5500,-0.014501
17.682,56.5500,-0.014501
17.698,56.5500,-0.014501
17.714,56.5500,-0.014501
17.730,56.5500,-0.012084
17.746,56.5500,-0.012084
17.762,56.5500,-0.012084
17.778,56.5500,-0.014501
17.794,56.5500,-0.014501
17.810,56.5500,-0.010876
17.826,56.5500,-0.009668
17.842,56.5500,-0.008459
17.857,56.5500,-0.008459
17.876,56.5500,-0.008459
17.890,56.5500,-0.009668
17.906,56.5500,-0.012084
17.922,56.5500,-0.012084
17.938,56.5500,-0.010876
17.955,56.5500,-0.014501
17.969,56.5500,-0.014501
17.985,56.5500,-0.014501
18.004,56.5500,-0.014501
18.018,56.5500,-0.012084
18.033,56.5500,-0.013293
18.062,56.5500,-0.009668
18.076,56.5500,-0.008459
18.092,56.5500,-0.010876
18.108,56.5500,-0.007251
18.125,56.5500,-0.007251
18.140,56.5500,-0.015710
18.159,56.5500,-0.014501
18.173,56.5500,-0.008459
18.189,56.5500,-0.015710
18.206,56.5500,-0.015710
18.222,56.5500,-0.008459
18.236,56.5500,-0.008459
18.253,56.5500,-0.009668
18.268,56.5500,-0.007251
18.284,56.5500,-0.007251
18.300,56.5500,-0.010876
18.316,56.5500,-0.013293
18.332,56.5500,-0.013293
18.348,56.5500,-0.013293
18.365,56.5500,-0.010876
18.380,56.5500,-0.014501
18.396,56.5500,-0.008459
18.412,56.5500,-0.007251
18.429,56.5500,-0.006042
18.445,56.5500,-0.007251
18.460,56.5500,-0.012084
18.476,56.5500,-0.013293
18.493,56.5500,-0.008459
18.509,56.5500,-0.008459
18.525,56.5500,-0.007251
18.540,56.5500,-0.008459
18.558,56.5500,-0.016918
18.572,56.5500,-0.018127
18.589,56.5500,-0.008459
18.616,56.5500,-0.007251
18.632,56.5500,-0.010876
18.649,56.5500,-0.009668
18.664,56.5500,-0.013293
18.681,56.5500,-0.007251
18.697,56.5500,-0.010876
18.713,56.5500,-0.010876
18.728,56.5500,-0.015710
18.746,56.5500,-0.014501
18.761,56.5500,-0.010876
18.777,56.5500,-0.013293
18.792,56.5500,-0.008459
18.809,56.5500,-0.015710
18.825,56.5500,-0.014501
18.841,56.5500,-0.009668
18.856,56.5500,-0.013293
18.874,56.5500,-0.009668
18.888,56.5500,-0.010876
18.904,56.5500,-0.010876
18.921,56.5500,-0.004834
18.936,56.5500,-0.012084
18.952,56.5500,-0.014501
18.969,56.5500,-0.009668
18.985,56.5500,-0.007251
19.001,56.5500,-0.006042
19.016,56.5500,-0.014501
19.033,56.5500,-0.015710
19.049,56.5500,-0.010876
19.065,56.5500,-0.010876
19.081,56.5500,-0.016918
19.097,56.5500,-0.012084
19.112,56.5500,-0.009668
19.142,56.5500,-0.007251
19.158,56.5500,-0.009668
19.175,56.5500,-0.010876
19.190,56.5500,-0.014501
19.206,56.5500,-0.007251
19.223,56.5500,-0.007251
19.238,56.5500,-0.008459
19.254,56.5500,-0.008459
19.270,56.5500,-0.013293
19.286,56.5500,-0.014501
19.305,56.5500,-0.014501
19.318,56.5500,-0.008459
19.334,56.5500,-0.008459
19.351,56.5500,-0.013293
19.367,56.5500,-0.010876
19.382,56.5500,-0.010876
19.398,56.5500,-0.012084
19.414,56.5500,-0.007251
19.430,56.5500,-0.008459
19.446,56.5500,-0.009668
19.462,56.5500,-0.009668
19.478,56.5500,-0.009668
19.494,56.5500,-0.013293
19.511,56.5500,-0.014501
19.526,56.5500,-0.009668
19.542,56.5500,-0.008459
19.558,56.5500,-0.007251
19.575,56.5500,-0.007251
19.590,56.5500,-0.012084
19.606,56.5500,-0.008459
19.622,56.5500,-0.010876
19.640,56.5500,-0.012084
19.653,56.5500,-0.009668
19.671,56.5500,-0.012084
19.686,56.5500,-0.007251
19.710,56.5500,-0.014501
19.725,56.5500,-0.015710
19.741,56.5500,-0.010876
19.757,56.5500,-0.012084
19.773,56.5500,-0.007251
19.789,56.5500,-0.012084
19.805,56.5500,-0.012084
19.821,56.5500,-0.013293
19.837,56.5500,-0.008459
19.853,56.5500,-0.010876
19.869,56.5500,-0.003625
19.885,56.5500,-0.010876
19.902,56.5500,-0.006042
19.917,56.5500,-0.014501
19.933,56.5500,-0.014501
19.949,56.5500,-0.009668
19.965,56.5500,-0.012084
19.981,56.5500,-0.009668
19.997,56.5500,-0.009668
20.013,56.5500,-0.007251
20.029,56.5500,-0.012084
20.045,56.5500,-0.012084
20.061,56.5500,-0.008459
20.085,56.5500,-0.010876
20.095,56.5500,-0.008459
20.109,56.5500,-0.012084
20.124,56.5500,-0.004834
20.141,56.5500,-0.012084
20.157,56.5500,-0.014501
20.172,56.5500,-0.014501
20.189,56.5500,-0.008459
20.205,56.5500,-0.008459
20.220,56.5500,-0.009668
20.236,56.5500,-0.008459
20.253,56.5500,-0.012084
20.274,56.5500,-0.012084
20.290,56.5500,-0.013293
20.306,56.5500,-0.013293
20.322,56.5500,-0.010876
20.339,56.5500,-0.004834
20.354,56.5500,-0.010876
20.371,56.5500,-0.018127
20.386,56.5500,-0.010876
20.403,56.5500,-0.008459
20.420,56.5500,-0.012084
20.435,56.5500,-0.010876
20.450,56.5500,-0.014501
20.467,56.5500,-0.007251
20.482,56.5500,-0.007251
20.498,56.5500,-0.009668
20.514,56.5500,-0.014501
20.531,56.5500,-0.016918
20.547,56.5500,-0.006042
20.562,56.5500,-0.008459
20.579,56.5500,-0.010876
20.595,56.5500,-0.010876
20.611,56.5500,-0.009668
20.627,56.5500,-0.018127
20.642,56.5500,-0.014501
20.659,56.5500,-0.015710
20.675,56.5500,-0.014501
20.693,56.5500,-0.007251
20.706,56.5500,-0.009668
20.723,56.5500,-0.016918
20.739,56.5500,-0.013293
20.755,56.5500,-0.013293
20.770,56.5500,-0.007251
20.786,56.5500,-0.002417
20.803,56.5500,-0.007251
20.818,56.5500,-0.013293
20.842,56.5500,-0.012084
20.858,56.5500,-0.010876
20.874,56.5500,-0.010876
20.891,56.5500,-0.012084
20.907,56.5500,-0.007251
20.923,56.5500,-0.007251
20.939,56.5500,-0.009668
20.955,56.5500,-0.004834
20.970,56.5500,-0.009668
20.986,56.5500,-0.008459
21.002,56.5500,-0.008459
21.018,56.5500,-0.010876
21.034,56.5500,-0.013293
21.050,56.5500,-0.013293
21.069,56.5500,-0.010876
21.082,56.5500,-0.007251
21.098,56.5500,-0.007251
21.114,56.5500,-0.006042
21.130,56.5500,-0.009668
21.146,56.5500,-0.010876
21.162,56.5500,-0.008459
21.178,56.5500,-0.014501
21.194,56.5500,-0.014501
21.210,56.5500,-0.018127
21.226,56.5500,-0.020544
21.242,56.5500,-0.010876
21.260,56.5500,-0.003625
21.275,56.5500,-0.003625
21.290,56.5500,-0.016918
21.306,56.5500,-0.013293
21.323,56.5500,-0.008459
21.338,56.5500,-0.013293
21.356,56.5500,-0.004834
21.380,56.5500,-0.007251
21.396,56.5500,-0.012084
21.412,56.5500,-0.007251
21.428,56.5500,-0.012084
21.444,56.5500,-0.010876
21.460,56.5500,-0.007251
21.476,56.5500,-0.007251
21.492,56.5500,-0.008459
21.508,56.5500,-0.010876
21.524,56.5500,-0.010876
21.540,56.5500,-0.009668
21.556,56.5500,-0.012084
21.572,56.5500,-0.012084
21.588,56.5500,-0.007251
21.604,56.5500,-0.009668
21.620,56.5500,-0.014501
21.637,56.5500,-0.014501
21.652,56.5500,-0.012084
21.668,56.5500,-0.018127
21.684,56.5500,-0.018127
21.700,56.5500,-0.010876
21.716,56.5500,-0.008459
21.732,56.5500,-0.012084
21.749,56.5500,-0.014501
21.764,56.5500,-0.009668
21.780,56.5500,-0.013293
21.796,56.5500,-0.010876
21.812,56.5500,-0.010876
21.828,56.5500,-0.007251
21.844,56.5500,-0.013293
21.860,56.5500,-0.004834
21.877,56.5500,-0.008459
21.892,56.5500,-0.008459
21.908,56.5500,-0.014501
21.935,56.5500,-0.009668
21.951,56.5500,-0.014501
21.967,56.5500,-0.014501
21.983,56.5500,-0.015710
21.999,56.5500,-0.004834
22.016,56.5500,-0.004834
22.034,56.5500,-0.006042
22.047,56.5500,-0.013293
22.063,56.5500,-0.013293
22.078,56.5500,-0.015710
22.094,56.5500,-0.015710
22.111,56.5500,-0.012084
22.127,56.5500,-0.012084
22.142,56.5500,-0.010876
22.158,56.5500,-0.004834
22.176,56.5500,-0.006042
22.191,56.5500,-0.008459
22.206,56.5500,-0.013293
22.223,56.5500,-0.009668
22.239,56.5500,-0.008459
22.254,56.5500,-0.008459
22.271,56.5500,-0.004834
22.286,56.5500,-0.006042
22.302,56.5500,-0.015710
22.319,56.5500,-0.013293
22.336,56.5500,-0.016918
22.352,56.5500,-0.016918
22.367,56.5500,-0.009668
22.382,56.5500,-0.007251
22.399,56.5500,-0.006042
22.415,56.5500,-0.007251
22.431,56.5500,-0.009668
22.446,56.5500,-0.014501
22.470,56.5500,-0.006042
22.485,56.5500,-0.006042
22.502,56.5500,-0.008459
22.517,56.5500,-0.010876
22.534,56.5500,-0.013293
22.550,56.5500,-0.010876
22.565,56.5500,-0.010876
22.582,56.5500,-0.010876
22.598,56.5500,-0.006042
22.614,56.5500,-0.008459
22.632,56.5500,-0.013293
22.646,56.5500,-0.010876
22.661,56.5500,-0.014501
22.677,56.5500,-0.008459
22.694,56.5500,-0.007251
22.710,56.5500,-0.014501
22.725,56.5500,-0.013293
22.741,56.5500,-0.013293
22.759,56.5500,-0.016918
22.774,56.5500,-0.014501
22.789,56.5500,-0.016918
22.806,56.5500,-0.010876
22.822,56.5500,-0.009668
22.838,56.5500,-0.015710
22.853,56.5500,-0.015710
22.869,56.5500,-0.006042
22.885,56.5500,-0.007251
22.901,56.5500,-0.012084
22.918,56.5500,-0.009668
22.933,56.5500,-0.008459
22.949,56.5500,-0.007251
22.965,56.5500,-0.007251
22.981,56.5500,-0.018127
23.004,56.5500,-0.013293
23.020,56.5500,-0.012084
23.036,56.5500,-0.007251
23.053,56.5500,-0.007251
23.068,56.5500,-0.010876
23.084,56.5500,-0.010876
23.100,56.5500,-0.013293
23.116,56.5500,-0.015710
23.133,56.5500,-0.015710
23.148,56.5500,-0.007251
23.164,56.5500,-0.004834
23.181,56.5500,-0.006042
23.196,56.5500,-0.018127
23.212,56.5500,-0.020544
23.230,56.5500,-0.012084
23.245,56.5500,-0.012084
23.261,56.5500,-0.010876
23.276,56.5500,-0.007251
23.293,56.5500,-0.009668
23.308,56.5500,-0.013293
23.324,56.5500,-0.010876
23.340,56.5500,-0.007251
23.358,56.5500,-0.007251
23.372,56.5500,-0.007251
23.388,56.5500,-0.007251
23.404,56.5500,-0.010876
23.422,56.5500,-0.010876
23.436,56.5500,-0.014501
23.453,56.5500,-0.014501
23.468,56.5500,-0.010876
23.484,56.5500,-0.010876
23.500,56.5500,-0.012084
23.519,56.5500,-0.007251
23.543,56.5500,-0.008459
23.559,56.5500,-0.006042
23.575,56.5500,-0.009668
23.591,56.5500,-0.010876
23.609,56.5500,-0.012084
23.623,56.5500,-0.009668
23.639,56.5500,-0.009668
23.655,56.5500,-0.007251
23.671,56.5500,-0.006042
23.687,56.5500,-0.013293
23.703,56.5500,-0.010876
23.719,56.4856,0.064048
23.735,56.2353,0.064048
23.751,55.9532,0.050755
23.767,55.6932,0.080966
23.783,55.4145,0.080966
23.800,55.1307,0.118428
23.815,54.8776,0.134138
23.831,54.6057,0.172808
23.847,54.3219,0.216312
23.863,54.0551,0.211478
23.879,53.7609,0.205436
23.896,53.4873,0.083383
23.912,53.2223,0.008459
23.927,52.9555,-0.001208
23.944,52.6751,0.008459
23.960,52.3964,0.004834
23.975,52.1416,0.008459
23.991,51.8697,-0.002417
24.008,51.5619,0.004834
24.023,51.3140,-0.004834
24.039,51.0507,-0.007251
24.069,50.5567,-0.036253
24.085,50.4999,-0.036253
24.101,50.4999,0.004834
24.117,50.4999,-0.004834
24.133,50.4999,-0.004834
24.149,50.4999,0.003625
24.165,50.4999,0.007251
24.182,50.4999,-0.002417
24.198,50.4999,0.003625
24.213,50.4999,0.003625
24.229,50.4999,0.009668
24.245,50.4999,0.009668
24.261,50.4999,0.009668
24.277,50.4999,0.001208
24.293,50.4999,-0.001208
24.310,50.4999,0.002417
24.326,50.4999,0.002417
24.341,50.4999,-0.004834
24.357,50.5825,-0.142597
24.373,50.8470,-0.136555
24.388,51.1070,-0.004834
24.405,51.3806,0.012084
24.421,51.6610,0.016918
24.437,51.9397,0.007251
24.454,52.2185,0.007251
24.469,52.4903,-0.003625
24.485,52.7536,-0.001208
24.500,53.0255,0.001208
24.516,53.2923,-0.004834
24.532,53.5779,-0.004834
24.549,53.8515,0.007251
24.565,54.1268,-0.001208
24.589,54.5423,-0.012084
24.606,54.8244,-0.006042
24.622,55.1015,-0.014501
24.637,55.3613,-0.012084
24.654,55.6504,-0.012084
24.670,55.9274,-0.019335
24.686,56.2010,-0.036253
24.701,56.4412,-0.036253
24.718,56.4999,0.072507
24.733,56.4999,-0.042296
24.749,56.4999,-0.053172
24.766,56.4999,-0.038670
24.782,56.4999,-0.051963
24.798,56.4999,-0.041087
24.813,56.4999,-0.033837
24.830,56.4999,-0.033837
24.845,56.4999,-0.025377
24.861,56.4999,-0.038670
24.877,56.4999,-0.036253
24.894,56.4999,-0.036253
24.910,56.4999,-0.026586
24.926,56.4999,-0.014501
24.941,56.4999,-0.025377
24.958,56.4999,-0.022961
24.974,56.4999,-0.022961
24.989,56.4999,-0.021752
25.005,56.4999,-0.024169
25.021,56.4999,-0.019335
25.037,56.4999,-0.025377
25.053,56.4999,-0.021752
25.070,56.4999,-0.020544
25.086,56.4999,-0.019335
25.103,56.4999,-0.026586
25.127,56.4999,-0.021752
25.143,56.4999,-0.018127
25.160,56.4999,-0.019335
25.175,56.4999,-0.016918
25.192,56.4999,-0.016918
25.208,56.4999,-0.015710
25.223,56.4999,-0.021752
25.239,56.4999,-0.026586
25.256,56.4999,-0.022961
25.272,56.4999,-0.021752
25.287,56.4999,-0.021752
25.303,56.4999,-0.020544
25.320,56.4999,-0.021752
25.336,56.4999,-0.020544
25.352,56.4999,-0.020544
25.367,56.4999,-0.021752
25.384,56.4999,-0.021752
25.399,56.4999,-0.016918
25.416,56.4999,-0.019335
25.431,56.4999,-0.019335
25.448,56.4999,-0.022961
25.464,56.4999,-0.022961
25.482,56.4999,-0.016918
25.495,56.4999,-0.018127
25.512,56.4999,-0.015710
25.527,56.4999,-0.021752
25.543,56.4999,-0.024169
25.559,56.4999,-0.016918
25.575,56.4999,-0.016918
25.591,56.4999,-0.014501
25.607,56.4999,-0.016918
25.624,56.4999,-0.018127
25.639,56.4999,-0.015710
25.655,56.4999,-0.009668
25.671,56.4999,-0.013293
25.693,56.4999,-0.015710
25.709,56.4999,-0.018127
25.725,56.4999,-0.015710
25.741,56.4999,-0.021752
25.757,56.4999,-0.021752
25.773,56.4999,-0.021752
25.789,56.4999,-0.021752
25.805,56.4999,-0.018127
25.823,56.4999,-0.016918
25.837,56.4999,-0.015710
25.853,56.4999,-0.014501
25.869,56.4999,-0.014501
25.885,56.4999,-0.014501
25.901,56.4999,-0.016918
25.917,56.4999,-0.018127
25.933,56.4999,-0.016918
25.949,56.4999,-0.018127
25.965,56.4999,-0.021752
25.981,56.4999,-0.014501
25.997,56.4999,-0.012084
26.013,56.4999,-0.015710
26.029,56.4999,-0.013293
26.045,56.4999,-0.014501
26.061,56.4999,-0.016918
26.078,56.4999,-0.015710
26.093,56.4999,-0.018127
26.110,56.4999,-0.020544
26.125,56.4999,-0.013293
26.142,56.4999,-0.015710
26.157,56.4999,-0.014501
26.174,56.4999,-0.014501
26.189,56.4999,-0.015710
26.205,56.4999,-0.015710
26.220,56.4999,-0.018127
26.237,56.4999,-0.015710
26.260,56.4999,-0.018127
26.276,56.4999,-0.018127
26.292,56.4999,-0.018127
26.308,56.4999,-0.016918
26.324,56.4999,-0.013293
26.340,56.4999,-0.016918
26.356,56.4999,-0.015710
26.371,56.4999,-0.009668
26.389,56.4999,-0.014501
26.404,56.4999,-0.014501
26.421,56.4999,-0.007251
26.435,56.4999,-0.015710
26.452,56.4999,-0.021752
26.468,56.4999,-0.018127
26.484,56.4999,-0.018127
26.508,56.4999,-0.007251
26.521,56.4999,-0.020544
26.531,56.4999,-0.014501
26.548,56.4999,-0.020544
26.564,56.4999,-0.015710
26.580,56.4999,-0.009668
26.596,56.4999,-0.015710
26.612,56.4999,-0.012084
26.631,56.4999,-0.013293
26.644,56.4999,-0.016918
26.660,56.4999,-0.009668
26.679,56.4999,-0.010876
26.693,56.4999,-0.010876
26.708,56.4999,-0.012084
26.726,56.4999,-0.014501
26.740,56.4999,-0.018127
26.757,56.4999,-0.014501
26.772,56.4999,-0.015710
26.800,56.4999,-0.016918
26.816,56.4999,-0.016918
26.832,56.4999,-0.013293
26.848,56.4999,-0.013293
26.865,56.4999,-0.009668
26.881,56.4999,-0.016918
26.896,56.4999,-0.019335
26.912,56.4999,-0.014501
26.930,56.4999,-0.012084
26.946,56.4999,-0.012084
26.963,56.4999,-0.009668
26.977,56.4999,-0.016918
26.993,56.4999,-0.016918
27.008,56.4999,-0.019335
27.025,56.4999,-0.019335
27.040,56.4999,-0.013293
27.056,56.4999,-0.016918
27.073,56.4999,-0.013293
27.088,56.4999,-0.014501
27.108,56.4999,-0.020544
27.120,56.4999,-0.012084
27.136,56.4999,-0.009668
27.152,56.4999,-0.010876
27.171,56.4999,-0.019335
27.184,56.4999,-0.016918
27.201,56.4999,-0.015710
27.216,56.4999,-0.013293
27.237,56.4999,-0.019335
27.249,56.4999,-0.015710
27.264,56.4999,-0.010876
27.281,56.4999,-0.014501
27.298,56.4999,-0.009668
27.312,56.4999,-0.009668
27.328,56.4999,-0.016918
27.344,56.4999,-0.016918
27.368,56.4999,-0.010876
27.383,56.4999,-0.018127
27.400,56.4999,-0.014501
27.415,56.4999,-0.016918
27.433,56.4999,-0.008459
27.447,56.4999,-0.012084
27.463,56.4999,-0.010876
27.479,56.4999,-0.013293
27.498,56.4999,-0.015710
27.511,56.4999,-0.015710
27.527,56.4999,-0.012084
27.543,56.4999,-0.015710
27.560,56.4999,-0.010876
27.576,56.4999,-0.012084
27.592,56.4999,-0.012084
27.607,56.4999,-0.016918
27.624,56.4999,-0.016918
27.639,56.4999,-0.016918
27.657,56.4999,-0.015710
27.671,56.4999,-0.015710
27.688,56.4999,-0.014501
27.703,56.4999,-0.014501
27.719,56.4999,-0.007251
27.736,56.4999,-0.010876
27.756,56.4999,-0.010876
27.768,56.4999,-0.008459
27.783,56.4999,-0.009668
27.800,56.4999,-0.012084
27.815,56.4999,-0.010876
27.831,56.4999,-0.013293
27.847,56.4999,-0.014501
27.863,56.4999,-0.010876
27.879,56.4999,-0.009668
27.895,56.4999,-0.012084
27.911,56.4999,-0.013293
27.927,56.4999,-0.015710
27.943,56.4999,-0.018127
27.959,56.4999,-0.012084
27.975,56.4999,-0.015710
27.993,56.4999,-0.013293
28.007,56.4999,-0.015710
28.023,56.4999,-0.016918
28.039,56.4999,-0.018127
28.055,56.4999,-0.018127
28.071,56.4999,-0.020544
28.087,56.4999,-0.012084
28.103,56.4999,-0.012084
28.119,56.4999,-0.006042
28.135,56.4999,-0.008459
28.151,56.4999,-0.012084
28.167,56.4999,-0.007251
28.183,56.4999,-0.007251
28.199,56.4999,-0.012084
28.222,56.4999,-0.013293
28.246,56.4999,-0.015710
28.263,56.4999,-0.021752
28.280,56.4999,-0.014501
28.295,56.4999,-0.009668
28.311,56.4999,-0.016918
28.327,56.4999,-0.009668
28.346,56.4999,-0.009668
28.359,56.4999,-0.012084
28.375,56.4999,-0.020544
28.391,56.4999,-0.019335
28.410,56.4999,-0.012084
28.423,56.4999,-0.012084
28.439,56.4999,-0.015710
28.454,56.4999,-0.018127
28.478,56.4999,-0.012084
28.494,56.4999,-0.008459
28.510,56.4999,-0.010876
28.526,56.4999,-0.002417
28.542,56.4999,-0.009668
28.558,56.4999,-0.012084
28.575,56.4999,-0.012084
28.590,56.4999,-0.009668
28.606,56.4999,-0.010876
28.622,56.4999,-0.010876
28.637,56.4999,-0.012084
28.655,56.4999,-0.015710
28.671,56.4999,-0.012084
28.685,56.4999,-0.008459
28.702,56.4999,-0.006042
28.718,56.4999,-0.008459
28.735,56.4999,-0.008459
28.750,56.4999,-0.013293
28.766,56.4999,-0.007251
28.783,56.4999,-0.007251
28.798,56.4999,-0.014501
28.814,56.4999,-0.014501
28.829,56.4999,-0.012084
28.845,56.4999,-0.016918
28.862,56.4999,-0.016918
28.877,56.4999,-0.013293
28.898,56.4999,-0.013293
28.910,56.4999,-0.014501
28.926,56.4999,-0.008459
28.942,56.4999,-0.008459
28.957,56.4999,-0.014501
28.974,56.4999,-0.014501
28.990,56.4999,-0.009668
29.006,56.4999,-0.009668
29.028,56.4999,-0.009668
29.043,56.4999,-0.010876
29.059,56.4999,-0.012084
29.075,56.4999,-0.012084
29.093,56.4999,-0.012084
29.108,56.4999,-0.016918
29.126,56.4999,-0.013293
29.139,56.4999,-0.015710
29.156,56.4999,-0.010876
29.171,56.4999,-0.014501
29.188,56.4999,-0.009668
29.204,56.4999,-0.009668
29.219,56.4999,-0.007251
29.236,56.4999,-0.009668
29.251,56.4999,-0.009668
29.267,56.4999,-0.016918
29.284,56.4999,-0.016918
29.300,56.4999,-0.012084
29.315,56.4999,-0.012084
29.331,56.4999,-0.016918
29.347,56.4999,-0.014501
29.364,56.4999,-0.015710
29.379,56.4999,-0.014501
29.396,56.4999,-0.014501
29.413,56.4999,-0.015710
29.428,56.4999,-0.015710
29.443,56.4999,-0.010876
29.461,56.4999,-0.010876
29.476,56.4999,-0.012084
29.492,56.4999,-0.008459
29.507,56.4999,-0.015710
29.524,56.4999,-0.015710
29.540,56.4999,-0.014501
29.556,56.4999,-0.012084
29.585,56.4999,-0.009668
29.598,56.4999,-0.014501
29.614,56.4999,-0.014501
29.630,56.4999,-0.012084
29.647,56.4999,-0.013293
29.662,56.4999,-0.013293
29.680,56.4999,-0.009668
29.694,56.4999,-0.016918
29.711,56.4999,-0.018127
29.726,56.4999,-0.010876
29.742,56.4999,-0.013293
29.758,56.4999,-0.009668
29.774,56.4999,-0.008459
29.790,56.4999,-0.010876
29.806,56.4999,-0.012084
29.822,56.4999,-0.010876
29.839,56.4999,-0.007251
29.854,56.4999,-0.007251
29.870,56.4999,-0.009668
29.886,56.4999,-0.008459
29.903,56.4999,-0.008459
29.919,56.4999,-0.007251
29.934,56.4999,-0.009668
29.951,56.4999,-0.020544
29.967,56.4999,-0.012084
29.982,56.4999,-0.012084
29.998,56.4999,-0.014501
30.018,56.4999,-0.008459
30.031,56.4999,-0.008459
30.046,56.4999,-0.010876
30.062,56.4999,-0.012084
30.078,56.4999,-0.014501
30.095,56.4999,-0.013293
30.110,56.4999,-0.010876
30.126,56.4999,-0.009668
30.143,56.4999,-0.009668
30.158,56.4999,-0.008459
30.174,56.4999,-0.009668
30.190,56.4999,-0.012084
30.207,56.4999,-0.012084
30.222,56.4999,-0.007251
30.238,56.4999,-0.014501
30.254,56.4999,-0.014501
30.270,56.4999,-0.012084
30.286,56.4999,-0.010876
30.302,56.4999,-0.010876
30.318,56.4999,-0.018127
30.334,56.4999,-0.016918
30.350,56.4999,-0.014501
30.366,56.4999,-0.015710
30.382,56.4999,-0.012084
30.398,56.4999,-0.007251
30.414,56.4999,-0.009668
30.430,56.4999,-0.009668
30.450,56.4999,-0.009668
30.461,56.4999,-0.010876
30.478,56.4999,-0.008459
30.494,56.4999,-0.009668
30.511,56.4999,-0.009668
30.527,56.4999,-0.008459
30.542,56.4999,-0.012084
30.558,56.4999,-0.001208
30.575,56.4999,-0.008459
30.590,56.4999,-0.006042
30.608,56.4999,-0.012084
30.621,56.4999,-0.010876
30.638,56.4999,-0.009668
30.654,56.4999,-0.009668
30.670,56.4999,-0.013293
30.693,56.4999,-0.013293
30.709,56.4999,-0.009668
30.725,56.4999,-0.006042
30.741,56.4999,-0.008459
30.757,56.4999,-0.010876
30.773,56.4999,-0.008459
30.789,56.4999,-0.010876
30.805,56.4999,-0.012084
30.822,56.4999,-0.009668
30.837,56.4999,-0.009668
30.853,56.4999,-0.010876
30.869,56.4999,-0.012084
30.885,56.4999,-0.013293
30.901,56.4999,-0.008459
30.917,56.4999,-0.010876
30.938,56.4999,-0.021752
30.950,56.4999,-0.006042
30.966,56.4999,-0.014501
30.981,56.4999,-0.014501
30.997,56.4999,-0.010876
31.012,56.4999,-0.012084
31.029,56.4999,-0.014501
31.045,56.4999,-0.007251
31.061,56.4999,-0.007251
31.077,56.4999,-0.008459
31.094,56.4999,-0.009668
31.108,56.4999,-0.019335
31.124,56.4999,-0.019335
31.140,56.4999,-0.013293
31.156,56.4999,-0.013293
31.172,56.4999,-0.013293
31.190,56.4999,-0.013293
31.204,56.4999,-0.013293
31.221,56.4999,-0.016918
31.236,56.4999,-0.006042
31.257,56.4999,-0.004834
31.274,56.4999,-0.008459
31.290,56.4999,-0.004834
31.305,56.4999,-0.003625
31.323,56.4999,-0.010876
31.338,56.4999,-0.008459
31.353,56.4999,-0.008459
31.369,56.4999,-0.006042
31.387,56.4999,-0.006042
31.402,56.4999,-0.006042
31.418,56.4999,-0.014501
31.433,56.4999,-0.016918
31.451,56.4999,-0.012084
31.466,56.4999,-0.007251
31.482,56.4999,-0.007251
31.497,56.4999,-0.006042
31.515,56.4999,-0.003625
31.530,56.4999,-0.007251
31.545,56.4999,-0.010876
31.562,56.4999,-0.010876
31.580,56.4999,-0.014501
31.594,56.4999,-0.009668
31.609,56.4999,-0.009668
31.625,56.4999,-0.012084
31.642,56.4999,-0.018127
31.657,56.4999,-0.015710
31.676,56.4999,-0.013293
31.690,56.4999,-0.008459
31.705,56.4999,-0.008459
31.721,56.4999,-0.014501
31.738,56.4999,-0.014501
31.754,56.4999,-0.007251
31.769,56.4999,-0.020544
31.785,56.4999,-0.013293
31.808,56.4999,-0.016918
31.826,56.4999,-0.006042
31.839,56.4999,-0.008459
31.856,56.4999,-0.010876
31.872,56.4999,-0.013293
31.887,56.4999,-0.016918
31.903,56.4999,-0.016918
31.919,56.4999,-0.009668
31.935,56.4999,-0.004834
31.951,56.4999,-0.007251
31.968,56.4999,-0.009668
31.983,56.4999,-0.012084
31.999,56.4999,-0.009668
32.015,56.4999,-0.010876
32.032,56.4999,-0.008459
32.047,56.4999,-0.006042
32.064,56.4999,-0.006042
32.079,56.4999,-0.010876
32.095,56.4999,-0.007251
32.111,56.4999,-0.015710
32.128,56.4999,-0.010876
32.143,56.4999,-0.010876
32.159,56.4999,-0.008459
32.175,56.4999,-0.010876
32.192,56.4999,-0.012084
32.207,56.4999,-0.006042
32.223,56.4999,-0.009668
32.239,56.4999,-0.010876
32.255,56.4999,-0.010876
32.271,56.4999,-0.009668
32.289,56.4999,-0.012084
32.304,56.4999,-0.012084
32.320,56.4999,-0.009668
32.335,56.4999,-0.013293
32.351,56.4999,-0.015710
32.368,56.4999,-0.010876
32.384,56.4999,-0.007251
32.400,56.4999,-0.004834
32.416,56.4999,-0.007251
32.431,56.4999,-0.009668
32.447,56.4999,-0.009668
32.463,56.4999,-0.013293
32.479,56.4999,-0.016918
32.498,56.4999,-0.014501
32.511,56.4999,-0.010876
32.527,56.4999,-0.010876
32.543,56.4999,-0.015710
32.559,56.4999,-0.013293
32.575,56.4999,-0.014501
32.592,56.4999,-0.018127
32.607,56.4999,-0.013293
32.625,56.4999,-0.016918
32.639,56.4999,-0.008459
32.658,56.4999,-0.009668
32.671,56.4999,-0.007251
32.687,56.4999,-0.004834
32.703,56.4999,-0.004834
32.719,56.4999,-0.012084
32.735,56.4999,-0.012084
32.751,56.4999,-0.012084
32.767,56.4999,-0.009668
32.784,56.4999,-0.018127
32.800,56.4999,-0.010876
32.815,56.4999,-0.013293
32.832,56.4999,-0.009668
32.847,56.4999,-0.006042
32.865,56.4999,-0.006042
32.879,56.4999,-0.009668
32.895,56.4999,-0.009668
32.910,56.4999,-0.013293
32.935,56.4999,-0.015710
32.951,56.4999,-0.008459
32.966,56.4999,-0.008459
32.982,56.4999,-0.010876
32.998,56.4999,-0.010876
33.015,56.4999,-0.016918
33.031,56.4999,-0.007251
33.046,56.4999,-0.013293
33.062,56.4999,-0.013293
33.078,56.4999,-0.004834
33.093,56.4999,-0.008459
33.110,56.4999,-0.010876
33.126,56.4999,-0.006042
33.142,56.4999,-0.006042
33.158,56.4999,-0.010876
33.174,56.4999,-0.009668
33.190,56.4999,-0.007251
33.206,56.4999,-0.010876
33.224,56.4999,-0.012084
33.239,56.4999,-0.018127
33.255,56.4999,-0.012084
33.270,56.4999,-0.013293
33.286,56.4999,-0.012084
33.304,56.4999,-0.010876
33.318,56.4999,-0.008459
33.334,56.4999,-0.004834
33.350,56.4999,-0.010876
33.365,56.4999,-0.010876
33.381,56.4999,-0.016918
33.398,56.4999,-0.014501
33.419,56.4999,-0.006042
33.431,56.4999,-0.007251
33.446,56.4999,-0.008459
33.461,56.4999,-0.012084
33.491,56.4999,-0.013293
33.507,56.4999,-0.012084
33.523,56.4999,-0.008459
33.539,56.4999,-0.013293
33.556,56.4999,-0.008459
33.571,56.4999,-0.009668
33.587,56.4999,-0.014501
33.603,56.4999,-0.007251
33.620,56.4999,-0.009668
33.635,56.4999,-0.009668
33.651,56.4999,-0.010876
33.667,56.4999,-0.015710
33.684,56.4999,-0.013293
33.700,56.4999,-0.012084
33.715,56.4999,-0.012084
33.731,56.4999,-0.012084
33.748,56.4999,-0.009668
33.764,56.4999,-0.008459
33.782,56.4999,-0.007251
33.796,56.4999,-0.008459
33.812,56.4999,-0.008459
33.828,56.4999,-0.008459
33.843,56.4999,-0.009668
33.859,56.4999,-0.012084
33.875,56.4999,-0.012084
33.892,56.4999,-0.008459
33.907,56.4999,-0.013293
33.924,56.4999,-0.013293
33.940,56.4999,-0.009668
33.956,56.4999,-0.008459
33.971,56.4999,-0.007251
33.988,56.4999,-0.012084
34.004,56.4999,-0.013293
34.019,56.4999,-0.009668
34.042,56.4999,-0.008459
34.058,56.4999,-0.008459
34.075,56.4999,-0.009668
34.090,56.4999,-0.010876
34.108,56.4999,-0.014501
34.122,56.4999,-0.008459
34.138,56.4999,-0.013293
34.153,56.4999,-0.013293
34.172,56.4999,-0.013293
34.187,56.4999,-0.004834
34.202,56.4999,-0.013293
34.218,56.4999,-0.008459
34.235,56.4999,-0.007251
34.250,56.4999,-0.009668
34.266,56.4999,-0.007251
34.282,56.4999,-0.009668
34.300,56.4999,-0.010876
34.314,56.4999,-0.006042
34.331,56.4999,-0.016918
34.346,56.4999,-0.007251
34.366,56.4999,-0.007251
34.379,56.4999,-0.007251
34.395,56.4999,-0.007251
34.410,56.4999,-0.004834
34.426,56.4999,-0.015710
34.442,56.4999,-0.012084
34.458,56.4999,-0.006042
34.475,56.4999,-0.006042
34.490,56.4999,-0.006042
34.506,56.4999,-0.010876
34.522,56.4999,-0.010876
34.538,56.4999,-0.013293
34.554,56.4999,-0.008459
34.570,56.4999,-0.008459
34.593,56.4999,-0.008459
34.609,56.4999,-0.009668
34.625,56.4999,-0.012084
34.641,56.4999,-0.010876
34.657,56.4999,-0.008459
34.673,56.4999,-0.008459
34.690,56.4999,-0.009668
34.705,56.4999,-0.015710
34.721,56.4999,-0.015710
34.737,56.4999,-0.009668
34.753,56.4999,-0.009668
34.769,56.4999,-0.008459
34.785,56.4999,-0.010876
34.801,56.4999,-0.009668
34.817,56.4999,-0.013293
34.835,56.4999,-0.013293
34.849,56.4999,-0.012084
34.865,56.4999,-0.007251
34.881,56.4999,-0.006042
34.898,56.4999,-0.001208
34.913,56.4999,-0.013293
34.929,56.4999,-0.014501
34.945,56.4999,-0.012084
34.963,56.4999,-0.012084
34.977,56.4999,-0.002417
34.995,56.4999,-0.007251
35.009,56.4999,-0.016918
35.025,56.4999,-0.016918
35.043,56.4999,-0.013293
35.057,56.4999,-0.014501
35.073,56.4999,-0.008459
35.089,56.4999,-0.004834
35.105,56.4999,-0.007251
35.130,56.4999,-0.003625
35.146,56.4999,-0.012084
35.162,56.4999,-0.010876
35.178,56.4999,-0.010876
35.194,56.4999,-0.010876
35.210,56.4999,-0.006042
35.226,56.4999,-0.008459
35.242,56.4999,-0.013293
35.258,56.4999,-0.012084
35.275,56.4999,-0.009668
35.293,56.4999,-0.009668
35.306,56.4999,-0.016918
35.322,56.4999,-0.009668
35.338,56.4999,-0.012084
35.355,56.4999,-0.008459
35.370,56.4999,-0.002417
35.385,56.4999,-0.008459
35.402,56.4999,-0.008459
35.417,56.4999,-0.015710
35.435,56.4999,-0.009668
35.451,56.4999,-0.007251
35.466,56.4999,-0.012084
35.482,56.4999,-0.014501
35.499,56.4999,-0.014501
35.515,56.4999,-0.014501
35.530,56.4999,-0.010876
35.546,56.4999,-0.012084
35.562,56.4999,-0.012084
35.577,56.4999,-0.010876
35.594,56.4999,-0.014501
35.609,56.4999,-0.016918
35.626,56.4999,-0.018127
35.642,56.4999,-0.018127
35.659,56.4999,0.000000
35.686,56.4999,-0.008459
35.703,56.4999,-0.009668
35.719,56.4999,-0.009668
35.734,56.4999,-0.009668
35.751,56.4999,-0.009668
35.767,56.4999,-0.008459
35.783,56.4999,-0.001208
35.799,56.4999,-0.014501
35.815,56.4999,-0.014501
35.831,56.4999,-0.015710
35.846,56.4999,-0.007251
35.866,56.4999,-0.007251
35.881,56.4999,-0.009668
35.895,56.4999,-0.012084
35.911,56.4999,-0.014501
35.927,56.4999,-0.010876
35.942,56.4999,-0.010876
35.959,56.4999,-0.015710
35.975,56.4999,-0.007251
35.992,56.4999,-0.004834
36.007,56.4999,-0.003625
36.022,56.4999,0.000000
36.038,56.4999,-0.013293
36.054,56.4999,-0.014501
36.070,56.4999,-0.010876
36.088,56.4999,-0.014501
36.103,56.4999,-0.009668
36.118,56.4999,-0.006042
36.134,56.4999,-0.007251
36.151,56.4999,-0.012084
36.166,56.4999,-0.008459
36.182,56.4999,-0.012084
36.198,56.4999,-0.007251
36.214,56.4999,-0.012084
36.230,56.4999,-0.013293
36.247,56.4999,-0.009668
36.262,56.4999,-0.010876
36.279,56.4999,-0.013293
36.294,56.4999,-0.019335
36.311,56.4999,-0.015710
36.328,56.4453,-0.007251
36.342,56.2126,0.084591
36.359,55.9322,0.030211
36.374,55.6637,0.079758
36.393,55.3337,0.079758
36.407,55.1080,0.117219
36.422,54.8429,0.128095
36.439,54.5556,0.195769
36.455,54.2820,0.195769
36.471,54.0204,0.221146
36.486,53.7604,0.167974
36.502,53.4800,0.167974
36.518,53.2082,0.010876
36.534,52.9276,0.006042
36.552,52.6370,0.003625
36.567,52.3839,0.000000
36.582,52.1068,0.010876
36.598,51.8453,-0.003625
36.616,51.5324,0.001208
36.630,51.2963,-0.001208
36.646,51.0177,0.003625
36.662,50.7526,-0.003625
36.680,50.4831,0.003625
36.694,50.4499,-0.166766
36.710,50.4499,-0.073715
36.726,50.4499,-0.002417
36.750,50.4499,0.008459
36.765,50.4499,-0.001208
36.781,50.4499,-0.004834
36.797,50.4499,0.006042
36.814,50.4499,0.006042
36.830,50.4499,0.006042
36.847,50.4499,0.003625
36.861,50.4499,0.001208
36.877,50.4499,0.006042
36.894,50.4499,0.009668
36.909,50.4499,-0.002417
36.926,50.4499,0.000000
36.941,50.4499,-0.003625
36.957,50.4499,0.004834
36.973,50.4499,0.000000
36.989,50.5237,-0.090634
37.005,50.7850,-0.182476
37.021,51.0467,-0.006042
37.038,51.3407,-0.007251
37.053,51.5939,-0.007251
37.070,51.8914,0.004834
37.085,52.1411,-0.006042
37.102,52.4318,-0.006042
37.117,52.6951,0.007251
37.133,52.9704,-0.010876
37.151,53.2662,-0.001208
37.165,53.5090,-0.001208
37.181,53.7998,-0.004834
37.198,54.0700,-0.004834
37.214,54.3452,-0.009668
37.230,54.6258,-0.003625
37.245,54.8754,-0.009668
37.261,55.1558,-0.004834
37.284,55.5491,-0.015710
37.299,55.8005,-0.016918
37.315,56.0706,-0.018127
37.331,56.3487,-0.030211
37.347,56.4499,0.032628
37.363,56.4499,0.109969
37.379,56.4499,-0.016918
37.395,56.4499,-0.049546
37.411,56.4499,-0.030211
37.427,56.4499,-0.036253
37.444,56.4499,-0.032628
37.459,56.4499,-0.045921
37.475,56.4499,-0.030211
37.491,56.4499,-0.032628
37.507,56.4499,-0.025377
37.523,56.4499,-0.035045
37.539,56.4499,-0.021752
37.555,56.4499,-0.030211
37.571,56.4499,-0.036253
37.588,56.4499,-0.037462
37.603,56.4499,-0.031420
37.619,56.4499,-0.032628
37.635,56.4499,-0.027794
37.651,56.4499,-0.029003
