Elapsed Time (s),Position (mm),Force (N)
-0.018,68.0592,-0.260639
0.013,68.0592,-0.260639
0.044,68.0592,-0.260639
0.076,68.0592,-0.260639
0.107,68.0592,-0.260639
0.137,68.0592,-0.260639
0.168,68.0592,-0.260639
0.200,68.0592,-0.260639
0.230,68.0592,-0.228936
0.264,68.0592,-0.228936
0.293,68.0592,-0.228936
0.324,68.0592,-0.228936
0.355,68.0592,-0.228936
0.386,68.0592,-0.228936
0.416,68.0592,-0.228936
0.447,68.0592,-0.228936
0.478,68.0592,-0.216712
0.509,68.0592,-0.216712
0.539,68.0592,-0.216712
0.571,68.0592,-0.216712
0.602,68.0592,-0.216712
0.633,68.0592,-0.216712
0.663,68.0592,-0.216712
0.695,68.0592,-0.216712
0.725,68.0592,-0.208459
0.760,68.0592,-0.208459
0.788,68.0592,-0.208459
0.819,68.0592,-0.208459
0.851,68.0592,-0.208459
0.882,68.0592,-0.208459
0.913,68.0592,-0.208459
0.944,68.0592,-0.208459
0.975,68.0592,-0.202248
1.012,68.0592,-0.202248
1.038,68.0592,-0.202248
1.069,68.0592,-0.202248
1.101,68.0592,-0.202248
1.132,68.0592,-0.202248
1.166,68.0592,-0.202248
1.195,68.0592,-0.202248
1.225,68.0592,-0.202248
1.259,68.0592,-0.202248
1.287,68.0592,-0.197439
1.319,68.0592,-0.197439
1.350,68.0592,-0.197439
1.381,68.0592,-0.197439
1.411,68.0592,-0.197439
1.442,68.0592,-0.197439
1.473,68.0592,-0.197439
1.504,68.0592,-0.193525
1.537,68.0592,-0.193525
1.566,68.0592,-0.193525
1.597,68.0592,-0.193525
1.629,68.0592,-0.193525
1.662,68.0592,-0.193525
1.691,68.0592,-0.193525
1.722,68.0592,-0.193525
1.753,68.0592,-0.190278
1.783,68.0592,-0.190278
1.814,68.0592,-0.190278
1.845,68.0592,-0.190278
1.877,68.0592,-0.190278
1.908,68.0592,-0.190278
1.939,68.0592,-0.190278
1.971,68.0592,-0.190278
2.001,68.0592,-0.187408
2.033,68.0592,-0.187408
2.064,68.0592,-0.187408
2.095,68.0592,-0.187408
2.127,68.0592,-0.187408
2.157,68.0592,-0.187408
2.188,68.0592,-0.187408
2.219,68.0592,-0.187408
2.250,68.0592,-0.184886
2.280,68.0592,-0.184886
2.312,68.0592,-0.184886
2.343,68.0592,-0.184886
2.374,68.0592,-0.184886
2.407,68.0592,-0.184886
2.436,68.0592,-0.184886
2.468,68.0592,-0.184886
2.499,68.0592,-0.182740
2.530,68.0592,-0.182740
2.561,68.0592,-0.182740
2.592,68.0592,-0.182740
2.623,68.0592,-0.182740
2.653,68.0592,-0.182740
2.685,68.0592,-0.182740
2.716,68.0592,-0.182740
2.747,68.0592,-0.180830
2.778,68.0592,-0.180830
2.808,68.0592,-0.180830
2.839,68.0592,-0.180830
2.870,68.0592,-0.180830
2.901,68.0592,-0.180830
2.932,68.0592,-0.180830
2.963,68.0592,-0.180830
2.994,68.0592,-0.179136
3.026,68.0592,-0.179136
3.058,68.0592,-0.179136
3.089,68.0592,-0.179136
3.121,68.0592,-0.179136
3.152,68.0592,-0.179136
3.183,68.0592,-0.179136
3.214,68.0592,-0.179136
3.246,68.0592,-0.177583
3.276,68.0592,-0.177583
3.307,68.0592,-0.177583
3.339,68.0592,-0.177583
3.370,68.0592,-0.177583
3.402,68.0592,-0.177583
3.433,68.0592,-0.177583
3.464,68.0592,-0.177583
3.496,68.0592,-0.177583
3.526,68.0592,-0.176115
3.557,68.0592,-0.176115
3.589,68.0592,-0.176115
3.619,68.0592,-0.176115
3.651,68.0592,-0.176115
3.682,68.0592,-0.176115
3.713,68.0592,-0.176115
3.745,68.0592,-0.174186
3.775,68.0592,-0.174186
3.806,68.0592,-0.174186
3.838,68.0592,-0.174186
3.869,68.0592,-0.174186
3.901,68.0592,-0.174186
3.933,68.0592,-0.174186
3.963,68.0592,-0.174186
3.996,68.0592,-0.174186
4.025,68.0592,-0.171843
4.057,68.0592,-0.171843
4.087,68.0592,-0.171843
4.118,68.0587,-0.171843
4.150,68.0574,-0.171843
4.179,68.0555,-0.171843
4.210,68.0528,-0.171843
4.241,68.0492,-0.171843
4.272,68.0452,-0.166206
4.303,68.0401,-0.166206
4.335,68.0347,-0.166206
4.365,68.0283,-0.166206
4.395,68.0216,-0.166206
4.428,68.0133,-0.166206
4.459,68.0045,-0.166206
4.490,67.9954,0.023234
4.522,67.9851,0.023234
4.553,67.9743,0.023234
4.584,67.9627,0.023234
4.616,67.9502,0.023234
4.647,67.9373,0.023234
4.678,67.9237,0.023234
4.709,67.9089,0.023234
4.740,67.8940,0.023234
4.771,67.8782,0.082934
4.802,67.8615,0.082934
4.836,67.8423,0.082934
4.864,67.8261,0.082934
4.894,67.8081,0.082934
4.919,67.7921,0.082934
4.956,67.7681,0.082934
4.987,67.7473,0.082934
5.018,67.7257,-0.031901
5.048,67.7038,-0.031901
5.079,67.6807,-0.031901
5.110,67.6570,-0.031901
5.140,67.6331,-0.031901
5.171,67.6082,-0.031901
5.203,67.5815,-0.031901
5.234,67.5545,-0.006437
5.264,67.5278,-0.006437
5.295,67.4994,-0.006437
5.326,67.4709,-0.006437
5.358,67.4399,-0.006437
5.391,67.4076,-0.006437
5.420,67.3792,-0.006437
5.450,67.3494,-0.006437
5.482,67.3172,0.021456
5.512,67.2868,0.021456
5.547,67.2518,0.021456
5.576,67.2237,0.021456
5.608,67.1911,0.021456
5.640,67.1587,0.021456
5.669,67.1300,0.021456
5.703,67.0959,0.021456
5.731,67.0677,0.021456
5.763,67.0362,0.041283
5.793,67.0056,0.041283
5.824,66.9744,0.041283
5.856,66.9434,0.041283
5.886,66.9121,0.041283
5.917,66.8819,0.041283
5.948,66.8501,0.041283
5.980,66.8185,0.041283
6.011,66.7879,0.050468
6.042,66.7572,0.050468
6.073,66.7260,0.050468
6.104,66.6950,0.050468
6.135,66.6640,0.050468
6.167,66.6323,0.050468
6.197,66.6017,0.050468
6.228,66.5707,0.050468
6.259,66.5401,0.052999
6.289,66.5100,0.052999
6.321,66.4781,0.052999
6.352,66.4474,0.052999
6.383,66.4153,0.052999
6.413,66.3863,0.052999
6.444,66.3544,0.052999
6.478,66.3213,0.052999
6.505,66.2931,0.052999
6.536,66.2624,0.052849
6.567,66.2315,0.052849
6.598,66.2005,0.052849
6.630,66.1691,0.052849
6.660,66.1385,0.052849
6.692,66.1073,0.052849
6.722,66.0763,0.052849
6.753,66.0467,0.051738
6.784,66.0151,0.051738
6.815,65.9839,0.051738
6.847,65.9523,0.051738
6.879,65.9199,0.051738
6.909,65.8894,0.051738
6.941,65.8588,0.051738
6.971,65.8279,0.051738
7.002,65.7975,0.050882
7.033,65.7657,0.050882
7.064,65.7355,0.050882
7.095,65.7039,0.050882
7.127,65.6721,0.050882
7.160,65.6392,0.050882
7.190,65.6094,0.050882
7.221,65.5783,0.050882
7.252,65.5476,0.050844
7.282,65.5167,0.050844
7.313,65.4864,0.050844
7.344,65.4547,0.050844
7.375,65.4241,0.050844
7.406,65.3933,0.050844
7.436,65.3622,0.050844
7.467,65.3322,0.050844
7.499,65.3000,0.050844
7.530,65.2697,0.052294
7.561,65.2383,0.052294
7.592,65.2071,0.052294
7.623,65.1764,0.052294
7.654,65.1455,0.052294
7.685,65.1139,0.052294
7.715,65.0839,0.052294
7.747,65.0525,0.055982
7.777,65.0221,0.055982
7.808,64.9918,0.055982
7.838,64.9603,0.055982
7.869,64.9294,0.055982
7.900,64.8992,0.055982
7.931,64.8687,0.055982
7.962,64.8370,0.055982
7.994,64.8057,0.055982
8.024,64.7747,0.060848
8.056,64.7436,0.060848
8.088,64.7118,0.060848
8.117,64.6826,0.060848
8.148,64.6507,0.060848
8.180,64.6197,0.060848
8.213,64.5861,0.060848
8.241,64.5578,0.060848
8.273,64.5269,0.064019
8.303,64.4965,0.064019
8.334,64.4653,0.064019
8.366,64.4336,0.064019
8.396,64.4026,0.064019
8.427,64.3721,0.064019
8.458,64.3401,0.064019
8.490,64.3096,0.064019
8.520,64.2782,0.044295
8.551,64.2482,0.044295
8.582,64.2162,0.044295
8.613,64.1868,0.044295
8.644,64.1543,0.044295
8.676,64.1233,0.044295
8.706,64.0923,0.044295
8.737,64.0620,0.044295
8.768,64.0311,0.019574
8.801,63.9989,0.019574
8.832,63.9660,0.019574
8.861,63.9383,0.019574
8.892,63.9077,0.019574
8.922,63.8768,0.019574
8.955,63.8437,0.019574
8.983,63.8168,0.019574
9.014,63.7849,0.014671
9.045,63.7542,0.014671
9.076,63.7231,0.014671
9.108,63.6914,0.014671
9.138,63.6609,0.014671
9.170,63.6301,0.014671
9.200,63.6006,0.014671
9.231,63.5719,0.013880
9.263,63.5430,0.013880
9.293,63.5167,0.013880
9.323,63.4898,0.013880
9.354,63.4650,0.013880
9.384,63.4395,0.013880
9.415,63.4149,0.013880
9.452,63.3866,0.013880
9.477,63.3677,0.013457
9.508,63.3452,0.013457
9.539,63.3231,0.013457
9.572,63.3014,0.013457
9.602,63.2815,0.013457
9.633,63.2622,0.013457
9.666,63.2420,0.013457
9.695,63.2249,0.013457
9.726,63.2076,0.013457
9.757,63.1913,0.013052
9.788,63.1747,0.013052
9.818,63.1604,0.013052
9.849,63.1460,0.013052
9.881,63.1319,0.013052
9.912,63.1190,0.013052
9.944,63.1063,0.013052
9.974,63.0948,0.013052
10.006,63.0840,0.012779
10.037,63.0741,0.012779
10.068,63.0647,0.012779
10.098,63.0561,0.012779
10.130,63.0483,0.012779
10.160,63.0411,0.012779
10.191,63.0347,0.012779
10.224,63.0286,0.012779
10.254,63.0239,0.012779
10.282,63.0200,0.012591
10.316,63.0161,0.012591
10.347,63.0133,0.012591
10.378,63.0112,0.012591
10.409,63.0099,0.012591
10.440,63.0092,0.012591
10.472,63.0092,0.012591
10.502,63.0092,0.012328
10.533,63.0092,0.012328
10.564,63.0092,0.012328
10.596,63.0092,0.012328
10.626,63.0092,0.012328
10.656,63.0092,0.012328
10.689,63.0092,0.012328
10.721,63.0092,0.012328
10.749,63.0092,0.012328
10.780,63.0092,0.012234
10.812,63.0092,0.012234
10.840,63.0092,0.012234
10.874,63.0092,0.012234
10.904,63.0092,0.012234
10.934,63.0092,0.012234
10.967,63.0092,0.012234
10.997,63.0092,0.012234
11.028,63.0092,0.012262
11.059,63.0096,0.012262
11.090,63.0107,0.012262
11.122,63.0126,0.012262
11.152,63.0151,0.012262
11.184,63.0185,0.012262
11.215,63.0225,0.012262
11.246,63.0273,0.012262
11.277,63.0328,0.012149
11.309,63.0393,0.012149
11.339,63.0460,0.012149
11.366,63.0525,0.012149
11.400,63.0618,0.012149
11.431,63.0709,0.012149
11.461,63.0803,0.012149
11.491,63.0906,0.011970
11.522,63.1019,0.011970
11.553,63.1138,0.011970
11.584,63.1267,0.011970
11.616,63.1401,0.011970
11.647,63.1545,0.011970
11.677,63.1692,0.011970
11.708,63.1849,0.011970
11.740,63.2014,0.011707
11.771,63.2187,0.011707
11.802,63.2365,0.011707
11.833,63.2553,0.011707
11.865,63.2749,0.011707
11.890,63.2908,0.011707
11.927,63.3158,0.011707
11.958,63.3373,0.011707
11.989,63.3589,0.011405
12.021,63.3827,0.011405
12.051,63.4056,0.011405
12.082,63.4303,0.011405
12.113,63.4551,0.011405
12.148,63.4844,0.011405
12.174,63.5074,0.011405
12.206,63.5347,0.011405
12.237,63.5629,0.010973
12.268,63.5917,0.010973
12.299,63.6207,0.010973
12.330,63.6514,0.010973
12.361,63.6817,0.010973
12.394,63.7148,0.010973
12.423,63.7435,0.010973
12.454,63.7753,0.010973
12.486,63.8070,0.010474
12.517,63.8372,0.010474
12.547,63.8681,0.010474
12.578,63.8996,0.010474
12.609,63.9295,0.010474
12.640,63.9607,0.010474
12.671,63.9918,0.010474
12.702,64.0225,0.010474
12.732,64.0540,0.009994
12.763,64.0840,0.009994
12.794,64.1157,0.009994
12.826,64.1470,0.009994
12.857,64.1783,0.009994
12.890,64.2112,0.009994
12.919,64.2405,0.009994
12.951,64.2718,0.009994
12.981,64.3023,0.009994
13.012,64.3331,0.009429
13.042,64.3631,0.009429
13.074,64.3947,0.009429
13.104,64.4253,0.009429
13.137,64.4576,0.009429
13.167,64.4875,0.009429
13.198,64.5196,0.009429
13.228,64.5490,0.008836
13.259,64.5797,0.008836
13.290,64.6106,0.008836
13.320,64.6416,0.008836
13.351,64.6716,0.008836
13.382,64.7027,0.008836
13.414,64.7348,0.008836
13.443,64.7647,0.008836
13.474,64.7948,0.008046
13.510,64.8309,0.008046
13.536,64.8567,0.008046
13.567,64.8875,0.008046
13.598,64.9188,0.008046
13.629,64.9501,0.008046
13.660,64.9811,0.008046
13.695,65.0161,0.008046
13.722,65.0436,0.007152
13.753,65.0739,0.007152
13.783,65.1046,0.007152
13.814,65.1355,0.007152
13.846,65.1671,0.007152
13.876,65.1978,0.007152
13.908,65.2286,0.007152
13.939,65.2598,0.007152
13.969,65.2907,0.007152
14.001,65.3225,0.006173
14.031,65.3520,0.006173
14.062,65.3832,0.006173
14.092,65.4131,0.006173
14.123,65.4441,0.006173
14.154,65.4749,0.006173
14.185,65.5061,0.006173
14.216,65.5370,0.006173
14.247,65.5685,0.004818
14.278,65.5995,0.004818
14.312,65.6335,0.004818
14.340,65.6610,0.004818
14.371,65.6924,0.004818
14.403,65.7236,0.004818
14.436,65.7572,0.004818
14.464,65.7848,0.002936
14.495,65.8163,0.002936
14.526,65.8471,0.002936
14.557,65.8781,0.002936
14.589,65.9100,0.002936
14.620,65.9408,0.002936
14.650,65.9713,0.002936
14.681,66.0018,0.002936
14.712,66.0338,0.002936
14.743,66.0639,0.000198
14.774,66.0957,0.000198
14.808,66.1292,0.000198
14.835,66.1560,0.000198
14.866,66.1872,0.000198
14.897,66.2177,0.000198
14.929,66.2501,0.000198
14.960,66.2807,0.000198
14.991,66.3120,-0.004046
15.021,66.3421,-0.004046
15.052,66.3733,-0.004046
15.082,66.4026,-0.004046
15.113,66.4340,-0.004046
15.143,66.4643,-0.004046
15.175,66.4958,-0.004046
15.206,66.5264,-0.004046
15.240,66.5610,-0.010850
15.268,66.5884,-0.010850
15.298,66.6186,-0.010850
15.329,66.6503,-0.010850
15.360,66.6810,-0.010850
15.391,66.7118,-0.010850
15.423,66.7435,-0.010850
15.454,66.7746,-0.010850
15.485,66.8063,-0.010850
15.515,66.8359,-0.021512
15.548,66.8698,-0.021512
15.578,66.8986,-0.021512
15.609,66.9306,-0.021512
15.641,66.9614,-0.021512
15.673,66.9937,-0.021512
15.702,67.0224,-0.021512
15.727,67.0481,-0.037896
15.763,67.0843,-0.037896
15.794,67.1157,-0.037896
15.825,67.1460,-0.037896
15.856,67.1767,-0.037896
15.887,67.2072,-0.037896
15.918,67.2388,-0.037896
15.950,67.2712,-0.037896
15.981,67.3018,-0.062014
16.012,67.3333,-0.062014
16.043,67.3635,-0.062014
16.074,67.3942,-0.062014
16.106,67.4246,-0.062014
16.136,67.4524,-0.062014
16.167,67.4813,-0.062014
16.198,67.5077,-0.062014
16.230,67.5352,-0.062014
16.261,67.5607,-0.062014
16.292,67.5863,-0.095534
16.322,67.6099,-0.095534
16.354,67.6347,-0.095534
16.384,67.6570,-0.095534
16.416,67.6798,-0.095534
16.446,67.7005,-0.095534
16.478,67.7225,-0.095534
16.510,67.7426,-0.137307
16.541,67.7619,-0.137307
16.572,67.7803,-0.137307
16.601,67.7978,-0.137307
16.632,67.8148,-0.137307
16.664,67.8315,-0.137307
16.694,67.8473,-0.137307
16.725,67.8618,-0.137307
16.756,67.8762,-0.137307
16.787,67.8897,-0.205429
16.818,67.9025,-0.205429
16.850,67.9150,-0.205429
16.879,67.9257,-0.205429
16.912,67.9368,-0.205429
16.941,67.9464,-0.205429
16.974,67.9560,-0.205429
17.005,67.9643,-0.322390
17.036,67.9720,-0.322390
17.066,67.9790,-0.322390
17.097,67.9852,-0.322390
17.127,67.9906,-0.322390
17.159,67.9956,-0.322390
17.190,67.9996,-0.322390
17.221,68.0030,-0.322390
17.252,68.0058,-0.453562
17.283,68.0075,-0.453562
17.313,68.0087,-0.453562
17.345,68.0092,-0.453562
17.375,68.0092,-0.453562
17.407,68.0092,-0.453562
17.436,68.0092,-0.453562
17.469,68.0092,-0.453562
17.499,68.0092,-0.452790
17.528,68.0092,-0.452790
17.559,68.0092,-0.452790
17.591,68.0092,-0.452790
17.622,68.0092,-0.452790
17.653,68.0092,-0.452790
17.684,68.0092,-0.452790
17.714,68.0092,-0.452790
17.745,68.0092,-0.325637
17.776,68.0092,-0.325637
17.806,68.0092,-0.325637
17.838,68.0092,-0.325637
17.868,68.0092,-0.325637
17.901,68.0092,-0.325637
17.930,68.0092,-0.325637
17.963,68.0092,-0.325637
17.993,68.0092,-0.244011
18.024,68.0092,-0.244011
18.056,68.0092,-0.244011
18.087,68.0092,-0.244011
18.117,68.0092,-0.244011
18.151,68.0092,-0.244011
18.178,68.0092,-0.244011
18.209,68.0092,-0.244011
18.240,68.0092,-0.244011
18.271,68.0092,-0.222659
18.301,68.0092,-0.222659
18.333,68.0092,-0.222659
18.362,68.0092,-0.222659
18.393,68.0092,-0.222659
18.424,68.0092,-0.222659
18.455,68.0092,-0.222659
18.485,68.0092,-0.212364
18.516,68.0092,-0.212364
18.547,68.0092,-0.212364
18.578,68.0092,-0.212364
18.609,68.0092,-0.212364
18.640,68.0092,-0.212364
18.671,68.0092,-0.212364
18.702,68.0092,-0.212364
18.733,68.0092,-0.212364
18.765,68.0092,-0.205231
18.796,68.0092,-0.205231
18.827,68.0092,-0.205231
18.858,68.0092,-0.205231
18.889,68.0092,-0.205231
18.921,68.0092,-0.205231
18.951,68.0092,-0.205231
18.983,68.0092,-0.205231
19.012,68.0092,-0.199735
19.046,68.0092,-0.199735
19.076,68.0092,-0.199735
19.107,68.0092,-0.199735
19.139,68.0092,-0.199735
19.170,68.0092,-0.199735
19.202,68.0092,-0.199735
19.232,68.0092,-0.199735
19.263,68.0092,-0.195266
19.294,68.0092,-0.195266
19.324,68.0092,-0.195266
19.356,68.0092,-0.195266
19.387,68.0092,-0.195266
19.418,68.0092,-0.195266
19.449,68.0092,-0.195266
19.480,68.0092,-0.191530
19.512,68.0092,-0.191530
19.543,68.0092,-0.191530
19.574,68.0092,-0.191530
19.604,68.0092,-0.191530
19.635,68.0092,-0.191530
19.667,68.0092,-0.191530
19.698,68.0092,-0.191530
19.729,68.0092,-0.188377
19.760,68.0092,-0.188377
19.791,68.0092,-0.188377
19.823,68.0092,-0.188377
19.855,68.0092,-0.188377
19.887,68.0092,-0.188377
19.917,68.0092,-0.188377
19.948,68.0092,-0.188377
19.980,68.0092,-0.185676
20.011,68.0092,-0.185676
20.042,68.0092,-0.185676
20.073,68.0092,-0.185676
20.104,68.0092,-0.185676
20.134,68.0092,-0.185676
20.165,68.0092,-0.185676
20.196,68.0092,-0.185676
20.228,68.0092,-0.183324
20.259,68.0092,-0.183324
20.290,68.0092,-0.183324
20.321,68.0092,-0.183324
20.352,68.0092,-0.183324
20.383,68.0092,-0.183324
20.414,68.0092,-0.183324
20.446,68.0092,-0.183324
20.476,68.0092,-0.181272
20.507,68.0092,-0.181272
20.538,68.0092,-0.181272
20.570,68.0092,-0.181272
20.601,68.0092,-0.181272
20.632,68.0092,-0.181272
20.663,68.0092,-0.181272
20.693,68.0092,-0.181272
20.724,68.0092,-0.179494
20.755,68.0092,-0.179494
20.787,68.0092,-0.179494
20.818,68.0092,-0.179494
20.850,68.0092,-0.179494
20.881,68.0092,-0.179494
20.912,68.0092,-0.179494
20.943,68.0092,-0.179494
20.974,68.0092,-0.177866
21.005,68.0092,-0.177866
21.036,68.0092,-0.177866
21.067,68.0092,-0.177866
21.098,68.0092,-0.177866
21.129,68.0092,-0.177866
21.160,68.0092,-0.177866
21.191,68.0092,-0.177866
21.222,68.0092,-0.176369
21.251,68.0092,-0.176369
21.282,68.0092,-0.176369
21.314,68.0092,-0.176369
21.344,68.0092,-0.176369
21.375,68.0092,-0.176369
21.405,68.0092,-0.176369
21.437,68.0092,-0.176369
21.468,68.0092,-0.176369
21.499,68.0092,-0.174967
21.531,68.0092,-0.174967
21.562,68.0092,-0.174967
21.592,68.0092,-0.174967
21.624,68.0092,-0.174967
21.655,68.0092,-0.174967
21.685,68.0092,-0.174967
21.717,68.0092,-0.174967
21.747,68.0092,-0.173443
21.780,68.0092,-0.173443
21.810,68.0092,-0.173443
21.842,68.0092,-0.173443
21.872,68.0092,-0.173443
21.903,68.0092,-0.173443
21.933,68.0092,-0.173443
21.964,68.0092,-0.173443
21.994,68.0092,-0.171561
22.025,68.0092,-0.171561
22.055,68.0092,-0.171561
22.087,68.0092,-0.171561
22.117,68.0092,-0.171561
22.150,68.0092,-0.171561
22.179,68.0092,-0.171561
22.211,68.0092,-0.171561
22.241,68.0091,-0.169255
22.273,68.0084,-0.169255
22.304,68.0070,-0.169255
22.334,68.0049,-0.169255
22.364,68.0021,-0.169255
22.395,67.9983,-0.169255
22.426,67.9940,-0.169255
22.457,67.9892,-0.169255
22.488,67.9833,-0.169255
22.519,67.9769,-0.102272
22.550,67.9696,-0.102272
22.581,67.9615,-0.102272
22.612,67.9528,-0.102272
22.642,67.9439,-0.102272
22.673,67.9337,-0.102272
22.705,67.9226,-0.102272
22.736,67.9109,-0.028928
22.767,67.8985,-0.028928
22.798,67.8853,-0.028928
22.830,67.8716,-0.028928
22.861,67.8566,-0.028928
22.892,67.8413,-0.028928
22.923,67.8253,-0.028928
22.954,67.8087,-0.028928
22.986,67.7910,-0.028928
23.016,67.7731,-0.028645
23.047,67.7539,-0.028645
23.078,67.7345,-0.028645
23.109,67.7142,-0.028645
23.140,67.6926,-0.028645
23.172,67.6710,-0.028645
23.202,67.6482,-0.028645
23.234,67.6250,-0.028645
23.264,67.6016,-0.028645
23.296,67.5759,-0.022321
23.327,67.5507,-0.022321
23.358,67.5243,-0.022321
23.389,67.4973,-0.022321
23.421,67.4689,-0.022321
23.450,67.4426,-0.022321
23.481,67.4133,-0.022321
23.512,67.3838,0.005806
23.545,67.3503,0.005806
23.573,67.3225,0.005806
23.604,67.2914,0.005806
23.635,67.2609,0.005806
23.670,67.2247,0.005806
23.697,67.1986,0.005806
23.729,67.1672,0.005806
23.760,67.1364,0.031017
23.790,67.1066,0.031017
23.820,67.0758,0.031017
23.850,67.0456,0.031017
23.881,67.0153,0.031017
23.913,66.9834,0.031017
23.943,66.9529,0.031017
23.973,66.9228,0.031017
24.004,66.8917,0.046149
24.036,66.8604,0.046149
24.066,66.8298,0.046149
24.097,66.7983,0.046149
24.129,66.7669,0.046149
24.163,66.7333,0.046149
24.193,66.7030,0.046149
24.224,66.6719,0.046149
24.256,66.6403,0.051635
24.286,66.6099,0.051635
24.317,66.5794,0.051635
24.348,66.5482,0.051635
24.379,66.5170,0.051635
24.409,66.4865,0.051635
24.440,66.4551,0.051635
24.471,66.4256,0.051635
24.502,66.3935,0.052689
24.532,66.3644,0.052689
24.563,66.3327,0.052689
24.595,66.3008,0.052689
24.625,66.2702,0.052689
24.657,66.2387,0.052689
24.688,66.2073,0.052689
24.719,66.1770,0.052049
24.750,66.1455,0.052049
24.781,66.1147,0.052049
24.812,66.0845,0.052049
24.843,66.0530,0.052049
24.874,66.0220,0.052049
24.906,65.9896,0.052049
24.937,65.9586,0.052049
24.968,65.9271,0.051070
24.999,65.8969,0.051070
25.030,65.8657,0.051070
25.061,65.8355,0.051070
25.093,65.8032,0.051070
25.123,65.7731,0.051070
25.155,65.7406,0.051070
25.185,65.7108,0.051070
25.217,65.6788,0.050553
25.247,65.6488,0.050553
25.278,65.6183,0.050553
25.309,65.5874,0.050553
25.340,65.5561,0.050553
25.371,65.5244,0.050553
25.402,65.4934,0.050553
25.433,65.4624,0.050553
25.465,65.4317,0.050553
25.496,65.4002,0.050863
25.527,65.3694,0.050863
25.560,65.3354,0.050863
25.588,65.3081,0.050863
25.619,65.2769,0.050863
25.650,65.2462,0.050863
25.682,65.2140,0.050863
25.713,65.1836,0.050863
25.745,65.1508,0.053093
25.775,65.1207,0.053093
25.806,65.0901,0.053093
25.837,65.0589,0.053093
25.869,65.0277,0.053093
25.903,64.9929,0.053093
25.932,64.9640,0.053093
25.963,64.9335,0.053093
25.994,64.9020,0.057441
26.026,64.8701,0.057441
26.057,64.8393,0.057441
26.088,64.8080,0.057441
26.119,64.7769,0.057441
26.149,64.7474,0.057441
26.179,64.7169,0.057441
26.211,64.6854,0.057441
26.241,64.6547,0.061902
26.272,64.6240,0.061902
26.302,64.5940,0.061902
26.333,64.5624,0.061902
26.364,64.5320,0.061902
26.395,64.5012,0.061902
26.426,64.4705,0.061902
26.457,64.4390,0.061902
26.488,64.4074,0.061902
26.519,64.3775,0.059304
26.550,64.3458,0.059304
26.581,64.3151,0.059304
26.612,64.2838,0.059304
26.642,64.2539,0.059304
26.674,64.2213,0.059304
26.708,64.1881,0.059304
26.737,64.1584,0.036032
26.769,64.1267,0.036032
26.799,64.0972,0.036032
26.830,64.0664,0.036032
26.861,64.0349,0.036032
26.895,64.0013,0.036032
26.923,63.9733,0.036032
26.954,63.9419,0.036032
26.984,63.9113,0.015932
27.015,63.8808,0.015932
27.046,63.8501,0.015932
27.076,63.8206,0.015932
27.107,63.7890,0.015932
27.141,63.7546,0.015932
27.169,63.7271,0.015932
27.199,63.6967,0.015932
27.230,63.6661,0.015932
27.261,63.6352,0.014247
27.292,63.6047,0.014247
27.326,63.5708,0.014247
27.357,63.5414,0.014247
27.384,63.5156,0.014247
27.415,63.4883,0.014247
27.446,63.4604,0.014247
27.477,63.4346,0.014247
27.509,63.4080,0.013720
27.539,63.3827,0.013720
27.570,63.3582,0.013720
27.602,63.3347,0.013720
27.632,63.3115,0.013720
27.664,63.2892,0.013720
27.694,63.2681,0.013720
27.725,63.2474,0.013335
27.756,63.2269,0.013335
27.788,63.2071,0.013335
27.820,63.1882,0.013335
27.849,63.1711,0.013335
27.880,63.1537,0.013335
27.910,63.1382,0.013335
27.941,63.1225,0.013335
27.972,63.1075,0.013335
28.003,63.0930,0.012977
28.033,63.0798,0.012977
28.065,63.0667,0.012977
28.096,63.0544,0.012977
28.126,63.0430,0.012977
28.157,63.0328,0.012977
28.187,63.0226,0.012977
28.217,63.0138,0.012742
28.248,63.0054,0.012742
28.280,62.9975,0.012742
28.311,62.9904,0.012742
28.342,62.9839,0.012742
28.371,62.9785,0.012742
28.403,62.9734,0.012742
28.434,62.9692,0.012742
28.466,62.9657,0.012742
28.497,62.9630,0.012553
28.528,62.9610,0.012553
28.560,62.9596,0.012553
28.590,62.9591,0.012553
28.620,62.9591,0.012553
28.652,62.9591,0.012553
28.683,62.9591,0.012553
28.715,62.9591,0.012553
28.749,62.9591,0.012356
28.778,62.9591,0.012356
28.809,62.9591,0.012356
28.840,62.9591,0.012356
28.870,62.9591,0.012356
28.904,62.9591,0.012356
28.932,62.9591,0.012356
28.964,62.9591,0.012356
28.996,62.9591,0.012309
29.029,62.9591,0.012309
29.057,62.9591,0.012309
29.088,62.9591,0.012309
29.119,62.9594,0.012309
29.150,62.9604,0.012309
29.182,62.9622,0.012309
29.213,62.9647,0.012309
29.244,62.9681,0.012328
29.280,62.9725,0.012328
29.306,62.9766,0.012328
29.338,62.9822,0.012328
29.368,62.9882,0.012328
29.399,62.9949,0.012328
29.433,63.0034,0.012328
29.462,63.0111,0.012328
29.493,63.0199,0.012121
29.524,63.0297,0.012121
29.557,63.0411,0.012121
29.586,63.0515,0.012121
29.617,63.0634,0.012121
29.647,63.0761,0.012121
29.678,63.0895,0.012121
29.710,63.1040,0.012121
29.740,63.1184,0.012121
29.772,63.1346,0.011838
29.803,63.1506,0.011838
29.833,63.1671,0.011838
29.864,63.1850,0.011838
29.895,63.2032,0.011838
29.926,63.2223,0.011838
29.957,63.2423,0.011838
29.988,63.2631,0.011838
30.019,63.2847,0.011556
30.050,63.3070,0.011556
30.080,63.3296,0.011556
30.114,63.3548,0.011556
30.143,63.3771,0.011556
30.173,63.4018,0.011556
30.204,63.4279,0.011556
30.238,63.4562,0.011556
30.265,63.4811,0.011132
30.297,63.5086,0.011132
30.326,63.5361,0.011132
30.356,63.5642,0.011132
30.387,63.5941,0.011132
30.418,63.6255,0.011132
30.448,63.6549,0.011132
30.479,63.6864,0.011132
30.510,63.7167,0.010615
30.541,63.7484,0.010615
30.572,63.7787,0.010615
30.602,63.8099,0.010615
30.633,63.8401,0.010615
30.665,63.8722,0.010615
30.696,63.9031,0.010615
30.726,63.9337,0.010615
30.757,63.9637,0.010173
30.788,63.9951,0.010173
30.820,64.0273,0.010173
30.851,64.0579,0.010173
30.881,64.0884,0.010173
30.912,64.1196,0.010173
30.944,64.1511,0.010173
30.975,64.1821,0.010173
31.006,64.2131,0.009712
31.037,64.2443,0.009712
31.069,64.2753,0.009712
31.099,64.3055,0.009712
31.130,64.3373,0.009712
31.161,64.3683,0.009712
31.193,64.3995,0.009712
31.228,64.4354,0.009712
31.255,64.4620,0.009712
31.284,64.4921,0.009043
31.318,64.5252,0.009043
31.349,64.5558,0.009043
31.381,64.5881,0.009043
31.412,64.6189,0.009043
31.443,64.6507,0.009043
31.474,64.6812,0.009043
31.505,64.7121,0.008338
31.535,64.7421,0.008338
31.566,64.7733,0.008338
31.597,64.8040,0.008338
31.628,64.8356,0.008338
31.659,64.8661,0.008338
31.690,64.8970,0.008338
31.722,64.9289,0.008338
31.754,64.9607,0.007585
31.785,64.9918,0.007585
31.816,65.0226,0.007585
31.847,65.0535,0.007585
31.877,65.0840,0.007585
31.908,65.1152,0.007585
31.940,65.1475,0.007585
31.971,65.1782,0.007585
32.003,65.2102,0.006587
32.034,65.2408,0.006587
32.066,65.2732,0.006587
32.096,65.3033,0.006587
32.127,65.3341,0.006587
32.160,65.3669,0.006587
32.189,65.3962,0.006587
32.221,65.4274,0.006587
32.252,65.4596,0.005279
32.283,65.4902,0.005279
32.314,65.5212,0.005279
32.345,65.5513,0.005279
32.376,65.5833,0.005279
32.407,65.6137,0.005279
32.438,65.6456,0.005279
32.469,65.6762,0.003623
32.501,65.7086,0.003623
32.533,65.7392,0.003623
32.563,65.7707,0.003623
32.594,65.8013,0.003623
32.624,65.8318,0.003623
32.656,65.8629,0.003623
32.687,65.8938,0.003623
32.718,65.9252,0.003623
32.748,65.9558,0.001167
32.779,65.9867,0.001167
32.810,66.0178,0.001167
32.841,66.0484,0.001167
32.872,66.0793,0.001167
32.903,66.1098,0.001167
32.934,66.1411,0.001167
32.964,66.1710,0.001167
32.995,66.2023,-0.002616
33.026,66.2332,-0.002616
33.058,66.2652,-0.002616
33.089,66.2961,-0.002616
33.121,66.3280,-0.002616
33.153,66.3595,-0.002616
33.184,66.3911,-0.002616
33.215,66.4221,-0.002616
33.246,66.4539,-0.008573
33.277,66.4841,-0.008573
33.309,66.5158,-0.008573
33.340,66.5471,-0.008573
33.371,66.5788,-0.008573
33.402,66.6088,-0.008573
33.433,66.6401,-0.008573
33.464,66.6707,-0.018049
33.495,66.7025,-0.018049
33.526,66.7324,-0.018049
33.557,66.7644,-0.018049
33.588,66.7952,-0.018049
33.620,66.8264,-0.018049
33.651,66.8573,-0.018049
33.682,66.8893,-0.018049
33.713,66.9198,-0.018049
33.744,66.9511,-0.032720
33.776,66.9831,-0.032720
33.808,67.0152,-0.032720
33.839,67.0457,-0.032720
33.870,67.0767,-0.032720
33.900,67.1071,-0.032720
33.932,67.1386,-0.032720
33.963,67.1697,-0.054608
33.994,67.2016,-0.054608
34.025,67.2326,-0.054608
34.056,67.2625,-0.054608
34.087,67.2940,-0.054608
34.119,67.3260,-0.054608
34.149,67.3543,-0.054608
34.180,67.3843,-0.054608
34.211,67.4122,-0.054608
34.243,67.4412,-0.054608
34.273,67.4676,-0.085738
34.304,67.4938,-0.085738
34.335,67.5196,-0.085738
34.366,67.5445,-0.085738
34.397,67.5687,-0.085738
34.429,67.5929,-0.085738
34.459,67.6148,-0.085738
34.490,67.6367,-0.124942
34.521,67.6580,-0.124942
34.552,67.6787,-0.124942
34.582,67.6984,-0.124942
34.613,67.7173,-0.124942
34.644,67.7359,-0.124942
34.676,67.7538,-0.124942
34.707,67.7707,-0.124942
34.737,67.7862,-0.124942
34.768,67.8022,-0.182336
34.800,67.8173,-0.182336
34.831,67.8313,-0.182336
34.862,67.8445,-0.182336
34.893,67.8568,-0.182336
34.923,67.8685,-0.182336
34.955,67.8796,-0.182336
34.986,67.8904,-0.182336
35.017,67.8997,-0.286330
35.048,67.9088,-0.286330
35.080,67.9171,-0.286330
35.111,67.9247,-0.286330
35.142,67.9312,-0.286330
35.173,67.9374,-0.286330
35.204,67.9426,-0.286330
35.235,67.9471,-0.286330
35.265,67.9508,-0.421040
35.301,67.9544,-0.421040
35.327,67.9564,-0.421040
35.358,67.9580,-0.421040
35.389,67.9589,-0.421040
35.419,67.9591,-0.421040
35.451,67.9591,-0.421040
35.481,67.9591,-0.421040
35.512,67.9591,-0.471460
35.543,67.9591,-0.471460
35.574,67.9591,-0.471460
35.604,67.9591,-0.471460
35.637,67.9591,-0.471460
35.667,67.9591,-0.471460
35.698,67.9591,-0.471460
35.728,67.9591,-0.365311
35.759,67.9591,-0.365311
35.791,67.9591,-0.365311
35.822,67.9591,-0.365311
35.853,67.9591,-0.365311
35.885,67.9591,-0.365311
35.917,67.9591,-0.365311
35.946,67.9591,-0.365311
35.977,67.9591,-0.256207
36.009,67.9591,-0.256207
36.039,67.9591,-0.256207
36.070,67.9591,-0.256207
36.101,67.9591,-0.256207
36.133,67.9591,-0.256207
36.164,67.9591,-0.256207
36.194,67.9591,-0.256207
36.226,67.9591,-0.256207
36.256,67.9591,-0.228625
36.288,67.9591,-0.228625
36.320,67.9591,-0.228625
36.351,67.9591,-0.228625
36.381,67.9591,-0.228625
36.412,67.9591,-0.228625
36.443,67.9591,-0.228625
36.474,67.9591,-0.228625
36.505,67.9591,-0.215573
36.537,67.9591,-0.215573
36.567,67.9591,-0.215573
36.598,67.9591,-0.215573
36.629,67.9591,-0.215573
36.661,67.9591,-0.215573
36.691,67.9591,-0.215573
36.721,67.9591,-0.215573
36.752,67.9591,-0.207029
36.783,67.9591,-0.207029
36.814,67.9591,-0.207029
36.847,67.9591,-0.207029
36.877,67.9591,-0.207029
36.909,67.9591,-0.207029
36.939,67.9591,-0.207029
36.971,67.9591,-0.207029
37.001,67.9591,-0.200836
37.032,67.9591,-0.200836
37.063,67.9591,-0.200836
37.094,67.9591,-0.200836
37.125,67.9591,-0.200836
37.155,67.9591,-0.200836
37.186,67.9591,-0.200836
37.217,67.9591,-0.200836
37.248,67.9591,-0.196056
37.279,67.9591,-0.196056
37.310,67.9591,-0.196056
37.341,67.9591,-0.196056
37.372,67.9591,-0.196056
37.404,67.9591,-0.196056
37.433,67.9591,-0.196056
37.464,67.9591,-0.196056
37.495,67.9591,-0.192207
37.531,67.9591,-0.192207
37.557,67.9591,-0.192207
37.588,67.9591,-0.192207
37.619,67.9591,-0.192207
37.655,67.9591,-0.192207
37.698,67.9591,-0.192207
37.726,67.9591,-0.192207
37.757,67.9591,-0.188885
37.788,67.9591,-0.188885
37.818,67.9591,-0.188885
37.849,67.9591,-0.188885
37.881,67.9591,-0.188885
37.913,67.9591,-0.188885
37.944,67.9591,-0.188885
37.974,67.9591,-0.186015
38.006,67.9591,-0.186015
38.038,67.9591,-0.186015
38.069,67.9591,-0.186015
38.100,67.9591,-0.186015
38.132,67.9591,-0.186015
38.164,67.9591,-0.186015
38.194,67.9591,-0.186015
38.226,67.9591,-0.186015
38.258,67.9591,-0.186015
38.287,67.9591,-0.183597
38.318,67.9591,-0.183597
38.349,67.9591,-0.183597
38.380,67.9591,-0.183597
38.411,67.9591,-0.183597
38.442,67.9591,-0.183597
38.473,67.9591,-0.181479
38.505,67.9591,-0.181479
38.535,67.9591,-0.181479
38.567,67.9591,-0.181479
38.599,67.9591,-0.181479
38.629,67.9591,-0.181479
38.660,67.9591,-0.181479
38.690,67.9591,-0.181479
38.721,67.9591,-0.179569
38.752,67.9591,-0.179569
38.783,67.9591,-0.179569
38.814,67.9591,-0.179569
38.845,67.9591,-0.179569
38.876,67.9591,-0.179569
38.907,67.9591,-0.179569
38.937,67.9591,-0.179569
38.969,67.9591,-0.179569
39.000,67.9591,-0.177819
39.034,67.9591,-0.177819
39.061,67.9591,-0.177819
39.093,67.9591,-0.177819
39.124,67.9591,-0.177819
39.155,67.9591,-0.177819
39.187,67.9591,-0.177819
39.217,67.9591,-0.177819
39.248,67.9591,-0.175974
39.279,67.9591,-0.175974
39.310,67.9591,-0.175974
39.342,67.9591,-0.175974
39.374,67.9591,-0.175974
39.400,67.9591,-0.175974
39.436,67.9591,-0.175974
39.467,67.9591,-0.175974
39.498,67.9591,-0.173725
39.529,67.9591,-0.173725
39.560,67.9591,-0.173725
39.592,67.9591,-0.173725
39.622,67.9591,-0.173725
39.654,67.9591,-0.173725
39.685,67.9591,-0.173725
39.716,67.9586,-0.171260
39.746,67.9574,-0.171260
39.778,67.9554,-0.171260
39.808,67.9528,-0.171260
39.840,67.9493,-0.171260
39.871,67.9451,-0.171260
39.902,67.9402,-0.171260
39.933,67.9346,-0.171260
39.964,67.9283,-0.171260
39.996,67.9209,-0.069966
40.027,67.9132,-0.069966
40.058,67.9047,-0.069966
40.088,67.8956,-0.069966
40.119,67.8856,-0.069966
40.150,67.8752,-0.069966
40.181,67.8636,-0.069966
40.212,67.8515,-0.069966
40.245,67.8375,-0.002663
40.274,67.8249,-0.002663
40.305,67.8108,-0.002663
40.336,67.7957,-0.002663
40.368,67.7796,-0.002663
40.397,67.7640,-0.002663
40.428,67.7468,-0.002663
40.458,67.7296,-0.002663
40.489,67.7106,-0.034376
40.519,67.6919,-0.034376
40.551,67.6712,-0.034376
40.582,67.6497,-0.034376
40.614,67.6282,-0.034376
40.645,67.6055,-0.034376
40.675,67.5829,-0.034376
40.706,67.5594,-0.034376
40.736,67.5357,-0.034376
40.768,67.5105,-0.018905
40.798,67.4847,-0.018905
40.829,67.4590,-0.018905
40.860,67.4304,-0.018905
40.891,67.4034,-0.018905
40.921,67.3749,-0.018905
40.952,67.3457,-0.018905
40.983,67.3153,-0.018905
41.013,67.2854,-0.018905
41.046,67.2531,0.009740
41.076,67.2232,0.009740
41.106,67.1923,0.009740
41.137,67.1617,0.009740
41.169,67.1302,0.009740
41.199,67.0997,0.009740
41.230,67.0684,0.009740
41.261,67.0383,0.033614
41.292,67.0064,0.033614
41.322,66.9756,0.033614
41.359,66.9393,0.033614
41.399,66.8990,0.033614
41.430,66.8686,0.033614
41.462,66.8370,0.033614
41.493,66.8050,0.046911
41.524,66.7742,0.046911
41.555,66.7437,0.046911
41.586,66.7116,0.046911
41.617,66.6811,0.046911
41.649,66.6501,0.046911
41.680,66.6192,0.046911
41.709,66.5889,0.046911
41.741,66.5580,0.051409
41.772,66.5268,0.051409
41.803,66.4950,0.051409
41.834,66.4650,0.051409
41.865,66.4339,0.051409
41.896,66.4028,0.051409
41.926,66.3725,0.051409
41.957,66.3410,0.051409
41.988,66.3112,0.052134
42.019,66.2794,0.052134
42.050,66.2487,0.052134
42.081,66.2174,0.052134
42.112,66.1863,0.052134
42.144,66.1542,0.052134
42.175,66.1236,0.052134
42.207,66.0916,0.052134
42.237,66.0617,0.051390
42.268,66.0298,0.051390
42.299,65.9997,0.051390
42.331,65.9676,0.051390
42.361,65.9378,0.051390
42.393,65.9053,0.051390
42.424,65.8742,0.051390
42.455,65.8417,0.051390
42.486,65.8123,0.050487
42.516,65.7823,0.050487
42.546,65.7524,0.050487
42.579,65.7189,0.050487
42.608,65.6900,0.050487
42.638,65.6604,0.050487
42.669,65.6285,0.050487
42.700,65.5986,0.050487
42.731,65.5677,0.050204
42.762,65.5371,0.050204
42.792,65.5058,0.050204
42.823,65.4751,0.050204
42.853,65.4454,0.050204
42.884,65.4150,0.050204
42.914,65.3844,0.050204
42.946,65.3529,0.050204
42.976,65.3228,0.050844
43.007,65.2914,0.050844
43.037,65.2614,0.050844
43.068,65.2307,0.050844
43.099,65.1990,0.050844
43.130,65.1682,0.050844
43.162,65.1357,0.050844
43.193,65.1055,0.050844
43.224,65.0736,0.050844
43.255,65.0432,0.053432
43.286,65.0122,0.053432
43.318,64.9802,0.053432
43.350,64.9490,0.053432
43.380,64.9177,0.053432
43.411,64.8878,0.053432
43.441,64.8571,0.053432
43.472,64.8264,0.057940
43.503,64.7948,0.057940
43.535,64.7640,0.057940
43.565,64.7329,0.057940
43.595,64.7032,0.057940
43.626,64.6724,0.057940
43.658,64.6406,0.057940
43.688,64.6108,0.057940
43.719,64.5793,0.057940
43.750,64.5486,0.057940
43.782,64.5165,0.062165
43.813,64.4862,0.062165
43.843,64.4549,0.062165
43.874,64.4245,0.062165
43.905,64.3928,0.062165
43.936,64.3630,0.062165
43.967,64.3308,0.062165
43.999,64.2993,0.052416
44.030,64.2680,0.052416
44.062,64.2374,0.052416
44.092,64.2066,0.052416
44.123,64.1756,0.052416
44.155,64.1437,0.052416
44.186,64.1116,0.052416
44.217,64.0822,0.052416
44.248,64.0507,0.028655
44.279,64.0197,0.028655
44.310,63.9887,0.028655
44.341,63.9574,0.028655
44.374,63.9245,0.028655
44.402,63.8968,0.028655
44.434,63.8651,0.028655
44.464,63.8346,0.028655
44.495,63.8034,0.028655
44.526,63.7721,0.015339
44.558,63.7400,0.015339
44.592,63.7069,0.015339
44.619,63.6792,0.015339
44.653,63.6449,0.015339
44.682,63.6158,0.015339
44.716,63.5825,0.015339
44.744,63.5551,0.015339
44.774,63.5253,0.014116
44.806,63.4945,0.014116
44.836,63.4663,0.014116
44.868,63.4375,0.014116
44.899,63.4100,0.014116
44.931,63.3827,0.014116
44.966,63.3540,0.014116
44.992,63.3319,0.014116
45.026,63.3064,0.013626
45.055,63.2838,0.013626
45.085,63.2613,0.013626
45.116,63.2393,0.013626
45.147,63.2177,0.013626
45.178,63.1969,0.013626
45.214,63.1736,0.013626
45.256,63.1480,0.013222
45.286,63.1299,0.013222
45.317,63.1127,0.013222
45.349,63.0953,0.013222
45.378,63.0799,0.013222
45.411,63.0636,0.013222
45.440,63.0503,0.013222
45.471,63.0358,0.013222
45.502,63.0230,0.013222
45.533,63.0100,0.012930
45.564,62.9987,0.012930
45.598,62.9862,0.012930
45.627,62.9769,0.012930
45.660,62.9663,0.012930
45.688,62.9588,0.012930
45.720,62.9506,0.012930
45.750,62.9431,0.012732
45.782,62.9363,0.012732
45.813,62.9305,0.012732
45.843,62.9253,0.012732
45.874,62.9208,0.012732
45.905,62.9172,0.012732
45.936,62.9141,0.012732
45.967,62.9118,0.012732
45.998,62.9101,0.012732
46.029,62.9093,0.012506
46.061,62.9092,0.012506
46.093,62.9092,0.012506
46.124,62.9092,0.012506
46.154,62.9092,0.012506
46.186,62.9092,0.012506
46.217,62.9092,0.012506
46.249,62.9092,0.012384
46.279,62.9092,0.012384
46.310,62.9092,0.012384
46.341,62.9092,0.012384
46.372,62.9092,0.012384
46.403,62.9092,0.012384
46.434,62.9092,0.012384
46.465,62.9092,0.012384
46.497,62.9092,0.012337
46.528,62.9092,0.012337
46.559,62.9092,0.012337
46.590,62.9092,0.012337
46.621,62.9092,0.012337
46.651,62.9095,0.012337
46.683,62.9108,0.012337
46.714,62.9126,0.012337
46.745,62.9152,0.012243
46.776,62.9187,0.012243
46.808,62.9227,0.012243
46.839,62.9276,0.012243
46.871,62.9332,0.012243
46.901,62.9397,0.012243
46.933,62.9466,0.012243
46.964,62.9543,0.012243
46.994,62.9627,0.012243
47.025,62.9720,0.012064
47.057,62.9821,0.012064
47.087,62.9926,0.012064
47.118,63.0038,0.012064
47.149,63.0158,0.012064
47.181,63.0288,0.012064
47.212,63.0424,0.012064
47.243,63.0569,0.011791
47.276,63.0731,0.011791
47.306,63.0882,0.011791
47.337,63.1046,0.011791
47.367,63.1215,0.011791
47.399,63.1396,0.011791
47.430,63.1584,0.011791
47.462,63.1788,0.011791
47.493,63.1987,0.011518
47.523,63.2188,0.011518
47.554,63.2409,0.011518
47.585,63.2630,0.011518
47.618,63.2873,0.011518
47.648,63.3101,0.011518
47.679,63.3349,0.011518
47.710,63.3607,0.011518
47.741,63.3865,0.011161
47.772,63.4132,0.011161
47.803,63.4403,0.011161
47.834,63.4686,0.011161
47.865,63.4970,0.011161
47.895,63.5259,0.011161
47.927,63.5571,0.011161
47.958,63.5890,0.011161
47.989,63.6194,0.010709
48.020,63.6508,0.010709
48.050,63.6798,0.010709
48.082,63.7132,0.010709
48.114,63.7448,0.010709
48.146,63.7763,0.010709
48.176,63.8072,0.010709
48.207,63.8376,0.010709
48.238,63.8685,0.010201
48.269,63.8997,0.010201
48.299,63.9296,0.010201
48.331,63.9612,0.010201
48.362,63.9925,0.010201
48.394,64.0246,0.010201
48.424,64.0550,0.010201
48.455,64.0865,0.010201
48.486,64.1160,0.009749
48.516,64.1472,0.009749
48.548,64.1779,0.009749
48.578,64.2089,0.009749
48.610,64.2398,0.009749
48.641,64.2719,0.009749
48.672,64.3023,0.009749
48.702,64.3331,0.009749
48.733,64.3631,0.009222
48.764,64.3942,0.009222
48.794,64.4247,0.009222
48.826,64.4561,0.009222
48.856,64.4875,0.009222
48.888,64.5181,0.009222
48.919,64.5506,0.009222
48.950,64.5807,0.009222
48.982,64.6120,0.009222
49.011,64.6425,0.008488
49.042,64.6729,0.008488
49.073,64.7043,0.008488
49.104,64.7349,0.008488
49.135,64.7655,0.008488
49.166,64.7963,0.008488
49.196,64.8268,0.008488
49.231,64.8614,0.008488
49.259,64.8897,0.007651
49.290,64.9212,0.007651
49.321,64.9517,0.007651
49.353,64.9834,0.007651
49.384,65.0148,0.007651
49.415,65.0460,0.007651
49.446,65.0761,0.007651
49.478,65.1083,0.007651
49.508,65.1385,0.006719
49.539,65.1695,0.006719
49.571,65.2020,0.006719
49.602,65.2321,0.006719
49.633,65.2631,0.006719
49.664,65.2946,0.006719
49.695,65.3256,0.006719
49.728,65.3581,0.006719
49.758,65.3881,0.005543
49.789,65.4191,0.005543
49.820,65.4503,0.005543
49.851,65.4809,0.005543
49.881,65.5118,0.005543
49.912,65.5427,0.005543
49.943,65.5737,0.005543
49.975,65.6053,0.005543
50.005,65.6358,0.003905
50.036,65.6671,0.003905
50.068,65.6981,0.003905
50.098,65.7288,0.003905
50.129,65.7596,0.003905
50.160,65.7902,0.003905
50.192,65.8220,0.003905
50.223,65.8531,0.001515
50.254,65.8853,0.001515
50.286,65.9163,0.001515
50.318,65.9485,0.001515
50.349,65.9800,0.001515
50.381,66.0118,0.001515
50.411,66.0412,0.001515
50.442,66.0730,0.001515
50.473,66.1028,0.001515
50.503,66.1340,-0.002042
50.534,66.1651,-0.002042
50.565,66.1963,-0.002042
50.597,66.2275,-0.002042
50.629,66.2593,-0.002042
50.662,66.2928,-0.002042
50.690,66.3207,-0.002042
50.719,66.3493,-0.002042
50.752,66.3819,-0.007745
50.782,66.4132,-0.007745
50.813,66.4436,-0.007745
50.848,66.4800,-0.007745
50.876,66.5058,-0.007745
50.906,66.5363,-0.007745
50.937,66.5671,-0.007745
50.968,66.5986,-0.007745
50.999,66.6294,-0.016854
51.030,66.6607,-0.016854
51.060,66.6906,-0.016854
51.093,66.7239,-0.016854
51.123,66.7535,-0.016854
51.157,66.7872,-0.016854
51.186,66.8168,-0.016854
51.217,66.8476,-0.016854
51.247,66.8774,-0.016854
51.278,66.9079,-0.030970
51.309,66.9394,-0.030970
51.339,66.9694,-0.030970
51.369,66.9998,-0.030970
51.400,67.0307,-0.030970
51.431,67.0616,-0.030970
51.465,67.0954,-0.030970
51.493,67.1227,-0.052124
51.524,67.1545,-0.052124
51.555,67.1861,-0.052124
51.587,67.2172,-0.052124
51.617,67.2477,-0.052124
51.648,67.2782,-0.052124
51.679,67.3084,-0.052124
51.710,67.3382,-0.052124
51.742,67.3675,-0.082275
51.774,67.3947,-0.082275
51.804,67.4216,-0.082275
51.834,67.4469,-0.082275
51.865,67.4726,-0.082275
51.896,67.4975,-0.082275
51.927,67.5215,-0.082275
51.958,67.5444,-0.082275
51.989,67.5673,-0.082275
52.019,67.5886,-0.120820
52.050,67.6098,-0.120820
52.081,67.6304,-0.120820
52.112,67.6502,-0.120820
52.142,67.6686,-0.120820
52.173,67.6865,-0.120820
52.203,67.7040,-0.120820
52.234,67.7210,-0.120820
52.265,67.7371,-0.174873
52.297,67.7528,-0.174873
52.327,67.7674,-0.174873
52.359,67.7818,-0.174873
52.390,67.7952,-0.174873
52.421,67.8075,-0.174873
52.452,67.8190,-0.174873
52.483,67.8303,-0.174873
52.513,67.8404,-0.274115
52.545,67.8504,-0.274115
52.576,67.8591,-0.274115
52.607,67.8674,-0.274115
52.638,67.8747,-0.274115
52.668,67.8815,-0.274115
52.699,67.8872,-0.274115
52.730,67.8927,-0.274115
52.761,67.8971,-0.410368
52.794,67.9012,-0.410368
52.823,67.9041,-0.410368
52.855,67.9066,-0.410368
52.886,67.9080,-0.410368
52.916,67.9089,-0.410368
52.948,67.9092,-0.410368
52.977,67.9092,-0.410368
53.008,67.9092,-0.482885
53.040,67.9092,-0.482885
53.071,67.9092,-0.482885
53.096,67.9092,-0.482885
53.133,67.9092,-0.482885
53.164,67.9092,-0.482885
53.195,67.9092,-0.482885
53.227,67.9092,-0.482885
53.258,67.9092,-0.383445
53.289,67.9092,-0.383445
53.320,67.9092,-0.383445
53.350,67.9092,-0.383445
53.381,67.9092,-0.383445
53.412,67.9092,-0.383445
53.443,67.9092,-0.383445
53.474,67.9092,-0.383445
53.506,67.9092,-0.258005
53.537,67.9092,-0.258005
53.568,67.9092,-0.258005
53.599,67.9092,-0.258005
53.630,67.9092,-0.258005
53.661,67.9092,-0.258005
53.692,67.9092,-0.258005
53.723,67.9092,-0.258005
53.754,67.9092,-0.258005
53.785,67.9092,-0.227440
53.817,67.9092,-0.227440
53.848,67.9092,-0.227440
53.879,67.9092,-0.227440
53.909,67.9092,-0.227440
53.941,67.9092,-0.227440
53.971,67.9092,-0.227440
54.002,67.9092,-0.215733
54.033,67.9092,-0.215733
54.065,67.9092,-0.215733
54.096,67.9092,-0.215733
54.128,67.9092,-0.215733
54.159,67.9092,-0.215733
54.190,67.9092,-0.215733
54.221,67.9092,-0.215733
54.253,67.9092,-0.215733
54.283,67.9092,-0.207461
54.314,67.9092,-0.207461
54.345,67.9092,-0.207461
54.376,67.9092,-0.207461
54.407,67.9092,-0.207461
54.438,67.9092,-0.207461
54.468,67.9092,-0.207461
54.494,67.9092,-0.207461
54.531,67.9092,-0.201279
54.563,67.9092,-0.201279
54.593,67.9092,-0.201279
54.624,67.9092,-0.201279
54.655,67.9092,-0.201279
54.686,67.9092,-0.201279
54.720,67.9092,-0.201279
54.748,67.9092,-0.196451
54.778,67.9092,-0.196451
54.809,67.9092,-0.196451
54.840,67.9092,-0.196451
54.871,67.9092,-0.196451
54.902,67.9092,-0.196451
54.933,67.9092,-0.196451
54.964,67.9092,-0.196451
54.996,67.9092,-0.196451
55.027,67.9092,-0.192508
55.059,67.9092,-0.192508
55.090,67.9092,-0.192508
55.121,67.9092,-0.192508
55.154,67.9092,-0.192508
55.183,67.9092,-0.192508
55.216,67.9092,-0.192508
55.245,67.9092,-0.189243
55.276,67.9092,-0.189243
55.307,67.9092,-0.189243
55.338,67.9092,-0.189243
55.369,67.9092,-0.189243
55.400,67.9092,-0.189243
55.430,67.9092,-0.189243
55.461,67.9092,-0.189243
55.492,67.9092,-0.186457
55.524,67.9092,-0.186457
55.555,67.9092,-0.186457
55.581,67.9092,-0.186457
55.618,67.9092,-0.186457
55.649,67.9092,-0.186457
55.680,67.9092,-0.186457
55.711,67.9092,-0.186457
55.742,67.9092,-0.183982
55.773,67.9092,-0.183982
55.804,67.9092,-0.183982
55.835,67.9092,-0.183982
55.867,67.9092,-0.183982
55.898,67.9092,-0.183982
55.929,67.9092,-0.183982
55.960,67.9092,-0.183982
55.991,67.9092,-0.181771
56.022,67.9092,-0.181771
56.053,67.9092,-0.181771
56.085,67.9092,-0.181771
56.120,67.9092,-0.181771
56.146,67.9092,-0.181771
56.178,67.9092,-0.181771
56.208,67.9092,-0.181771
56.240,67.9092,-0.181771
56.271,67.9092,-0.179870
56.302,67.9092,-0.179870
56.334,67.9092,-0.179870
56.366,67.9092,-0.179870
56.397,67.9092,-0.179870
56.427,67.9092,-0.179870
56.458,67.9092,-0.179870
56.490,67.9092,-0.179870
56.521,67.9092,-0.178157
56.552,67.9092,-0.178157
56.582,67.9092,-0.178157
56.612,67.9092,-0.178157
56.643,67.9092,-0.178157
56.674,67.9092,-0.178157
56.704,67.9092,-0.178157
56.735,67.9092,-0.178157
56.767,67.9092,-0.176595
56.798,67.9092,-0.176595
56.829,67.9092,-0.176595
56.860,67.9092,-0.176595
56.891,67.9092,-0.176595
56.923,67.9092,-0.176595
56.954,67.9092,-0.176595
56.985,67.9092,-0.176595
57.016,67.9092,-0.174996
57.047,67.9092,-0.174996
57.078,67.9092,-0.174996
57.108,67.9092,-0.174996
57.140,67.9092,-0.174996
57.171,67.9092,-0.174996
57.202,67.9092,-0.174996
57.233,67.9092,-0.174996
57.268,67.9092,-0.172972
57.296,67.9092,-0.172972
57.326,67.9092,-0.172972
57.358,67.9092,-0.172972
57.389,67.9092,-0.172972
57.422,67.9092,-0.172972
57.451,67.9092,-0.172972
57.483,67.9092,-0.172972
57.513,67.9092,-0.170676
57.544,67.9085,-0.170676
57.577,67.9070,-0.170676
57.606,67.9053,-0.170676
57.637,67.9025,-0.170676
57.668,67.8991,-0.170676
57.699,67.8949,-0.170676
57.731,67.8899,-0.170676
57.761,67.8845,-0.129073
57.792,67.8780,-0.129073
57.822,67.8712,-0.129073
57.853,67.8633,-0.129073
57.884,67.8548,-0.129073
57.915,67.8453,-0.129073
57.946,67.8355,-0.129073
57.979,67.8242,-0.129073
58.009,67.8130,-0.044483
58.042,67.8001,-0.044483
58.073,67.7874,-0.044483
58.104,67.7732,-0.044483
58.135,67.7590,-0.044483
58.167,67.7432,-0.044483
58.198,67.7275,-0.044483
58.230,67.7103,-0.019687
58.260,67.6934,-0.019687
58.291,67.6754,-0.019687
58.322,67.6569,-0.019687
58.353,67.6374,-0.019687
58.384,67.6170,-0.019687
58.415,67.5957,-0.019687
58.446,67.5740,-0.019687
58.477,67.5517,-0.025944
58.508,67.5284,-0.025944
58.540,67.5038,-0.025944
58.573,67.4772,-0.025944
58.602,67.4541,-0.025944
58.633,67.4277,-0.025944
58.665,67.4002,-0.025944
58.696,67.3724,-0.025944
58.727,67.3439,0.002042
58.758,67.3148,0.002042
58.789,67.2859,0.002042
58.820,67.2556,0.002042
58.851,67.2242,0.002042
58.882,67.1930,0.002042
58.913,67.1618,0.002042
58.944,67.1313,0.002042
58.974,67.1008,0.002042
59.005,67.0698,0.028344
59.036,67.0384,0.028344
59.066,67.0087,0.028344
59.098,66.9769,0.028344
59.129,66.9460,0.028344
59.160,66.9154,0.028344
59.191,66.8839,0.028344
59.221,66.8542,0.028344
59.252,66.8223,0.044897
59.283,66.7920,0.044897
59.314,66.7601,0.044897
59.345,66.7292,0.044897
59.377,66.6987,0.044897
59.408,66.6672,0.044897
59.439,66.6363,0.044897
59.469,66.6051,0.051418
59.501,66.5739,0.051418
59.532,66.5425,0.051418
59.563,66.5119,0.051418
59.594,66.4804,0.051418
59.626,66.4494,0.051418
59.657,66.4170,0.051418
59.688,66.3868,0.051418
59.719,66.3564,0.052933
59.750,66.3246,0.052933
59.781,66.2941,0.052933
59.812,66.2627,0.052933
59.844,66.2316,0.052933
59.874,66.2004,0.052933
59.905,66.1699,0.052933
59.937,66.1381,0.052933
59.967,66.1077,0.052933
59.999,66.0757,0.052444
60.031,66.0437,0.052444
60.061,66.0137,0.052444
60.093,65.9823,0.052444
60.124,65.9501,0.052444
60.155,65.9198,0.052444
60.187,65.8871,0.052444
60.218,65.8572,0.052444
60.250,65.8237,0.051343
60.281,65.7944,0.051343
60.312,65.7629,0.051343
60.343,65.7319,0.051343
60.374,65.7007,0.051343
60.405,65.6692,0.051343
60.436,65.6394,0.051343
60.467,65.6080,0.051343
60.499,65.5755,0.050703
60.530,65.5450,0.050703
60.561,65.5141,0.050703
60.591,65.4840,0.050703
60.622,65.4520,0.050703
60.653,65.4217,0.050703
60.685,65.3896,0.050703
60.715,65.3597,0.050703
60.746,65.3284,0.050920
60.777,65.2978,0.050920
60.809,65.2657,0.050920
60.840,65.2353,0.050920
60.871,65.2023,0.050920
60.902,65.1733,0.050920
60.932,65.1429,0.050920
60.962,65.1127,0.050920
60.994,65.0815,0.052999
61.024,65.0500,0.052999
61.056,65.0190,0.052999
61.087,64.9885,0.052999
61.118,64.9567,0.052999
61.149,64.9261,0.052999
61.179,64.8963,0.052999
61.210,64.8648,0.052999
61.240,64.8346,0.052999
61.271,64.8040,0.057281
61.302,64.7731,0.057281
61.333,64.7418,0.057281
61.364,64.7101,0.057281
61.395,64.6802,0.057281
61.426,64.6481,0.057281
61.458,64.6171,0.057281
61.489,64.5856,0.057281
61.519,64.5561,0.057281
61.551,64.5246,0.062014
61.580,64.4942,0.062014
61.612,64.4632,0.062014
61.643,64.4320,0.062014
61.673,64.4018,0.062014
61.705,64.3706,0.062014
61.735,64.3398,0.062664
61.766,64.3089,0.062664
61.797,64.2780,0.062664
61.828,64.2474,0.062664
61.859,64.2164,0.062664
61.891,64.1839,0.062664
61.922,64.1531,0.062664
61.953,64.1220,0.062664
61.985,64.0904,0.039806
62.015,64.0592,0.039806
62.046,64.0290,0.039806
62.077,63.9981,0.039806
62.107,63.9681,0.039806
62.137,63.9379,0.039806
62.170,63.9052,0.039806
62.200,63.8749,0.039806
62.231,63.8444,0.039806
62.263,63.8127,0.016609
62.293,63.7819,0.016609
62.324,63.7513,0.016609
62.355,63.7196,0.016609
62.386,63.6895,0.016609
62.416,63.6583,0.016609
62.447,63.6282,0.016609
62.478,63.5969,0.016609
62.509,63.5665,0.014407
62.539,63.5352,0.014407
62.571,63.5047,0.014407
62.602,63.4738,0.014407
62.632,63.4453,0.014407
62.665,63.4144,0.014407
62.694,63.3884,0.014407
62.726,63.3600,0.014407
62.756,63.3341,0.013824
62.790,63.3059,0.013824
62.818,63.2836,0.013824
62.850,63.2572,0.013824
62.879,63.2355,0.013824
62.911,63.2124,0.013824
62.942,63.1894,0.013824
62.974,63.1676,0.013824
63.005,63.1462,0.013410
63.037,63.1261,0.013410
63.068,63.1067,0.013410
63.099,63.0882,0.013410
63.130,63.0704,0.013410
63.161,63.0530,0.013410
63.192,63.0369,0.013410
63.223,63.0210,0.013410
63.253,63.0064,0.013127
63.284,62.9921,0.013127
63.314,62.9790,0.013127
63.345,62.9661,0.013127
63.376,62.9540,0.013127
63.407,62.9424,0.013127
63.438,62.9321,0.013127
63.471,62.9214,0.013127
63.500,62.9127,0.012892
63.531,62.9043,0.012892
63.562,62.8966,0.012892
63.593,62.8897,0.012892
63.624,62.8832,0.012892
63.655,62.8778,0.012892
63.686,62.8731,0.012892
63.717,62.8688,0.012892
63.748,62.8655,0.012648
63.779,62.8628,0.012648
63.810,62.8609,0.012648
63.841,62.8597,0.012648
63.872,62.8592,0.012648
63.902,62.8592,0.012648
63.932,62.8592,0.012648
63.964,62.8592,0.012648
63.995,62.8592,0.012412
64.025,62.8592,0.012412
64.056,62.8592,0.012412
64.087,62.8592,0.012412
64.118,62.8592,0.012412
64.150,62.8592,0.012412
64.181,62.8592,0.012412
64.212,62.8592,0.012412
64.243,62.8592,0.012356
64.274,62.8592,0.012356
64.304,62.8592,0.012356
64.335,62.8592,0.012356
64.366,62.8592,0.012356
64.398,62.8592,0.012356
64.428,62.8593,0.012356
64.459,62.8600,0.012356
64.490,62.8615,0.012356
64.521,62.8638,0.012356
64.552,62.8666,0.012356
64.582,62.8702,0.012356
64.613,62.8747,0.012356
64.644,62.8798,0.012356
64.674,62.8855,0.012356
64.705,62.8922,0.012356
64.737,62.8995,0.012092
64.767,62.9074,0.012092
64.798,62.9160,0.012092
64.829,62.9253,0.012092
64.860,62.9356,0.012092
64.891,62.9464,0.012092
64.921,62.9579,0.012092
64.953,62.9705,0.012092
64.986,62.9844,0.012092
65.015,62.9972,0.011876
65.046,63.0120,0.011876
65.077,63.0270,0.011876
65.108,63.0430,0.011876
65.139,63.0598,0.011876
65.170,63.0781,0.011876
65.201,63.0957,0.011876
65.232,63.1145,0.011876
65.263,63.1343,0.011678
65.297,63.1572,0.011678
65.325,63.1759,0.011678
65.357,63.1979,0.011678
65.387,63.2205,0.011678
65.420,63.2448,0.011678
65.449,63.2676,0.011678
65.480,63.2916,0.011678
65.510,63.3172,0.011330
65.542,63.3435,0.011330
65.572,63.3698,0.011330
65.608,63.4019,0.011330
65.634,63.4258,0.011330
65.666,63.4551,0.011330
65.697,63.4852,0.011330
65.728,63.5158,0.010878
65.758,63.5459,0.010878
65.789,63.5776,0.010878
65.820,63.6080,0.010878
65.852,63.6401,0.010878
65.884,63.6718,0.010878
65.915,63.7024,0.010878
65.944,63.7325,0.010878
65.977,63.7643,0.010417
66.008,63.7965,0.010417
66.040,63.8278,0.010417
66.070,63.8579,0.010417
66.100,63.8883,0.010417
66.131,63.9188,0.010417
66.162,63.9493,0.010417
66.193,63.9813,0.010417
66.224,64.0125,0.009834
66.255,64.0427,0.009834
66.286,64.0742,0.009834
66.317,64.1050,0.009834
66.349,64.1375,0.009834
66.380,64.1682,0.009834
66.411,64.1996,0.009834
66.442,64.2301,0.009834
66.474,64.2622,0.009834
66.505,64.2934,0.009222
66.541,64.3290,0.009222
66.567,64.3551,0.009222
66.600,64.3878,0.009222
66.630,64.4183,0.009222
66.661,64.4490,0.009222
66.691,64.4789,0.009222
66.722,64.5098,0.009222
66.752,64.5412,0.008573
66.784,64.5719,0.008573
66.815,64.6038,0.008573
66.846,64.6338,0.008573
66.876,64.6648,0.008573
66.907,64.6947,0.008573
66.937,64.7261,0.008573
66.968,64.7557,0.008573
66.999,64.7871,0.007829
67.030,64.8177,0.007829
67.061,64.8486,0.007829
67.092,64.8806,0.007829
67.122,64.9100,0.007829
67.153,64.9412,0.007829
67.184,64.9720,0.007829
67.215,65.0029,0.007829
67.246,65.0337,0.006954
67.277,65.0653,0.006954
67.308,65.0954,0.006954
67.339,65.1273,0.006954
67.370,65.1579,0.006954
67.401,65.1887,0.006954
67.432,65.2202,0.006954
67.463,65.2517,0.006954
67.494,65.2830,0.006954
67.526,65.3145,0.005778
67.557,65.3446,0.005778
67.587,65.3750,0.005778
67.619,65.4071,0.005778
67.650,65.4377,0.005778
67.682,65.4700,0.005778
67.711,65.4991,0.005778
67.742,65.5298,0.004197
67.774,65.5614,0.004197
67.804,65.5918,0.004197
67.835,65.6234,0.004197
67.866,65.6540,0.004197
67.897,65.6857,0.004197
67.928,65.7164,0.004197
67.960,65.7477,0.004197
67.990,65.7777,0.001957
68.025,65.8138,0.001957
68.052,65.8402,0.001957
68.083,65.8712,0.001957
68.114,65.9015,0.001957
68.144,65.9321,0.001957
68.175,65.9626,0.001957
68.206,65.9947,0.001957
68.236,66.0245,-0.001383
68.267,66.0556,-0.001383
68.298,66.0861,-0.001383
68.330,66.1181,-0.001383
68.361,66.1488,-0.001383
68.393,66.1809,-0.001383
68.423,66.2110,-0.001383
68.455,66.2428,-0.001383
68.485,66.2729,-0.006625
68.516,66.3044,-0.006625
68.547,66.3346,-0.006625
68.577,66.3652,-0.006625
68.608,66.3956,-0.006625
68.642,66.4299,-0.006625
68.670,66.4582,-0.006625
68.701,66.4890,-0.006625
68.732,66.5203,-0.014991
68.763,66.5510,-0.014991
68.794,66.5826,-0.014991
68.825,66.6137,-0.014991
68.856,66.6445,-0.014991
68.888,66.6757,-0.014991
68.919,66.7067,-0.014991
68.949,66.7373,-0.014991
68.981,66.7689,-0.028184
69.012,66.7998,-0.028184
69.043,66.8313,-0.028184
69.074,66.8617,-0.028184
69.105,66.8935,-0.028184
69.136,66.9247,-0.028184
69.167,66.9552,-0.028184
69.199,66.9864,-0.028184
69.231,67.0189,-0.047984
69.261,67.0489,-0.047984
69.293,67.0804,-0.047984
69.323,67.1111,-0.047984
69.354,67.1421,-0.047984
69.385,67.1728,-0.047984
69.416,67.2038,-0.047984
69.447,67.2342,-0.047984
69.478,67.2650,-0.047984
69.509,67.2934,-0.076459
69.540,67.3222,-0.076459
69.571,67.3493,-0.076459
69.603,67.3767,-0.076459
69.634,67.4029,-0.076459
69.665,67.4289,-0.076459
69.696,67.4529,-0.076459
69.727,67.4768,-0.076459
69.757,67.4993,-0.113677
69.789,67.5227,-0.113677
69.820,67.5443,-0.113677
69.851,67.5660,-0.113677
69.882,67.5857,-0.113677
69.915,67.6065,-0.113677
69.945,67.6244,-0.113677
69.979,67.6451,-0.113677
70.007,67.6600,-0.162969
70.038,67.6775,-0.162969
70.070,67.6932,-0.162969
70.102,67.7090,-0.162969
70.132,67.7227,-0.162969
70.162,67.7361,-0.162969
70.193,67.7493,-0.162969
70.223,67.7616,-0.162969
70.254,67.7727,-0.162969
70.285,67.7835,-0.253130
70.316,67.7936,-0.253130
70.347,67.8032,-0.253130
70.377,67.8116,-0.253130
70.408,67.8197,-0.253130
70.440,67.8268,-0.253130
70.470,67.8333,-0.253130
70.501,67.8390,-0.386682
70.532,67.8442,-0.386682
70.563,67.8484,-0.386682
70.595,67.8521,-0.386682
70.625,67.8548,-0.386682
70.657,67.8571,-0.386682
70.687,67.8584,-0.386682
70.719,67.8591,-0.386682
70.750,67.8592,-0.480805
70.782,67.8592,-0.480805
70.812,67.8592,-0.480805
70.844,67.8592,-0.480805
70.874,67.8592,-0.480805
70.906,67.8592,-0.480805
70.936,67.8592,-0.480805
70.967,67.8592,-0.480805
70.998,67.8592,-0.401146
71.030,67.8592,-0.401146
71.060,67.8592,-0.401146
71.090,67.8592,-0.401146
71.122,67.8592,-0.401146
71.153,67.8592,-0.401146
71.184,67.8592,-0.401146
71.215,67.8592,-0.401146
71.246,67.8592,-0.269928
71.278,67.8592,-0.269928
71.310,67.8592,-0.269928
71.341,67.8592,-0.269928
71.372,67.8592,-0.269928
71.403,67.8592,-0.269928
71.436,67.8592,-0.269928
71.465,67.8592,-0.230931
71.496,67.8592,-0.230931
71.528,67.8592,-0.230931
71.558,67.8592,-0.230931
71.590,67.8592,-0.230931
71.620,67.8592,-0.230931
71.651,67.8592,-0.230931
71.682,67.8592,-0.230931
71.713,67.8592,-0.230931
71.743,67.8592,-0.216721
71.773,67.8592,-0.216721
71.805,67.8592,-0.216721
71.835,67.8592,-0.216721
71.866,67.8592,-0.216721
71.897,67.8592,-0.216721
71.928,67.8592,-0.216721
71.959,67.8592,-0.216721
71.990,67.8592,-0.216721
72.021,67.8592,-0.208214
72.052,67.8592,-0.208214
72.082,67.8592,-0.208214
72.115,67.8592,-0.208214
72.145,67.8592,-0.208214
72.177,67.8592,-0.208214
72.208,67.8592,-0.208214
72.238,67.8592,-0.208214
72.270,67.8592,-0.201787
72.301,67.8592,-0.201787
72.332,67.8592,-0.201787
72.363,67.8592,-0.201787
72.394,67.8592,-0.201787
72.425,67.8592,-0.201787
72.457,67.8592,-0.201787
72.488,67.8592,-0.196790
72.520,67.8592,-0.196790
72.551,67.8592,-0.196790
72.582,67.8592,-0.196790
72.612,67.8592,-0.196790
72.644,67.8592,-0.196790
72.676,67.8592,-0.196790
72.706,67.8592,-0.196790
72.738,67.8592,-0.196790
72.769,67.8592,-0.192678
72.801,67.8592,-0.192678
72.830,67.8592,-0.192678
72.861,67.8592,-0.192678
72.892,67.8592,-0.192678
72.924,67.8592,-0.192678
72.955,67.8592,-0.192678
72.986,67.8592,-0.192678
73.018,67.8592,-0.192678
73.048,67.8592,-0.189328
73.079,67.8592,-0.189328
73.110,67.8592,-0.189328
73.141,67.8592,-0.189328
73.172,67.8592,-0.189328
73.203,67.8592,-0.189328
73.234,67.8592,-0.189328
73.264,67.8592,-0.186486
73.297,67.8592,-0.186486
73.326,67.8592,-0.186486
73.360,67.8592,-0.186486
73.388,67.8592,-0.186486
73.420,67.8592,-0.186486
73.450,67.8592,-0.186486
73.481,67.8592,-0.186486
73.512,67.8592,-0.183964
73.543,67.8592,-0.183964
73.573,67.8592,-0.183964
73.604,67.8592,-0.183964
73.635,67.8592,-0.183964
73.666,67.8592,-0.183964
73.696,67.8592,-0.183964
73.727,67.8592,-0.183964
73.758,67.8592,-0.181743
73.792,67.8592,-0.181743
73.820,67.8592,-0.181743
73.851,67.8592,-0.181743
73.882,67.8592,-0.181743
73.913,67.8592,-0.181743
73.944,67.8592,-0.181743
73.976,67.8592,-0.181743
74.007,67.8592,-0.179795
74.038,67.8592,-0.179795
74.069,67.8592,-0.179795
74.100,67.8592,-0.179795
74.131,67.8592,-0.179795
74.162,67.8592,-0.179795
74.193,67.8592,-0.179795
74.224,67.8592,-0.179795
74.255,67.8592,-0.178016
74.286,67.8592,-0.178016
74.317,67.8592,-0.178016
74.349,67.8592,-0.178016
74.380,67.8592,-0.178016
74.411,67.8592,-0.178016
74.442,67.8592,-0.178016
74.473,67.8592,-0.178016
74.504,67.8592,-0.176398
74.540,67.8592,-0.176398
74.567,67.8592,-0.176398
74.598,67.8592,-0.176398
74.630,67.8592,-0.176398
74.661,67.8592,-0.176398
74.692,67.8592,-0.176398
74.724,67.8592,-0.176398
74.754,67.8592,-0.175061
74.785,67.8592,-0.175061
74.816,67.8592,-0.175061
74.847,67.8592,-0.175061
74.878,67.8592,-0.175061
74.909,67.8592,-0.175061
74.940,67.8592,-0.175061
74.971,67.8592,-0.175061
75.002,67.8592,-0.173480
75.032,67.8592,-0.173480
75.063,67.8592,-0.173480
75.094,67.8592,-0.173480
75.124,67.8592,-0.173480
75.156,67.8592,-0.173480
75.186,67.8592,-0.173480
75.218,67.8592,-0.173480
75.247,67.8592,-0.171297
75.280,67.8592,-0.171297
75.311,67.8592,-0.171297
75.342,67.8592,-0.171297
75.373,67.8592,-0.171297
75.404,67.8592,-0.171297
75.437,67.8592,-0.171297
75.467,67.8587,-0.168907
75.498,67.8574,-0.168907
75.529,67.8556,-0.168907
75.560,67.8529,-0.168907
75.591,67.8495,-0.168907
75.622,67.8454,-0.168907
75.653,67.8406,-0.168907
75.683,67.8351,-0.168907
75.715,67.8287,-0.168907
75.746,67.8216,-0.038197
75.777,67.8139,-0.038197
75.808,67.8055,-0.038197
75.838,67.7964,-0.038197
75.869,67.7867,-0.038197
75.900,67.7760,-0.038197
75.931,67.7644,-0.038197
75.962,67.7521,-0.038197
75.993,67.7395,0.027412
76.024,67.7262,0.027412
76.055,67.7117,0.027412
76.086,67.6967,0.027412
76.118,67.6805,0.027412
76.149,67.6638,0.027412
76.180,67.6472,0.027412
76.210,67.6295,0.027412
76.241,67.6111,-0.034357
76.272,67.5914,-0.034357
76.303,67.5714,-0.034357
76.333,67.5515,-0.034357
76.363,67.5303,-0.034357
76.395,67.5076,-0.034357
76.425,67.4850,-0.034357
76.457,67.4603,-0.034357
76.488,67.4366,-0.034357
76.518,67.4117,-0.017767
76.549,67.3859,-0.017767
76.580,67.3599,-0.017767
76.612,67.3315,-0.017767
76.643,67.3036,-0.017767
76.674,67.2740,-0.017767
76.705,67.2448,-0.017767
76.737,67.2141,-0.017767
76.768,67.1834,0.010878
76.799,67.1519,0.010878
76.830,67.1204,0.010878
76.861,67.0894,0.010878
76.892,67.0586,0.010878
76.923,67.0267,0.010878
76.955,66.9956,0.010878
76.986,66.9637,0.034696
77.018,66.9328,0.034696
77.049,66.9016,0.034696
77.080,66.8703,0.034696
77.111,66.8401,0.034696
77.142,66.8084,0.034696
77.172,66.7786,0.034696
77.203,66.7478,0.034696
77.234,66.7169,0.034696
77.268,66.6826,0.047918
77.296,66.6549,0.047918
77.327,66.6234,0.047918
77.358,66.5930,0.047918
77.389,66.5614,0.047918
77.419,66.5316,0.047918
77.451,66.5001,0.047918
77.481,66.4689,0.047918
77.515,66.4360,0.052529
77.543,66.4077,0.052529
77.574,66.3768,0.052529
77.606,66.3452,0.052529
77.636,66.3142,0.052529
77.666,66.2848,0.052529
77.700,66.2506,0.052529
77.727,66.2236,0.052529
77.758,66.1922,0.053310
77.790,66.1615,0.053310
77.821,66.1295,0.053310
77.852,66.0990,0.053310
77.883,66.0669,0.053310
77.915,66.0365,0.053310
77.945,66.0055,0.053310
77.976,65.9749,0.053310
78.007,65.9439,0.052482
78.038,65.9121,0.052482
78.069,65.8816,0.052482
78.101,65.8501,0.052482
78.131,65.8197,0.052482
78.163,65.7877,0.052482
78.193,65.7578,0.052482
78.225,65.7258,0.052482
78.255,65.6956,0.051334
78.286,65.6650,0.051334
78.317,65.6339,0.051334
78.349,65.6019,0.051334
78.381,65.5704,0.051334
78.411,65.5394,0.051334
78.442,65.5084,0.051334
78.473,65.4780,0.051334
78.504,65.4461,0.050713
78.536,65.4145,0.050713
78.566,65.3849,0.050713
78.598,65.3528,0.050713
78.629,65.3222,0.050713
78.660,65.2904,0.050713
78.692,65.2589,0.050713
78.723,65.2280,0.051409
78.753,65.1974,0.051409
78.784,65.1670,0.051409
78.814,65.1359,0.051409
78.846,65.1050,0.051409
78.877,65.0735,0.051409
78.907,65.0435,0.051409
78.938,65.0126,0.051409
78.968,64.9826,0.054326
79.001,64.9500,0.054326
79.031,64.9199,0.054326
79.062,64.8879,0.054326
79.093,64.8581,0.054326
79.125,64.8257,0.054326
79.157,64.7947,0.054326
79.187,64.7638,0.054326
79.219,64.7316,0.054326
79.250,64.7013,0.059041
79.281,64.6703,0.059041
79.312,64.6390,0.059041
79.343,64.6077,0.059041
79.374,64.5774,0.059041
79.404,64.5469,0.059041
79.435,64.5154,0.059041
79.466,64.4849,0.059041
79.498,64.4531,0.063275
79.528,64.4229,0.063275
79.559,64.3910,0.063275
79.591,64.3599,0.063275
79.623,64.3272,0.063275
79.653,64.2980,0.063275
79.685,64.2656,0.063275
79.715,64.2356,0.063275
79.746,64.2042,0.055898
79.777,64.1743,0.055898
79.809,64.1406,0.055898
79.838,64.1130,0.055898
79.868,64.0824,0.055898
79.899,64.0520,0.055898
79.930,64.0209,0.055898
79.961,63.9895,0.055898
79.992,63.9593,0.055898
80.023,63.9284,0.031704
80.054,63.8965,0.031704
80.085,63.8657,0.031704
80.116,63.8350,0.031704
80.147,63.8039,0.031704
80.178,63.7725,0.031704
80.209,63.7416,0.031704
80.241,63.7097,0.031704
80.271,63.6802,0.015584
80.302,63.6490,0.015584
80.333,63.6182,0.015584
80.364,63.5869,0.015584
80.394,63.5572,0.015584
80.425,63.5257,0.015584
80.455,63.4959,0.015584
80.493,63.4578,0.015584
80.533,63.4186,0.014304
80.564,63.3888,0.014304
80.595,63.3611,0.014304
80.625,63.3331,0.014304
80.657,63.3060,0.014304
80.687,63.2792,0.014304
80.719,63.2533,0.014304
80.749,63.2284,0.013739
80.779,63.2056,0.013739
80.810,63.1821,0.013739
80.844,63.1565,0.013739
80.872,63.1370,0.013739
80.903,63.1148,0.013739
80.935,63.0939,0.013739
80.969,63.0717,0.013739
80.997,63.0548,0.013353
81.029,63.0357,0.013353
81.060,63.0178,0.013353
81.090,63.0011,0.013353
81.121,62.9847,0.013353
81.152,62.9692,0.013353
81.183,62.9542,0.013353
81.213,62.9405,0.013353
81.245,62.9266,0.013099
81.275,62.9144,0.013099
81.306,62.9025,0.013099
81.337,62.8912,0.013099
81.368,62.8808,0.013099
81.399,62.8707,0.013099
81.430,62.8617,0.013099
81.461,62.8533,0.013099
81.492,62.8455,0.013099
81.523,62.8387,0.012836
81.555,62.8324,0.012836
81.585,62.8270,0.012836
81.616,62.8223,0.012836
81.647,62.8182,0.012836
81.679,62.8150,0.012836
81.709,62.8125,0.012836
81.740,62.8107,0.012836
81.771,62.8096,0.012629
81.802,62.8092,0.012629
81.833,62.8092,0.012629
81.864,62.8092,0.012629
81.896,62.8092,0.012629
81.926,62.8092,0.012629
81.958,62.8092,0.012629
81.989,62.8097,0.012629
82.020,62.8108,0.012516
82.051,62.8128,0.012516
82.083,62.8155,0.012516
82.114,62.8189,0.012516
82.145,62.8231,0.012516
82.176,62.8282,0.012516
82.207,62.8336,0.012516
82.239,62.8401,0.012516
82.269,62.8469,0.012309
82.300,62.8547,0.012309
82.330,62.8629,0.012309
82.360,62.8718,0.012309
82.392,62.8817,0.012309
82.423,62.8927,0.012309
82.454,62.9041,0.012309
82.486,62.9163,0.012064
82.517,62.9295,0.012064
82.549,62.9438,0.012064
82.580,62.9578,0.012064
82.611,62.9729,0.012064
82.642,62.9887,0.012064
82.672,63.0045,0.012064
82.703,63.0219,0.012064
82.734,63.0400,0.011848
82.765,63.0590,0.011848
82.797,63.0783,0.011848
82.827,63.0985,0.011848
82.853,63.1158,0.011848
82.889,63.1408,0.011848
82.921,63.1634,0.011848
82.951,63.1860,0.011848
82.982,63.2093,0.011848
83.013,63.2342,0.011499
83.045,63.2600,0.011499
83.075,63.2859,0.011499
83.106,63.3127,0.011499
83.137,63.3391,0.011499
83.168,63.3673,0.011499
83.199,63.3963,0.011499
83.229,63.4256,0.011499
83.260,63.4546,0.011499
83.290,63.4856,0.011001
83.320,63.5154,0.011001
83.352,63.5471,0.011001
83.382,63.5773,0.011001
83.413,63.6088,0.011001
83.444,63.6392,0.011001
83.475,63.6707,0.011001
83.506,63.7013,0.010521
83.538,63.7332,0.010521
83.569,63.7642,0.010521
83.601,63.7972,0.010521
83.631,63.8262,0.010521
83.662,63.8572,0.010521
83.693,63.8883,0.010521
83.724,63.9193,0.010521
83.756,63.9514,0.010041
83.787,63.9816,0.010041
83.818,64.0130,0.010041
83.848,64.0429,0.010041
83.879,64.0742,0.010041
83.910,64.1059,0.010041
83.941,64.1365,0.010041
83.972,64.1674,0.010041
84.003,64.1978,0.009495
84.033,64.2286,0.009495
84.064,64.2594,0.009495
84.095,64.2904,0.009495
84.127,64.3215,0.009495
84.157,64.3524,0.009495
84.189,64.3839,0.009495
84.220,64.4154,0.009495
84.251,64.4463,0.008808
84.282,64.4773,0.008808
84.313,64.5089,0.008808
84.344,64.5399,0.008808
84.375,64.5696,0.008808
84.406,64.6012,0.008808
84.437,64.6315,0.008808
84.467,64.6626,0.008808
84.499,64.6935,0.008074
84.529,64.7242,0.008074
84.560,64.7555,0.008074
84.591,64.7861,0.008074
84.622,64.8169,0.008074
84.653,64.8478,0.008074
84.683,64.8779,0.008074
84.716,64.9114,0.008074
84.744,64.9393,0.007180
84.776,64.9713,0.007180
84.807,65.0016,0.007180
84.837,65.0319,0.007180
84.867,65.0624,0.007180
84.898,65.0933,0.007180
84.929,65.1240,0.007180
84.960,65.1552,0.007180
84.991,65.1857,0.006013
85.021,65.2164,0.006013
85.052,65.2471,0.006013
85.083,65.2786,0.006013
85.114,65.3093,0.006013
85.145,65.3410,0.006013
85.176,65.3711,0.006013
85.207,65.4021,0.006013
85.238,65.4339,0.004564
85.269,65.4640,0.004564
85.301,65.4959,0.004564
85.332,65.5273,0.004564
85.363,65.5578,0.004564
85.394,65.5898,0.004564
85.425,65.6203,0.004564
85.457,65.6524,0.004564
85.487,65.6822,0.004564
85.518,65.7134,0.002484
85.548,65.7437,0.002484
85.580,65.7752,0.002484
85.611,65.8056,0.002484
85.642,65.8372,0.002484
85.672,65.8675,0.002484
85.704,65.8996,0.002484
85.734,65.9295,-0.000678
85.766,65.9619,-0.000678
85.797,65.9925,-0.000678
85.827,66.0226,-0.000678
85.858,66.0533,-0.000678
85.889,66.0844,-0.000678
85.923,66.1184,-0.000678
85.951,66.1464,-0.000678
85.982,66.1770,-0.005486
86.013,66.2087,-0.005486
86.045,66.2398,-0.005486
86.075,66.2712,-0.005486
86.106,66.3019,-0.005486
86.137,66.3332,-0.005486
86.172,66.3678,-0.005486
86.199,66.3952,-0.005486
86.231,66.4262,-0.005486
86.269,66.4638,-0.013118
86.309,66.5035,-0.013118
86.339,66.5347,-0.013118
86.370,66.5654,-0.013118
86.402,66.5969,-0.013118
86.433,66.6279,-0.013118
86.464,66.6590,-0.013118
86.496,66.6919,-0.025276
86.527,66.7220,-0.025276
86.558,66.7529,-0.025276
86.590,66.7845,-0.025276
86.620,66.8148,-0.025276
86.652,66.8469,-0.025276
86.682,66.8769,-0.025276
86.713,66.9088,-0.025276
86.744,66.9392,-0.043796
86.776,66.9713,-0.043796
86.807,67.0016,-0.043796
86.838,67.0332,-0.043796
86.868,67.0634,-0.043796
86.899,67.0943,-0.043796
86.930,67.1245,-0.043796
86.960,67.1552,-0.043796
86.991,67.1849,-0.070587
87.022,67.2146,-0.070587
87.053,67.2448,-0.070587
87.084,67.2724,-0.070587
87.115,67.3005,-0.070587
87.147,67.3280,-0.070587
87.178,67.3538,-0.070587
87.209,67.3790,-0.070587
87.240,67.4040,-0.106262
87.271,67.4276,-0.106262
87.302,67.4514,-0.106262
87.333,67.4736,-0.106262
87.365,67.4957,-0.106262
87.396,67.5167,-0.106262
87.427,67.5368,-0.106262
87.459,67.5574,-0.106262
87.489,67.5757,-0.151950
87.520,67.5938,-0.151950
87.551,67.6106,-0.151950
87.582,67.6279,-0.151950
87.615,67.6442,-0.151950
87.645,67.6592,-0.151950
87.677,67.6738,-0.151950
87.707,67.6872,-0.151950
87.738,67.7004,-0.232832
87.770,67.7128,-0.232832
87.801,67.7245,-0.232832
87.832,67.7352,-0.232832
87.863,67.7452,-0.232832
87.895,67.7547,-0.232832
87.926,67.7633,-0.232832
87.956,67.7707,-0.232832
87.987,67.7779,-0.359985
88.018,67.7841,-0.359985
88.049,67.7898,-0.359985
88.080,67.7948,-0.359985
88.112,67.7991,-0.359985
88.144,67.8027,-0.359985
88.174,67.8053,-0.359985
88.205,67.8073,-0.359985
88.236,67.8086,-0.471818
88.267,67.8092,-0.471818
88.297,67.8092,-0.471818
88.328,67.8092,-0.471818
88.359,67.8092,-0.471818
88.391,67.8092,-0.471818
88.422,67.8092,-0.471818
88.454,67.8092,-0.471818
88.484,67.8092,-0.416918
88.515,67.8092,-0.416918
88.546,67.8092,-0.416918
88.578,67.8092,-0.416918
88.609,67.8092,-0.416918
88.640,67.8092,-0.416918
88.671,67.8092,-0.416918
88.701,67.8092,-0.416918
88.732,67.8092,-0.416918
88.763,67.8092,-0.282603
88.793,67.8092,-0.282603
88.825,67.8092,-0.282603
88.855,67.8092,-0.282603
88.886,67.8092,-0.282603
88.917,67.8092,-0.282603
88.948,67.8092,-0.282603
88.979,67.8092,-0.232512
89.010,67.8092,-0.232512
89.041,67.8092,-0.232512
89.072,67.8092,-0.232512
89.102,67.8092,-0.232512
89.133,67.8092,-0.232512
89.164,67.8092,-0.232512
89.195,67.8092,-0.232512
89.227,67.8092,-0.217041
89.258,67.8092,-0.217041
89.288,67.8092,-0.217041
89.321,67.8092,-0.217041
89.352,67.8092,-0.217041
89.383,67.8092,-0.217041
89.414,67.8092,-0.217041
89.445,67.8092,-0.217041
89.476,67.8092,-0.208412
89.507,67.8092,-0.208412
89.539,67.8092,-0.208412
89.570,67.8092,-0.208412
89.601,67.8092,-0.208412
89.632,67.8092,-0.208412
89.662,67.8092,-0.208412
89.692,67.8092,-0.208412
89.723,67.8092,-0.201740
89.754,67.8092,-0.201740
89.786,67.8092,-0.201740
89.817,67.8092,-0.201740
89.848,67.8092,-0.201740
89.879,67.8092,-0.201740
89.910,67.8092,-0.201740
89.941,67.8092,-0.201740
89.972,67.8092,-0.196545
90.003,67.8092,-0.196545
90.034,67.8092,-0.196545
90.065,67.8092,-0.196545
90.096,67.8092,-0.196545
90.128,67.8092,-0.196545
90.158,67.8092,-0.196545
90.190,67.8092,-0.196545
90.221,67.8092,-0.196545
90.252,67.8092,-0.196545
90.282,67.8092,-0.192348
90.314,67.8092,-0.192348
90.346,67.8092,-0.192348
90.375,67.8092,-0.192348
90.406,67.8092,-0.192348
90.437,67.8092,-0.192348
90.468,67.8092,-0.192348
90.499,67.8092,-0.188989
90.530,67.8092,-0.188989
90.561,67.8092,-0.188989
90.591,67.8092,-0.188989
90.623,67.8092,-0.188989
90.654,67.8092,-0.188989
90.685,67.8092,-0.188989
90.715,67.8092,-0.186090
90.746,67.8092,-0.186090
90.777,67.8092,-0.186090
90.808,67.8092,-0.186090
90.838,67.8092,-0.186090
90.870,67.8092,-0.186090
90.900,67.8092,-0.186090
90.931,67.8092,-0.186090
90.962,67.8092,-0.186090
90.993,67.8092,-0.183446
91.023,67.8092,-0.183446
91.055,67.8092,-0.183446
91.085,67.8092,-0.183446
91.116,67.8092,-0.183446
91.146,67.8092,-0.183446
91.177,67.8092,-0.183446
91.208,67.8092,-0.183446
91.239,67.8092,-0.183446
91.270,67.8092,-0.181178
91.301,67.8092,-0.181178
91.333,67.8092,-0.181178
91.364,67.8092,-0.181178
91.396,67.8092,-0.181178
91.427,67.8092,-0.181178
91.458,67.8092,-0.181178
91.488,67.8092,-0.181178
91.519,67.8092,-0.181178
91.551,67.8092,-0.179221
91.581,67.8092,-0.179221
91.611,67.8092,-0.179221
91.642,67.8092,-0.179221
91.673,67.8092,-0.179221
91.704,67.8092,-0.179221
91.735,67.8092,-0.179221
91.766,67.8092,-0.177536
91.797,67.8092,-0.177536
91.828,67.8092,-0.177536
91.859,67.8092,-0.177536
91.890,67.8092,-0.177536
91.921,67.8092,-0.177536
91.952,67.8092,-0.177536
91.983,67.8092,-0.177536
92.013,67.8092,-0.175937
92.045,67.8092,-0.175937
92.076,67.8092,-0.175937
92.107,67.8092,-0.175937
92.138,67.8092,-0.175937
92.168,67.8092,-0.175937
92.199,67.8092,-0.175937
92.230,67.8092,-0.175937
92.262,67.8092,-0.174440
92.293,67.8092,-0.174440
92.324,67.8092,-0.174440
92.356,67.8092,-0.174440
92.386,67.8092,-0.174440
92.418,67.8092,-0.174440
92.452,67.8092,-0.174440
92.480,67.8092,-0.172794
92.514,67.8092,-0.172794
92.544,67.8092,-0.172794
92.577,67.8092,-0.172794
92.606,67.8092,-0.172794
92.637,67.8092,-0.172794
92.668,67.8092,-0.172794
92.701,67.8092,-0.172794
92.729,67.8092,-0.172794
92.759,67.8092,-0.170714
92.791,67.8092,-0.170714
92.822,67.8092,-0.170714
92.853,67.8092,-0.170714
92.883,67.8092,-0.170714
92.914,67.8092,-0.170714
92.946,67.8091,-0.170714
92.976,67.8085,-0.168342
93.006,67.8071,-0.168342
93.037,67.8050,-0.168342
93.069,67.8021,-0.168342
93.101,67.7983,-0.168342
93.132,67.7941,-0.168342
93.163,67.7889,-0.168342
93.195,67.7831,-0.168342
93.224,67.7767,-0.033821
93.256,67.7694,-0.033821
93.287,67.7612,-0.033821
93.319,67.7524,-0.033821
93.350,67.7427,-0.033821
93.381,67.7329,-0.033821
93.411,67.7219,-0.033821
93.444,67.7100,-0.033821
93.475,67.6971,0.031327
93.507,67.6842,0.031327
93.537,67.6699,0.031327
93.568,67.6559,0.031327
93.598,67.6409,0.031327
93.630,67.6248,0.031327
93.661,67.6080,0.031327
93.692,67.5899,0.031327
93.723,67.5721,0.031327
93.754,67.5530,0.031327
93.785,67.5334,-0.034611
93.818,67.5118,-0.034611
93.849,67.4910,-0.034611
93.881,67.4684,-0.034611
93.913,67.4442,-0.034611
93.942,67.4227,-0.034611
93.972,67.3994,-0.034611
94.002,67.3752,-0.034611
94.033,67.3507,-0.017974
94.064,67.3241,-0.017974
94.095,67.2969,-0.017974
94.126,67.2694,-0.017974
94.156,67.2409,-0.017974
94.188,67.2115,-0.017974
94.219,67.1818,-0.017974
94.255,67.1459,-0.017974
94.281,67.1205,0.010700
94.311,67.0894,0.010700
94.342,67.0592,0.010700
94.374,67.0276,0.010700
94.404,66.9967,0.010700
94.435,66.9657,0.010700
94.466,66.9356,0.010700
94.497,66.9035,0.034498
94.528,66.8739,0.034498
94.558,66.8434,0.034498
94.590,66.8119,0.034498
94.620,66.7812,0.034498
94.651,66.7494,0.034498
94.682,66.7193,0.034498
94.713,66.6884,0.047682
94.745,66.6561,0.047682
94.776,66.6261,0.047682
94.807,66.5940,0.047682
94.838,66.5631,0.047682
94.869,66.5325,0.047682
94.900,66.5016,0.047682
94.930,66.4717,0.047682
94.960,66.4413,0.047682
94.992,66.4095,0.047682
95.023,66.3788,0.052152
95.053,66.3478,0.052152
95.085,66.3169,0.052152
95.116,66.2853,0.052152
95.147,66.2543,0.052152
95.178,66.2233,0.052152
95.210,66.1911,0.052152
95.235,66.1661,0.052152
95.272,66.1297,0.052839
95.303,66.0985,0.052839
95.334,66.0673,0.052839
95.365,66.0363,0.052839
95.395,66.0063,0.052839
95.426,65.9751,0.052839
95.457,65.9446,0.052839
95.488,65.9130,0.052839
95.518,65.8832,0.052086
95.550,65.8511,0.052086
95.581,65.8204,0.052086
95.612,65.7886,0.052086
95.643,65.7581,0.052086
95.679,65.7225,0.052086
95.705,65.6960,0.052086
95.737,65.6645,0.052086
95.768,65.6342,0.051080
95.798,65.6028,0.051080
95.829,65.5716,0.051080
95.860,65.5411,0.051080
95.891,65.5109,0.051080
95.922,65.4795,0.051080
95.953,65.4487,0.051080
95.978,65.4230,0.051080
96.015,65.3860,0.051080
96.046,65.3556,0.050618
96.076,65.3251,0.050618
96.108,65.2935,0.050618
96.139,65.2631,0.050618
96.171,65.2306,0.050618
96.201,65.2009,0.050618
96.232,65.1700,0.050618
96.262,65.1390,0.051287
96.295,65.1070,0.051287
96.324,65.0778,0.051287
96.354,65.0472,0.051287
96.385,65.0167,0.051287
96.416,64.9847,0.051287
96.447,64.9542,0.051287
96.478,64.9237,0.051287
96.508,64.8928,0.054241
96.539,64.8628,0.054241
96.570,64.8314,0.054241
96.601,64.8001,0.054241
96.632,64.7689,0.054241
96.663,64.7379,0.054241
96.694,64.7074,0.054241
96.726,64.6754,0.054241
96.756,64.6457,0.054241
96.786,64.6150,0.058947
96.817,64.5850,0.058947
96.848,64.5537,0.058947
96.878,64.5232,0.058947
96.910,64.4916,0.058947
96.940,64.4613,0.058947
96.971,64.4302,0.058947
97.002,64.4000,0.058947
97.033,64.3688,0.063181
97.064,64.3378,0.063181
97.095,64.3062,0.063181
97.126,64.2760,0.063181
97.156,64.2446,0.063181
97.187,64.2151,0.063181
97.218,64.1836,0.063181
97.248,64.1531,0.055484
97.280,64.1216,0.055484
97.310,64.0908,0.055484
97.341,64.0607,0.055484
97.372,64.0295,0.055484
97.403,63.9976,0.055484
97.434,63.9674,0.055484
97.467,63.9347,0.055484
97.497,63.9043,0.031337
97.528,63.8729,0.031337
97.559,63.8430,0.031337
97.591,63.8109,0.031337
97.621,63.7810,0.031337
97.652,63.7494,0.031337
97.682,63.7194,0.031337
97.714,63.6875,0.031337
97.744,63.6575,0.015593
97.776,63.6254,0.015593
97.807,63.5948,0.015593
97.838,63.5631,0.015593
97.868,63.5336,0.015593
97.899,63.5027,0.015593
97.931,63.4712,0.015593
97.961,63.4410,0.015593
97.992,63.4090,0.014304
98.023,63.3786,0.014304
98.055,63.3489,0.014304
98.086,63.3190,0.014304
98.117,63.2911,0.014304
98.149,63.2630,0.014304
98.180,63.2369,0.014304
98.211,63.2109,0.014304
98.242,63.1856,0.013805
98.273,63.1612,0.013805
98.304,63.1367,0.013805
98.336,63.1130,0.013805
98.366,63.0913,0.013805
98.397,63.0701,0.013805
98.427,63.0495,0.013805
98.460,63.0282,0.013805
98.490,63.0094,0.013382
98.521,62.9908,0.013382
98.552,62.9725,0.013382
98.583,62.9553,0.013382
98.614,62.9384,0.013382
98.645,62.9227,0.013382
98.676,62.9078,0.013382
98.708,62.8933,0.013382
98.738,62.8800,0.013052
98.769,62.8670,0.013052
98.801,62.8546,0.013052
98.832,62.8429,0.013052
98.863,62.8325,0.013052
98.895,62.8220,0.013052
98.924,62.8134,0.013052
98.955,62.8048,0.013052
98.986,62.7973,0.012817
99.016,62.7902,0.012817
99.048,62.7838,0.012817
99.080,62.7781,0.012817
99.111,62.7732,0.012817
99.141,62.7691,0.012817
99.172,62.7657,0.012817
99.204,62.7629,0.012817
99.235,62.7609,0.012817
99.265,62.7597,0.012610
99.296,62.7592,0.012610
99.326,62.7592,0.012610
99.357,62.7592,0.012610
99.388,62.7592,0.012610
99.419,62.7592,0.012610
99.450,62.7592,0.012610
99.482,62.7592,0.012478
99.513,62.7592,0.012478
99.544,62.7592,0.012478
99.575,62.7592,0.012478
99.606,62.7592,0.012478
99.637,62.7592,0.012478
99.668,62.7592,0.012478
99.699,62.7592,0.012478
99.730,62.7592,0.012441
99.761,62.7592,0.012441
99.792,62.7592,0.012441
99.823,62.7592,0.012441
99.854,62.7592,0.012441
99.884,62.7592,0.012441
99.915,62.7592,0.012441
99.946,62.7596,0.012441
99.978,62.7606,0.012431
100.009,62.7624,0.012431
100.040,62.7649,0.012431
100.071,62.7681,0.012431
100.101,62.7721,0.012431
100.132,62.7767,0.012431
100.162,62.7819,0.012431
100.194,62.7882,0.012431
100.225,62.7952,0.012431
100.256,62.8027,0.012290
100.287,62.8110,0.012290
100.319,62.8205,0.012290
100.350,62.8304,0.012290
100.381,62.8406,0.012290
100.414,62.8530,0.012290
100.443,62.8638,0.012290
100.474,62.8768,0.012290
100.505,62.8901,0.012036
100.537,62.9051,0.012036
100.568,62.9196,0.012036
100.600,62.9358,0.012036
100.633,62.9537,0.012036
100.661,62.9693,0.012036
100.692,62.9870,0.012036
100.724,63.0063,0.011819
100.755,63.0251,0.011819
100.787,63.0457,0.011819
100.818,63.0660,0.011819
100.849,63.0879,0.011819
100.880,63.1104,0.011819
100.911,63.1331,0.011819
100.942,63.1566,0.011819
100.973,63.1815,0.011471
101.005,63.2071,0.011471
101.035,63.2327,0.011471
101.066,63.2594,0.011471
101.098,63.2873,0.011471
101.129,63.3148,0.011471
101.160,63.3444,0.011471
101.191,63.3735,0.011471
101.223,63.4049,0.011471
101.253,63.4349,0.010954
101.288,63.4697,0.010954
101.316,63.4971,0.010954
101.347,63.5293,0.010954
101.378,63.5599,0.010954
101.410,63.5923,0.010954
101.438,63.6192,0.010954
101.472,63.6538,0.010455
101.503,63.6849,0.010455
101.535,63.7170,0.010455
101.565,63.7477,0.010455
101.596,63.7778,0.010455
101.627,63.8089,0.010455
101.658,63.8396,0.010455
101.690,63.8711,0.010455
101.721,63.9026,0.009947
101.751,63.9326,0.009947
101.782,63.9646,0.009947
101.813,63.9949,0.009947
101.845,64.0266,0.009947
101.875,64.0569,0.009947
101.906,64.0879,0.009947
101.937,64.1188,0.009947
101.969,64.1503,0.009947
102.000,64.1819,0.009363
102.031,64.2125,0.009363
102.061,64.2425,0.009363
102.093,64.2750,0.009363
102.124,64.3059,0.009363
102.156,64.3383,0.009363
102.188,64.3692,0.009363
102.220,64.4021,0.008695
102.250,64.4323,0.008695
102.281,64.4633,0.008695
102.311,64.4926,0.008695
102.343,64.5246,0.008695
102.374,64.5561,0.008695
102.405,64.5864,0.008695
102.436,64.6178,0.008695
102.467,64.6483,0.008695
102.498,64.6800,0.007914
102.529,64.7098,0.007914
102.560,64.7416,0.007914
102.591,64.7724,0.007914
102.622,64.8042,0.007914
102.653,64.8351,0.007914
102.685,64.8667,0.007914
102.715,64.8964,0.007914
102.746,64.9271,0.007030
102.777,64.9586,0.007030
102.808,64.9898,0.007030
102.839,65.0211,0.007030
102.870,65.0510,0.007030
102.901,65.0825,0.007030
102.932,65.1138,0.007030
102.963,65.1443,0.005891
102.994,65.1765,0.005891
103.025,65.2068,0.005891
103.058,65.2391,0.005891
103.088,65.2693,0.005891
103.119,65.3014,0.005891
103.150,65.3316,0.005891
103.182,65.3639,0.005891
103.213,65.3943,0.005891
103.245,65.4267,0.004301
103.274,65.4558,0.004301
103.306,65.4877,0.004301
103.336,65.5172,0.004301
103.367,65.5492,0.004301
103.398,65.5796,0.004301
103.428,65.6095,0.004301
103.460,65.6415,0.004301
103.490,65.6715,0.002117
103.521,65.7030,0.002117
103.551,65.7328,0.002117
103.582,65.7647,0.002117
103.612,65.7941,0.002117
103.643,65.8253,0.002117
103.675,65.8558,0.002117
103.706,65.8872,0.002117
103.736,65.9180,-0.001139
103.766,65.9477,-0.001139
103.796,65.9779,-0.001139
103.827,66.0089,-0.001139
103.858,66.0406,-0.001139
103.890,66.0716,-0.001139
103.922,66.1030,-0.001139
103.953,66.1346,-0.001139
103.984,66.1653,-0.006267
104.015,66.1968,-0.006267
104.046,66.2268,-0.006267
104.076,66.2577,-0.006267
104.107,66.2885,-0.006267
104.138,66.3193,-0.006267
104.169,66.3506,-0.006267
104.201,66.3827,-0.006267
104.231,66.4127,-0.014539
104.262,66.4436,-0.014539
104.291,66.4731,-0.014539
104.324,66.5053,-0.014539
104.354,66.5351,-0.014539
104.385,66.5665,-0.014539
104.417,66.5985,-0.014539
104.448,66.6297,-0.014539
104.479,66.6604,-0.027638
104.511,66.6922,-0.027638
104.541,66.7226,-0.027638
104.572,66.7533,-0.027638
104.603,66.7854,-0.027638
104.634,66.8159,-0.027638
104.665,66.8473,-0.027638
104.696,66.8783,-0.027638
104.727,66.9095,-0.047325
104.758,66.9395,-0.047325
104.789,66.9717,-0.047325
104.820,67.0020,-0.047325
104.852,67.0337,-0.047325
104.884,67.0657,-0.047325
104.915,67.0969,-0.047325
104.945,67.1264,-0.047325
104.976,67.1563,-0.075612
105.007,67.1856,-0.075612
105.041,67.2167,-0.075612
105.070,67.2432,-0.075612
105.101,67.2699,-0.075612
105.133,67.2966,-0.075612
105.163,67.3217,-0.075612
105.194,67.3461,-0.075612
105.224,67.3702,-0.075612
105.254,67.3927,-0.112614
105.286,67.4163,-0.112614
105.315,67.4368,-0.112614
105.346,67.4577,-0.112614
105.377,67.4788,-0.112614
105.408,67.4983,-0.112614
105.440,67.5177,-0.112614
105.470,67.5360,-0.161341
105.501,67.5540,-0.161341
105.532,67.5707,-0.161341
105.563,67.5867,-0.161341
105.594,67.6023,-0.161341
105.625,67.6170,-0.161341
105.657,67.6315,-0.161341
105.687,67.6442,-0.161341
105.718,67.6569,-0.161341
105.749,67.6684,-0.161341
105.780,67.6800,-0.249422
105.811,67.6901,-0.249422
105.844,67.7002,-0.249422
105.874,67.7090,-0.249422
105.906,67.7174,-0.249422
105.936,67.7245,-0.249422
105.967,67.7316,-0.249422
105.998,67.7373,-0.380594
106.028,67.7425,-0.380594
106.059,67.7472,-0.380594
106.090,67.7509,-0.380594
106.122,67.7541,-0.380594
106.153,67.7565,-0.380594
106.187,67.7582,-0.380594
106.215,67.7590,-0.380594
106.247,67.7592,-0.479600
106.278,67.7592,-0.479600
106.310,67.7592,-0.479600
106.341,67.7592,-0.479600
106.373,67.7592,-0.479600
106.404,67.7592,-0.479600
106.436,67.7592,-0.479600
106.466,67.7592,-0.479600
106.497,67.7592,-0.404684
106.529,67.7592,-0.404684
106.560,67.7592,-0.404684
106.592,67.7592,-0.404684
106.623,67.7592,-0.404684
106.653,67.7592,-0.404684
106.683,67.7592,-0.404684
106.718,67.7592,-0.404684
106.746,67.7592,-0.404684
106.777,67.7592,-0.271320
106.809,67.7592,-0.271320
106.840,67.7592,-0.271320
106.872,67.7592,-0.271320
106.903,67.7592,-0.271320
