Elapsed Time (s),Position (mm),Force (N)
-0.019,74.3091,-0.105265
0.012,74.3091,-0.105265
0.044,74.3091,-0.096682
0.074,74.3091,-0.096682
0.105,74.3091,-0.096682
0.137,74.3091,-0.096682
0.168,74.3091,-0.096682
0.199,74.3091,-0.096682
0.230,74.3091,-0.096682
0.261,74.3091,-0.096682
0.292,74.3091,-0.091582
0.324,74.3091,-0.091582
0.354,74.3091,-0.091582
0.385,74.3091,-0.091582
0.415,74.3091,-0.091582
0.447,74.3091,-0.091582
0.478,74.3091,-0.091582
0.509,74.3091,-0.091582
0.540,74.3091,-0.088119
0.572,74.3091,-0.088119
0.603,74.3091,-0.088119
0.634,74.3091,-0.088119
0.665,74.3091,-0.088119
0.695,74.3091,-0.088119
0.726,74.3091,-0.088119
0.758,74.3091,-0.088119
0.789,74.3091,-0.085522
0.820,74.3091,-0.085522
0.851,74.3091,-0.085522
0.882,74.3091,-0.085522
0.912,74.3091,-0.085522
0.943,74.3091,-0.085522
0.974,74.3091,-0.085522
1.005,74.3091,-0.085522
1.037,74.3091,-0.083536
1.067,74.3091,-0.083536
1.098,74.3091,-0.083536
1.130,74.3091,-0.083536
1.161,74.3091,-0.083536
1.192,74.3091,-0.083536
1.223,74.3091,-0.083536
1.254,74.3091,-0.083536
1.284,74.3091,-0.081889
1.320,74.3091,-0.081889
1.347,74.3091,-0.081889
1.378,74.3091,-0.081889
1.409,74.3091,-0.081889
1.439,74.3091,-0.081889
1.470,74.3091,-0.081889
1.501,74.3091,-0.081889
1.532,74.3091,-0.080487
1.564,74.3091,-0.080487
1.594,74.3091,-0.080487
1.626,74.3091,-0.080487
1.655,74.3091,-0.080487
1.687,74.3091,-0.080487
1.717,74.3091,-0.080487
1.748,74.3091,-0.080487
1.780,74.3091,-0.079311
1.811,74.3091,-0.079311
1.842,74.3091,-0.079311
1.874,74.3091,-0.079311
1.904,74.3091,-0.079311
1.935,74.3091,-0.079311
1.967,74.3091,-0.079311
1.997,74.3091,-0.079311
2.028,74.3091,-0.078210
2.058,74.3091,-0.078210
2.089,74.3091,-0.078210
2.121,74.3091,-0.078210
2.152,74.3091,-0.078210
2.183,74.3091,-0.078210
2.214,74.3091,-0.078210
2.244,74.3091,-0.078210
2.275,74.3091,-0.077184
2.306,74.3091,-0.077184
2.337,74.3091,-0.077184
2.368,74.3091,-0.077184
2.399,74.3091,-0.077184
2.430,74.3091,-0.077184
2.460,74.3091,-0.077184
2.491,74.3091,-0.077184
2.522,74.3091,-0.077184
2.553,74.3091,-0.076271
2.584,74.3091,-0.076271
2.615,74.3091,-0.076271
2.646,74.3091,-0.076271
2.676,74.3091,-0.076271
2.707,74.3091,-0.076271
2.739,74.3091,-0.076271
2.770,74.3091,-0.075537
2.801,74.3091,-0.075537
2.832,74.3091,-0.075537
2.865,74.3091,-0.075537
2.895,74.3091,-0.075537
2.926,74.3091,-0.075537
2.957,74.3091,-0.075537
2.992,74.3091,-0.075537
3.020,74.3091,-0.075537
3.051,74.3091,-0.075537
3.082,74.3091,-0.074822
3.112,74.3091,-0.074822
3.143,74.3091,-0.074822
3.174,74.3091,-0.074822
3.205,74.3091,-0.074822
3.237,74.3091,-0.074822
3.267,74.3091,-0.074088
3.298,74.3091,-0.074088
3.329,74.3091,-0.074088
3.361,74.3091,-0.074088
3.392,74.3091,-0.074088
3.424,74.3091,-0.074088
3.454,74.3091,-0.074088
3.485,74.3091,-0.074088
3.516,74.3091,-0.073429
3.547,74.3091,-0.073429
3.578,74.3091,-0.073429
3.609,74.3091,-0.073429
3.640,74.3091,-0.073429
3.671,74.3091,-0.073429
3.701,74.3091,-0.073429
3.733,74.3091,-0.073429
3.763,74.3091,-0.072799
3.794,74.3091,-0.072799
3.825,74.3091,-0.072799
3.855,74.3091,-0.072799
3.886,74.3091,-0.072799
3.918,74.3091,-0.072799
3.948,74.3091,-0.072799
3.978,74.3091,-0.072799
4.009,74.3091,-0.072196
4.040,74.3091,-0.072196
4.071,74.3091,-0.072196
4.101,74.3089,-0.072196
4.132,74.3079,-0.072196
4.164,74.3062,-0.072196
4.194,74.3038,-0.072196
4.225,74.3006,-0.072196
4.256,74.2969,-0.071350
4.287,74.2921,-0.071350
4.317,74.2871,-0.071350
4.348,74.2809,-0.071350
4.378,74.2744,-0.071350
4.409,74.2667,-0.071350
4.441,74.2585,-0.071350
4.472,74.2492,-0.071350
4.503,74.2398,-0.062824
4.534,74.2294,-0.062824
4.564,74.2186,-0.062824
4.596,74.2064,-0.062824
4.627,74.1937,-0.062824
4.659,74.1802,-0.062824
4.688,74.1668,-0.062824
4.719,74.1521,-0.062824
4.751,74.1362,-0.062824
4.781,74.1206,-0.044982
4.812,74.1038,-0.044982
4.843,74.0859,-0.044982
4.874,74.0675,-0.044982
4.905,74.0484,-0.044982
4.935,74.0287,-0.044982
4.967,74.0078,-0.044982
4.998,73.9868,-0.024166
5.028,73.9652,-0.024166
5.059,73.9425,-0.024166
5.091,73.9186,-0.024166
5.121,73.8945,-0.024166
5.152,73.8698,-0.024166
5.183,73.8441,-0.024166
5.214,73.8175,-0.024166
5.246,73.7897,-0.024166
5.277,73.7622,-0.003030
5.314,73.7278,-0.003030
5.354,73.6899,-0.003030
5.384,73.6601,-0.003030
5.415,73.6302,-0.003030
5.445,73.5989,-0.003030
5.476,73.5688,-0.003030
5.507,73.5372,0.014831
5.538,73.5063,0.014831
5.570,73.4752,0.014831
5.601,73.4428,0.014831
5.633,73.4118,0.014831
5.664,73.3801,0.014831
5.695,73.3502,0.014831
5.726,73.3177,0.014831
5.758,73.2872,0.025973
5.790,73.2551,0.025973
5.820,73.2250,0.025973
5.851,73.1933,0.025973
5.881,73.1638,0.025973
5.912,73.1318,0.025973
5.944,73.1009,0.025973
5.975,73.0695,0.025973
6.005,73.0393,0.030988
6.037,73.0074,0.030988
6.069,72.9764,0.030988
6.100,72.9444,0.030988
6.130,72.9150,0.030988
6.164,72.8794,0.030988
6.191,72.8530,0.030988
6.222,72.8227,0.030988
6.253,72.7915,0.033642
6.284,72.7603,0.033642
6.315,72.7296,0.033642
6.345,72.6994,0.033642
6.376,72.6679,0.033642
6.407,72.6367,0.033642
6.438,72.6063,0.033642
6.469,72.5748,0.033642
6.501,72.5440,0.035402
6.532,72.5128,0.035402
6.562,72.4824,0.035402
6.594,72.4505,0.035402
6.624,72.4206,0.035402
6.655,72.3902,0.035402
6.685,72.3595,0.035402
6.717,72.3275,0.035402
6.748,72.2970,0.036192
6.779,72.2657,0.036192
6.810,72.2341,0.036192
6.842,72.2031,0.036192
6.873,72.1711,0.036192
6.904,72.1410,0.036192
6.934,72.1107,0.036192
6.966,72.0785,0.036192
6.996,72.0484,0.036371
7.027,72.0172,0.036371
7.058,71.9861,0.036371
7.090,71.9548,0.036371
7.120,71.9253,0.036371
7.151,71.8935,0.036371
7.182,71.8624,0.036371
7.214,71.8307,0.036371
7.245,71.8001,0.036211
7.275,71.7690,0.036211
7.307,71.7381,0.036211
7.338,71.7066,0.036211
7.368,71.6761,0.036211
7.399,71.6451,0.036211
7.430,71.6137,0.036211
7.461,71.5840,0.036211
7.492,71.5530,0.036211
7.522,71.5222,0.028278
7.553,71.4915,0.028278
7.585,71.4598,0.028278
7.616,71.4284,0.028278
7.647,71.3968,0.028278
7.678,71.3664,0.028278
7.709,71.3353,0.028278
7.740,71.3050,0.014690
7.771,71.2735,0.014690
7.802,71.2433,0.014690
7.832,71.2121,0.014690
7.863,71.1821,0.014690
7.894,71.1506,0.014690
7.925,71.1199,0.014690
7.957,71.0880,0.014690
7.987,71.0576,0.014690
8.019,71.0260,0.014690
8.050,70.9944,0.008422
8.081,70.9644,0.008422
8.112,70.9324,0.008422
8.143,70.9016,0.008422
8.174,70.8701,0.008422
8.205,70.8402,0.008422
8.236,70.8083,0.008422
8.267,70.7774,0.008422
8.298,70.7464,0.007876
8.329,70.7153,0.007876
8.361,70.6837,0.007876
8.394,70.6509,0.007876
8.422,70.6222,0.007876
8.453,70.5917,0.007876
8.484,70.5609,0.007745
8.514,70.5296,0.007745
8.545,70.4995,0.007745
8.577,70.4680,0.007745
8.607,70.4373,0.007745
8.639,70.4056,0.007745
8.670,70.3750,0.007745
8.701,70.3437,0.007745
8.732,70.3129,0.007745
8.763,70.2818,0.007669
8.794,70.2502,0.007669
8.826,70.2190,0.007669
8.856,70.1890,0.007669
8.887,70.1572,0.007669
8.917,70.1271,0.007669
8.949,70.0961,0.007669
8.979,70.0656,0.007669
9.010,70.0352,0.007632
9.041,70.0032,0.007632
9.072,69.9722,0.007632
9.103,69.9419,0.007632
9.133,69.9106,0.007632
9.165,69.8801,0.007632
9.194,69.8516,0.007632
9.225,69.8233,0.007632
9.256,69.7946,0.007566
9.286,69.7684,0.007566
9.317,69.7415,0.007566
9.348,69.7156,0.007566
9.380,69.6899,0.007566
9.410,69.6647,0.007566
9.441,69.6416,0.007566
9.472,69.6182,0.007566
9.503,69.5958,0.007481
9.533,69.5744,0.007481
9.564,69.5538,0.007481
9.596,69.5326,0.007481
9.626,69.5138,0.007481
9.657,69.4952,0.007481
9.688,69.4767,0.007481
9.719,69.4593,0.007481
9.749,69.4430,0.007481
9.783,69.4252,0.007415
9.812,69.4110,0.007415
9.844,69.3966,0.007415
9.874,69.3828,0.007415
9.905,69.3698,0.007415
9.936,69.3574,0.007415
9.967,69.3457,0.007415
9.999,69.3349,0.007350
10.030,69.3248,0.007350
10.060,69.3157,0.007350
10.091,69.3069,0.007350
10.122,69.2990,0.007350
10.153,69.2916,0.007350
10.183,69.2853,0.007350
10.214,69.2792,0.007350
10.244,69.2745,0.007350
10.275,69.2702,0.007265
10.306,69.2665,0.007265
10.338,69.2635,0.007265
10.369,69.2614,0.007265
10.400,69.2599,0.007265
10.431,69.2593,0.007265
10.464,69.2592,0.007265
10.495,69.2592,0.007152
10.526,69.2592,0.007152
10.557,69.2592,0.007152
10.588,69.2592,0.007152
10.619,69.2592,0.007152
10.650,69.2592,0.007152
10.681,69.2592,0.007152
10.713,69.2592,0.007152
10.744,69.2592,0.007152
10.774,69.2592,0.007142
10.805,69.2592,0.007142
10.836,69.2592,0.007142
10.867,69.2592,0.007142
10.898,69.2592,0.007142
10.929,69.2592,0.007142
10.962,69.2592,0.007142
10.991,69.2594,0.007142
11.023,69.2604,0.007180
11.054,69.2620,0.007180
11.084,69.2644,0.007180
11.115,69.2676,0.007180
11.147,69.2714,0.007180
11.178,69.2760,0.007180
11.209,69.2814,0.007180
11.240,69.2874,0.007180
11.272,69.2944,0.007077
11.302,69.3016,0.007077
11.332,69.3099,0.007077
11.363,69.3187,0.007077
11.394,69.3285,0.007077
11.424,69.3384,0.007077
11.455,69.3496,0.007077
11.486,69.3612,0.007077
11.517,69.3739,0.006926
11.547,69.3865,0.006926
11.578,69.4007,0.006926
11.608,69.4148,0.006926
11.640,69.4304,0.006926
11.671,69.4472,0.006926
11.702,69.4637,0.006926
11.733,69.4819,0.006813
11.760,69.4974,0.006813
11.796,69.5192,0.006813
11.825,69.5377,0.006813
11.856,69.5583,0.006813
11.887,69.5796,0.006813
11.918,69.6018,0.006813
11.949,69.6243,0.006813
11.980,69.6475,0.006813
12.010,69.6718,0.006813
12.042,69.6965,0.006691
12.073,69.7226,0.006691
12.104,69.7482,0.006691
12.135,69.7761,0.006691
12.166,69.8036,0.006691
12.197,69.8320,0.006691
12.227,69.8613,0.006691
12.258,69.8906,0.006691
12.290,69.9222,0.006521
12.324,69.9560,0.006521
12.351,69.9833,0.006521
12.382,70.0138,0.006521
12.413,70.0458,0.006521
12.446,70.0780,0.006521
12.477,70.1093,0.006521
12.508,70.1397,0.006521
12.538,70.1696,0.006286
12.575,70.2067,0.006286
12.601,70.2325,0.006286
12.631,70.2636,0.006286
12.663,70.2946,0.006286
12.693,70.3258,0.006286
12.724,70.3559,0.006286
12.755,70.3868,0.006286
12.785,70.4167,0.006154
12.819,70.4515,0.006154
12.846,70.4781,0.006154
12.878,70.5101,0.006154
12.909,70.5408,0.006154
12.944,70.5764,0.006154
12.970,70.6028,0.006154
13.001,70.6331,0.006154
13.032,70.6638,0.006013
13.063,70.6948,0.006013
13.094,70.7261,0.006013
13.125,70.7574,0.006013
13.156,70.7884,0.006013
13.187,70.8194,0.006013
13.217,70.8491,0.006013
13.249,70.8813,0.006013
13.279,70.9113,0.005759
13.313,70.9453,0.005759
13.341,70.9729,0.005759
13.372,71.0043,0.005759
13.403,71.0352,0.005759
13.433,71.0654,0.005759
13.464,71.0958,0.005759
13.495,71.1266,0.005759
13.526,71.1583,0.005449
13.558,71.1896,0.005449
13.588,71.2196,0.005449
13.619,71.2502,0.005449
13.650,71.2812,0.005449
13.682,71.3134,0.005449
13.711,71.3432,0.005449
13.743,71.3744,0.005449
13.775,71.4076,0.005147
13.805,71.4368,0.005147
13.836,71.4679,0.005147
13.867,71.4989,0.005147
13.900,71.5319,0.005147
13.929,71.5613,0.005147
13.959,71.5912,0.005147
13.990,71.6216,0.004893
14.021,71.6527,0.004893
14.051,71.6831,0.004893
14.083,71.7153,0.004893
14.114,71.7453,0.004893
14.144,71.7766,0.004893
14.175,71.8063,0.004893
14.206,71.8380,0.004893
14.237,71.8695,0.004555
14.269,71.9015,0.004555
14.300,71.9327,0.004555
14.332,71.9645,0.004555
14.364,71.9959,0.004555
14.395,72.0274,0.004555
14.427,72.0586,0.004555
14.457,72.0889,0.004555
14.489,72.1209,0.004555
14.519,72.1505,0.004009
14.549,72.1816,0.004009
14.580,72.2122,0.004009
14.612,72.2440,0.004009
14.646,72.2776,0.004009
14.673,72.3050,0.004009
14.707,72.3388,0.004009
14.738,72.3692,0.004009
14.766,72.3976,0.003284
14.798,72.4294,0.003284
14.833,72.4650,0.003284
14.874,72.5058,0.003284
14.906,72.5380,0.003284
14.937,72.5686,0.003284
14.969,72.6012,0.003284
15.000,72.6320,0.002183
15.031,72.6629,0.002183
15.062,72.6941,0.002183
15.094,72.7252,0.002183
15.125,72.7575,0.002183
15.156,72.7877,0.002183
15.187,72.8183,0.002183
15.218,72.8503,0.002183
15.249,72.8806,0.000207
15.283,72.9146,0.000207
15.311,72.9424,0.000207
15.342,72.9734,0.000207
15.373,73.0043,0.000207
15.404,73.0355,0.000207
15.434,73.0662,0.000207
15.464,73.0966,0.000207
15.497,73.1288,0.000207
15.526,73.1578,-0.003632
15.559,73.1918,-0.003632
15.588,73.2192,-0.003632
15.619,73.2513,-0.003632
15.650,73.2812,-0.003632
15.681,73.3130,-0.003632
15.712,73.3437,-0.003632
15.744,73.3761,-0.003632
15.774,73.4060,-0.003632
15.805,73.4379,-0.011020
15.835,73.4671,-0.011020
15.867,73.4996,-0.011020
15.899,73.5308,-0.011020
15.930,73.5624,-0.011020
15.961,73.5930,-0.011020
15.992,73.6237,-0.011020
16.023,73.6536,-0.024420
16.054,73.6834,-0.024420
16.085,73.7116,-0.024420
16.117,73.7404,-0.024420
16.146,73.7659,-0.024420
16.177,73.7928,-0.024420
16.208,73.8179,-0.024420
16.239,73.8424,-0.024420
16.269,73.8665,-0.024420
16.300,73.8897,-0.044925
16.331,73.9124,-0.044925
16.363,73.9350,-0.044925
16.394,73.9567,-0.044925
16.425,73.9773,-0.044925
16.456,73.9976,-0.044925
16.487,74.0162,-0.044925
16.518,74.0352,-0.068479
16.549,74.0524,-0.068479
16.579,74.0694,-0.068479
16.611,74.0856,-0.068479
16.642,74.1015,-0.068479
16.672,74.1155,-0.068479
16.704,74.1300,-0.068479
16.735,74.1436,-0.068479
16.766,74.1563,-0.089465
16.797,74.1680,-0.089465
16.828,74.1790,-0.089465
16.859,74.1893,-0.089465
16.891,74.1995,-0.089465
16.922,74.2084,-0.089465
16.953,74.2169,-0.089465
16.984,74.2241,-0.089465
17.015,74.2310,-0.089465
17.045,74.2368,-0.104869
17.078,74.2427,-0.104869
17.108,74.2469,-0.104869
17.141,74.2510,-0.104869
17.174,74.2542,-0.104869
17.202,74.2564,-0.104869
17.235,74.2580,-0.104869
17.266,74.2590,-0.112708
17.297,74.2592,-0.112708
17.327,74.2592,-0.112708
17.357,74.2592,-0.112708
17.389,74.2592,-0.112708
17.419,74.2592,-0.112708
17.450,74.2592,-0.112708
17.480,74.2592,-0.112708
17.512,74.2592,-0.112708
17.543,74.2592,-0.109104
17.574,74.2592,-0.109104
17.605,74.2592,-0.109104
17.636,74.2592,-0.109104
17.666,74.2592,-0.109104
17.697,74.2592,-0.109104
17.728,74.2592,-0.109104
17.759,74.2592,-0.099760
17.790,74.2592,-0.099760
17.821,74.2592,-0.099760
17.852,74.2592,-0.099760
17.883,74.2592,-0.099760
17.915,74.2592,-0.099760
17.946,74.2592,-0.099760
17.976,74.2592,-0.099760
18.008,74.2592,-0.099760
18.039,74.2592,-0.093520
18.070,74.2592,-0.093520
18.101,74.2592,-0.093520
18.132,74.2592,-0.093520
18.163,74.2592,-0.093520
18.196,74.2592,-0.093520
18.228,74.2592,-0.093520
18.257,74.2592,-0.093520
18.288,74.2592,-0.089483
18.319,74.2592,-0.089483
18.352,74.2592,-0.089483
18.380,74.2592,-0.089483
18.411,74.2592,-0.089483
18.442,74.2592,-0.089483
18.472,74.2592,-0.089483
18.502,74.2592,-0.089483
18.537,74.2592,-0.086416
18.564,74.2592,-0.086416
18.595,74.2592,-0.086416
18.627,74.2592,-0.086416
18.657,74.2592,-0.086416
18.688,74.2592,-0.086416
18.718,74.2592,-0.086416
18.749,74.2592,-0.086416
18.780,74.2592,-0.083997
18.810,74.2592,-0.083997
18.841,74.2592,-0.083997
18.873,74.2592,-0.083997
18.905,74.2592,-0.083997
18.936,74.2592,-0.083997
18.967,74.2592,-0.083997
18.999,74.2592,-0.082134
19.029,74.2592,-0.082134
19.060,74.2592,-0.082134
19.091,74.2592,-0.082134
19.123,74.2592,-0.082134
19.153,74.2592,-0.082134
19.184,74.2592,-0.082134
19.215,74.2592,-0.082134
19.245,74.2592,-0.080751
19.275,74.2592,-0.080751
19.306,74.2592,-0.080751
19.338,74.2592,-0.080751
19.368,74.2592,-0.080751
19.396,74.2592,-0.080751
19.431,74.2592,-0.080751
19.466,74.2592,-0.080751
19.493,74.2592,-0.080751
19.525,74.2592,-0.079537
19.555,74.2592,-0.079537
19.586,74.2592,-0.079537
19.617,74.2592,-0.079537
19.648,74.2592,-0.079537
19.679,74.2592,-0.079537
19.709,74.2592,-0.079537
19.741,74.2592,-0.079537
19.772,74.2592,-0.078473
19.803,74.2592,-0.078473
19.833,74.2592,-0.078473
19.864,74.2592,-0.078473
19.895,74.2592,-0.078473
19.921,74.2592,-0.078473
19.956,74.2592,-0.078473
19.988,74.2592,-0.078473
20.020,74.2592,-0.077495
20.051,74.2592,-0.077495
20.083,74.2592,-0.077495
20.113,74.2592,-0.077495
20.144,74.2592,-0.077495
20.176,74.2592,-0.077495
20.210,74.2592,-0.077495
20.238,74.2592,-0.077495
20.270,74.2592,-0.076601
20.301,74.2592,-0.076601
20.333,74.2592,-0.076601
20.364,74.2592,-0.076601
20.395,74.2592,-0.076601
20.425,74.2592,-0.076601
20.456,74.2592,-0.076601
20.488,74.2592,-0.076601
20.517,74.2592,-0.075848
20.548,74.2592,-0.075848
20.579,74.2592,-0.075848
20.610,74.2592,-0.075848
20.644,74.2592,-0.075848
20.671,74.2592,-0.075848
20.703,74.2592,-0.075848
20.734,74.2592,-0.075161
20.764,74.2592,-0.075161
20.795,74.2592,-0.075161
20.826,74.2592,-0.075161
20.857,74.2592,-0.075161
20.892,74.2592,-0.075161
20.920,74.2592,-0.075161
20.950,74.2592,-0.075161
20.981,74.2592,-0.075161
21.012,74.2592,-0.074464
21.043,74.2592,-0.074464
21.075,74.2592,-0.074464
21.107,74.2592,-0.074464
21.138,74.2592,-0.074464
21.169,74.2592,-0.074464
21.201,74.2592,-0.074464
21.231,74.2592,-0.074464
21.262,74.2592,-0.073759
21.293,74.2592,-0.073759
21.324,74.2592,-0.073759
21.354,74.2592,-0.073759
21.385,74.2592,-0.073759
21.416,74.2592,-0.073759
21.447,74.2592,-0.073759
21.478,74.2592,-0.073759
21.508,74.2592,-0.073072
21.540,74.2592,-0.073072
21.571,74.2592,-0.073072
21.602,74.2592,-0.073072
21.633,74.2592,-0.073072
21.664,74.2592,-0.073072
21.694,74.2592,-0.073072
21.726,74.2592,-0.073072
21.757,74.2592,-0.072545
21.787,74.2592,-0.072545
21.825,74.2592,-0.072545
21.866,74.2592,-0.072545
21.897,74.2592,-0.072545
21.928,74.2592,-0.072545
21.959,74.2588,-0.072545
21.989,74.2578,-0.072545
22.020,74.2559,-0.072055
22.051,74.2536,-0.072055
22.083,74.2502,-0.072055
22.116,74.2459,-0.072055
22.149,74.2408,-0.072055
22.191,74.2332,-0.072055
22.223,74.2263,-0.072055
22.253,74.2196,-0.072055
22.284,74.2114,-0.067143
22.315,74.2027,-0.067143
22.346,74.1935,-0.067143
22.377,74.1831,-0.067143
22.408,74.1725,-0.067143
22.438,74.1611,-0.067143
22.468,74.1494,-0.067143
22.499,74.1360,-0.067143
22.531,74.1222,-0.053122
22.561,74.1076,-0.053122
22.593,74.0922,-0.053122
22.625,74.0760,-0.053122
22.655,74.0592,-0.053122
22.686,74.0420,-0.053122
22.716,74.0248,-0.053122
22.747,74.0055,-0.053122
22.779,73.9858,-0.033049
22.810,73.9655,-0.033049
22.841,73.9449,-0.033049
22.871,73.9232,-0.033049
22.903,73.9005,-0.033049
22.935,73.8758,-0.033049
22.966,73.8522,-0.033049
22.996,73.8279,-0.033049
23.027,73.8031,-0.011528
23.058,73.7762,-0.011528
23.090,73.7486,-0.011528
23.122,73.7210,-0.011528
23.153,73.6926,-0.011528
23.184,73.6636,-0.011528
23.217,73.6310,-0.011528
23.245,73.6036,-0.011528
23.276,73.5729,0.008488
23.307,73.5419,0.008488
23.338,73.5107,0.008488
23.369,73.4797,0.008488
23.399,73.4495,0.008488
23.430,73.4184,0.008488
23.463,73.3863,0.008488
23.491,73.3578,0.008488
23.522,73.3271,0.022877
23.552,73.2962,0.022877
23.584,73.2645,0.022877
23.614,73.2346,0.022877
23.646,73.2020,0.022877
23.679,73.1697,0.022877
23.708,73.1406,0.022877
23.742,73.1065,0.022877
23.771,73.0767,0.022877
23.801,73.0482,0.030292
23.831,73.0162,0.030292
23.862,72.9867,0.030292
23.893,72.9559,0.030292
23.927,72.9214,0.030292
23.955,72.8935,0.030292
23.987,72.8612,0.030292
24.018,72.8307,0.033840
24.049,72.8001,0.033840
24.080,72.7691,0.033840
24.111,72.7380,0.033840
24.143,72.7065,0.033840
24.173,72.6759,0.033840
24.205,72.6439,0.033840
24.235,72.6136,0.033840
24.266,72.5826,0.036126
24.298,72.5511,0.036126
24.329,72.5200,0.036126
24.361,72.4884,0.036126
24.393,72.4561,0.036126
24.424,72.4246,0.036126
24.456,72.3935,0.036126
24.487,72.3620,0.036126
24.518,72.3308,0.037265
24.548,72.3008,0.037265
24.579,72.2692,0.037265
24.611,72.2378,0.037265
24.642,72.2068,0.037265
24.673,72.1748,0.037265
24.705,72.1443,0.037265
24.736,72.1131,0.037265
24.767,72.0814,0.037265
24.798,72.0504,0.037378
24.829,72.0199,0.037378
24.860,71.9883,0.037378
24.892,71.9574,0.037378
24.923,71.9265,0.037378
24.953,71.8955,0.037378
24.985,71.8639,0.037378
25.015,71.8336,0.037227
25.047,71.8019,0.037227
25.077,71.7716,0.037227
25.108,71.7407,0.037227
25.140,71.7094,0.037227
25.172,71.6774,0.037227
25.202,71.6472,0.037227
25.233,71.6156,0.037227
25.265,71.5847,0.036296
25.295,71.5537,0.036296
25.325,71.5239,0.036296
25.357,71.4919,0.036296
25.387,71.4617,0.036296
25.418,71.4303,0.036296
25.449,71.4000,0.036296
25.482,71.3669,0.036296
25.510,71.3389,0.023121
25.540,71.3088,0.023121
25.571,71.2785,0.023121
25.601,71.2472,0.023121
25.632,71.2170,0.023121
25.663,71.1851,0.023121
25.695,71.1536,0.023121
25.725,71.1241,0.023121
25.756,71.0926,0.009627
25.787,71.0620,0.009627
25.818,71.0308,0.009627
25.850,70.9993,0.009627
25.882,70.9668,0.009627
25.912,70.9372,0.009627
25.944,70.9056,0.009627
25.974,70.8746,0.009627
26.004,70.8449,0.008178
26.036,70.8135,0.008178
26.067,70.7817,0.008178
26.099,70.7497,0.008178
26.130,70.7197,0.008178
26.161,70.6884,0.008178
26.193,70.6565,0.008178
26.224,70.6251,0.008178
26.255,70.5931,0.007839
26.292,70.5563,0.007839
26.318,70.5316,0.007839
26.349,70.5000,0.007839
26.379,70.4700,0.007839
26.410,70.4395,0.007839
26.441,70.4085,0.007839
26.472,70.3769,0.007839
26.503,70.3460,0.007698
26.533,70.3162,0.007698
26.563,70.2858,0.007698
26.594,70.2552,0.007698
26.625,70.2237,0.007698
26.656,70.1926,0.007698
26.687,70.1618,0.007698
26.718,70.1303,0.007698
26.749,70.0998,0.007632
26.784,70.0626,0.007632
26.812,70.0368,0.007632
26.842,70.0069,0.007632
26.873,69.9761,0.007632
26.904,69.9450,0.007632
26.935,69.9139,0.007632
26.965,69.8835,0.007632
26.996,69.8529,0.007632
27.027,69.8221,0.007641
27.058,69.7937,0.007641
27.089,69.7645,0.007641
27.119,69.7370,0.007641
27.151,69.7096,0.007641
27.182,69.6828,0.007641
27.213,69.6565,0.007641
27.244,69.6313,0.007519
27.276,69.6064,0.007519
27.308,69.5821,0.007519
27.338,69.5599,0.007519
27.370,69.5367,0.007519
27.399,69.5160,0.007519
27.430,69.4962,0.007519
27.460,69.4764,0.007519
27.493,69.4556,0.007519
27.522,69.4385,0.007519
27.553,69.4199,0.007425
27.584,69.4033,0.007425
27.616,69.3862,0.007425
27.646,69.3715,0.007425
27.677,69.3563,0.007425
27.708,69.3419,0.007425
27.739,69.3282,0.007425
27.770,69.3155,0.007415
27.802,69.3034,0.007415
27.832,69.2919,0.007415
27.862,69.2816,0.007415
27.894,69.2718,0.007415
27.924,69.2626,0.007415
27.955,69.2543,0.007415
27.987,69.2463,0.007415
28.017,69.2394,0.007415
28.048,69.2332,0.007321
28.079,69.2278,0.007321
28.109,69.2231,0.007321
28.141,69.2188,0.007321
28.171,69.2155,0.007321
28.202,69.2129,0.007321
28.233,69.2109,0.007321
28.265,69.2097,0.007246
28.296,69.2092,0.007246
28.327,69.2092,0.007246
28.359,69.2092,0.007246
28.391,69.2092,0.007246
28.422,69.2092,0.007246
28.453,69.2092,0.007246
28.483,69.2092,0.007246
28.515,69.2092,0.007208
28.546,69.2092,0.007208
28.577,69.2092,0.007208
28.608,69.2092,0.007208
28.639,69.2092,0.007208
28.670,69.2092,0.007208
28.700,69.2097,0.007208
28.731,69.2108,0.007208
28.761,69.2126,0.007284
28.793,69.2152,0.007284
28.824,69.2187,0.007284
28.855,69.2227,0.007284
28.886,69.2275,0.007284
28.917,69.2330,0.007284
28.949,69.2394,0.007284
28.980,69.2467,0.007284
29.011,69.2542,0.007190
29.042,69.2627,0.007190
29.073,69.2718,0.007190
29.104,69.2816,0.007190
29.134,69.2921,0.007190
29.165,69.3034,0.007190
29.196,69.3153,0.007190
29.227,69.3282,0.007190
29.258,69.3418,0.007011
29.288,69.3558,0.007011
29.320,69.3706,0.007011
29.350,69.3865,0.007011
29.382,69.4029,0.007011
29.413,69.4200,0.007011
29.444,69.4381,0.007011
29.474,69.4565,0.007011
29.506,69.4762,0.006860
29.536,69.4957,0.006860
29.568,69.5166,0.006860
29.599,69.5382,0.006860
29.631,69.5609,0.006860
29.662,69.5843,0.006860
29.692,69.6070,0.006860
29.723,69.6323,0.006860
29.753,69.6564,0.006860
29.784,69.6827,0.006663
29.816,69.7096,0.006663
29.849,69.7395,0.006663
29.878,69.7647,0.006663
29.909,69.7941,0.006663
29.940,69.8236,0.006663
29.972,69.8550,0.006663
30.003,69.8853,0.006531
30.034,69.9162,0.006531
30.064,69.9461,0.006531
30.094,69.9764,0.006531
30.126,70.0087,0.006531
30.157,70.0391,0.006531
30.188,70.0700,0.006531
30.219,70.1011,0.006531
30.251,70.1333,0.006531
30.282,70.1642,0.006361
30.315,70.1976,0.006361
30.344,70.2264,0.006361
30.376,70.2580,0.006361
30.406,70.2881,0.006361
30.437,70.3192,0.006361
30.467,70.3497,0.006361
30.499,70.3809,0.006361
30.528,70.4111,0.006145
30.560,70.4421,0.006145
30.591,70.4732,0.006145
30.622,70.5047,0.006145
30.653,70.5352,0.006145
30.684,70.5667,0.006145
30.715,70.5976,0.006145
30.746,70.6285,0.006145
30.776,70.6588,0.005929
30.807,70.6898,0.005929
30.837,70.7190,0.005929
30.868,70.7514,0.005929
30.900,70.7820,0.005929
30.932,70.8144,0.005929
30.963,70.8449,0.005929
30.994,70.8772,0.005929
31.025,70.9074,0.005703
31.057,70.9400,0.005703
31.088,70.9704,0.005703
31.120,71.0029,0.005703
31.151,71.0331,0.005703
31.181,71.0642,0.005703
31.212,71.0947,0.005703
31.244,71.1268,0.005703
31.275,71.1577,0.005392
31.307,71.1901,0.005392
31.338,71.2198,0.005392
31.368,71.2506,0.005392
31.400,71.2820,0.005392
31.431,71.3132,0.005392
31.463,71.3457,0.005392
31.494,71.3765,0.005392
31.525,71.4067,0.005082
31.556,71.4384,0.005082
31.586,71.4688,0.005082
31.620,71.5031,0.005082
31.647,71.5294,0.005082
31.678,71.5608,0.005082
31.709,71.5909,0.005082
31.742,71.6248,0.005082
31.770,71.6524,0.004809
31.801,71.6838,0.004809
31.832,71.7139,0.004809
31.862,71.7446,0.004809
31.893,71.7748,0.004809
31.923,71.8051,0.004809
31.954,71.8367,0.004809
31.986,71.8687,0.004809
32.016,71.8985,0.004442
32.048,71.9300,0.004442
32.079,71.9610,0.004442
32.112,71.9947,0.004442
32.141,72.0234,0.004442
32.172,72.0544,0.004442
32.203,72.0853,0.004442
32.233,72.1155,0.004442
32.265,72.1469,0.003886
32.296,72.1779,0.003886
32.327,72.2097,0.003886
32.358,72.2413,0.003886
32.389,72.2706,0.003886
32.420,72.3018,0.003886
32.450,72.3327,0.003886
32.481,72.3636,0.003886
32.512,72.3952,0.003068
32.543,72.4250,0.003068
32.574,72.4565,0.003068
32.604,72.4866,0.003068
32.635,72.5181,0.003068
32.666,72.5480,0.003068
32.697,72.5795,0.003068
32.726,72.6084,0.003068
32.757,72.6388,0.001788
32.790,72.6733,0.001788
32.819,72.7014,0.001788
32.851,72.7335,0.001788
32.882,72.7641,0.001788
32.913,72.7958,0.001788
32.944,72.8257,0.001788
32.975,72.8573,0.001788
33.006,72.8880,0.001788
33.036,72.9186,-0.000489
33.067,72.9493,-0.000489
33.099,72.9815,-0.000489
33.129,73.0112,-0.000489
33.160,73.0431,-0.000489
33.191,73.0727,-0.000489
33.223,73.1051,-0.000489
33.253,73.1351,-0.004912
33.285,73.1669,-0.004912
33.316,73.1985,-0.004912
33.347,73.2290,-0.004912
33.378,73.2603,-0.004912
33.409,73.2913,-0.004912
33.440,73.3227,-0.004912
33.471,73.3535,-0.004912
33.502,73.3840,-0.013400
33.532,73.4149,-0.013400
33.563,73.4459,-0.013400
33.595,73.4774,-0.013400
33.625,73.5071,-0.013400
33.656,73.5382,-0.013400
33.688,73.5707,-0.013400
33.717,73.5992,-0.013400
33.748,73.6284,-0.028438
33.780,73.6583,-0.028438
33.813,73.6884,-0.028438
33.842,73.7125,-0.028438
33.874,73.7404,-0.028438
33.905,73.7660,-0.028438
33.936,73.7915,-0.028438
33.968,73.8159,-0.028438
34.000,73.8400,-0.050120
34.030,73.8624,-0.050120
34.061,73.8849,-0.050120
34.093,73.9064,-0.050120
34.125,73.9275,-0.050120
34.155,73.9470,-0.050120
34.186,73.9658,-0.050120
34.217,73.9847,-0.050120
34.248,74.0024,-0.073608
34.279,74.0197,-0.073608
34.311,74.0358,-0.073608
34.343,74.0519,-0.073608
34.374,74.0664,-0.073608
34.404,74.0803,-0.073608
34.436,74.0941,-0.073608
34.468,74.1072,-0.073608
34.499,74.1189,-0.093652
34.529,74.1297,-0.093652
34.560,74.1400,-0.093652
34.591,74.1495,-0.093652
34.621,74.1586,-0.093652
34.653,74.1669,-0.093652
34.687,74.1749,-0.093652
34.714,74.1810,-0.093652
34.748,74.1875,-0.093652
34.777,74.1924,-0.093652
34.808,74.1969,-0.107852
34.839,74.2009,-0.107852
34.871,74.2040,-0.107852
34.903,74.2064,-0.107852
34.934,74.2081,-0.107852
34.964,74.2089,-0.107852
34.996,74.2092,-0.107852
35.027,74.2092,-0.113903
35.058,74.2092,-0.113903
35.088,74.2092,-0.113903
35.120,74.2092,-0.113903
35.151,74.2092,-0.113903
35.182,74.2092,-0.113903
35.212,74.2092,-0.113903
35.243,74.2092,-0.113903
35.275,74.2092,-0.108568
35.305,74.2092,-0.108568
35.336,74.2092,-0.108568
35.367,74.2092,-0.108568
35.398,74.2092,-0.108568
35.428,74.2092,-0.108568
35.459,74.2092,-0.108568
35.491,74.2092,-0.108568
35.522,74.2092,-0.099091
35.562,74.2092,-0.099091
35.600,74.2092,-0.099091
35.631,74.2092,-0.099091
35.665,74.2092,-0.099091
35.692,74.2092,-0.099091
35.725,74.2092,-0.099091
35.755,74.2092,-0.099091
35.787,74.2092,-0.093370
35.818,74.2092,-0.093370
35.849,74.2092,-0.093370
35.881,74.2092,-0.093370
35.914,74.2092,-0.093370
35.942,74.2092,-0.093370
35.974,74.2092,-0.093370
36.005,74.2092,-0.093370
36.036,74.2092,-0.089483
36.067,74.2092,-0.089483
36.098,74.2092,-0.089483
36.129,74.2092,-0.089483
36.160,74.2092,-0.089483
36.192,74.2092,-0.089483
36.223,74.2092,-0.089483
36.254,74.2092,-0.086463
36.285,74.2092,-0.086463
36.317,74.2092,-0.086463
36.348,74.2092,-0.086463
36.379,74.2092,-0.086463
36.410,74.2092,-0.086463
36.442,74.2092,-0.086463
36.474,74.2092,-0.086463
36.505,74.2092,-0.084082
36.536,74.2092,-0.084082
36.566,74.2092,-0.084082
36.597,74.2092,-0.084082
36.627,74.2092,-0.084082
36.658,74.2092,-0.084082
36.689,74.2092,-0.084082
36.720,74.2092,-0.084082
36.751,74.2092,-0.084082
36.776,74.2092,-0.082190
36.813,74.2092,-0.082190
36.844,74.2092,-0.082190
36.875,74.2092,-0.082190
36.906,74.2092,-0.082190
36.937,74.2092,-0.082190
36.967,74.2092,-0.082190
36.998,74.2092,-0.080543
37.034,74.2092,-0.080543
37.060,74.2092,-0.080543
37.091,74.2092,-0.080543
37.122,74.2092,-0.080543
37.153,74.2092,-0.080543
37.183,74.2092,-0.080543
37.214,74.2092,-0.080543
37.245,74.2092,-0.079226
37.276,74.2092,-0.079226
37.308,74.2092,-0.079226
37.339,74.2092,-0.079226
37.370,74.2092,-0.079226
37.404,74.2092,-0.079226
37.431,74.2092,-0.079226
37.463,74.2092,-0.079226
37.494,74.2092,-0.078247
37.525,74.2092,-0.078247
37.557,74.2092,-0.078247
37.588,74.2092,-0.078247
37.619,74.2092,-0.078247
37.649,74.2092,-0.078247
37.683,74.2092,-0.078247
37.712,74.2092,-0.078247
37.743,74.2092,-0.078247
37.774,74.2092,-0.077363
37.805,74.2092,-0.077363
37.835,74.2092,-0.077363
37.865,74.2092,-0.077363
37.897,74.2092,-0.077363
37.927,74.2092,-0.077363
37.958,74.2092,-0.077363
37.990,74.2092,-0.077363
38.021,74.2092,-0.076591
38.051,74.2092,-0.076591
38.081,74.2092,-0.076591
38.113,74.2092,-0.076591
38.143,74.2092,-0.076591
38.174,74.2092,-0.076591
38.206,74.2092,-0.076591
38.237,74.2092,-0.076591
38.268,74.2092,-0.075895
38.298,74.2092,-0.075895
38.329,74.2092,-0.075895
38.360,74.2092,-0.075895
38.391,74.2092,-0.075895
38.422,74.2092,-0.075895
38.453,74.2092,-0.075895
38.484,74.2092,-0.075895
38.515,74.2092,-0.075198
38.549,74.2092,-0.075198
38.578,74.2092,-0.075198
38.609,74.2092,-0.075198
38.640,74.2092,-0.075198
38.671,74.2092,-0.075198
38.701,74.2092,-0.075198
38.733,74.2092,-0.075198
38.764,74.2092,-0.074549
38.796,74.2092,-0.074549
38.826,74.2092,-0.074549
38.857,74.2092,-0.074549
38.888,74.2092,-0.074549
38.919,74.2092,-0.074549
38.950,74.2092,-0.074549
38.982,74.2092,-0.074549
39.013,74.2092,-0.074549
39.044,74.2092,-0.073890
39.075,74.2092,-0.073890
39.106,74.2092,-0.073890
39.137,74.2092,-0.073890
39.168,74.2092,-0.073890
39.199,74.2092,-0.073890
39.230,74.2092,-0.073890
39.259,74.2092,-0.073307
39.290,74.2092,-0.073307
39.321,74.2092,-0.073307
39.353,74.2092,-0.073307
39.384,74.2092,-0.073307
39.415,74.2092,-0.073307
39.446,74.2092,-0.073307
39.477,74.2092,-0.073307
39.508,74.2092,-0.072752
39.539,74.2092,-0.072752
39.570,74.2092,-0.072752
39.601,74.2092,-0.072752
39.631,74.2092,-0.072752
39.663,74.2092,-0.072752
39.694,74.2092,-0.072752
39.724,74.2092,-0.072752
39.755,74.2084,-0.072244
39.786,74.2071,-0.072244
39.818,74.2050,-0.072244
39.849,74.2021,-0.072244
39.881,74.1984,-0.072244
39.912,74.1940,-0.072244
39.943,74.1890,-0.072244
39.974,74.1833,-0.072244
40.004,74.1769,-0.072244
40.035,74.1696,-0.068611
40.067,74.1617,-0.068611
40.097,74.1531,-0.068611
40.128,74.1434,-0.068611
40.160,74.1334,-0.068611
40.192,74.1220,-0.068611
40.223,74.1105,-0.068611
40.254,74.0979,-0.055719
40.286,74.0847,-0.055719
40.315,74.0713,-0.055719
40.346,74.0569,-0.055719
40.377,74.0416,-0.055719
40.409,74.0256,-0.055719
40.440,74.0089,-0.055719
40.470,73.9914,-0.055719
40.501,73.9734,-0.055719
40.531,73.9551,-0.055719
40.562,73.9352,-0.035788
40.594,73.9142,-0.035788
40.626,73.8929,-0.035788
40.657,73.8713,-0.035788
40.688,73.8478,-0.035788
40.719,73.8254,-0.035788
40.749,73.8015,-0.035788
40.781,73.7770,-0.014426
40.811,73.7503,-0.014426
40.843,73.7255,-0.014426
40.874,73.6982,-0.014426
40.905,73.6705,-0.014426
40.936,73.6425,-0.014426
40.967,73.6121,-0.014426
40.998,73.5827,-0.014426
41.029,73.5528,0.005919
41.061,73.5206,0.005919
41.092,73.4901,0.005919
41.122,73.4586,0.005919
41.154,73.4283,0.005919
41.185,73.3963,0.005919
41.216,73.3658,0.005919
41.248,73.3332,0.005919
41.279,73.3029,0.021126
41.310,73.2718,0.021126
41.341,73.2410,0.021126
41.371,73.2104,0.021126
41.403,73.1785,0.021126
41.433,73.1480,0.021126
41.466,73.1150,0.021126
41.495,73.0863,0.021126
41.526,73.0550,0.029144
41.557,73.0240,0.029144
41.588,72.9931,0.029144
41.619,72.9610,0.029144
41.651,72.9311,0.029144
41.681,72.9005,0.029144
41.713,72.8686,0.029144
41.744,72.8385,0.032842
41.774,72.8067,0.032842
41.805,72.7762,0.032842
41.840,72.7412,0.032842
41.867,72.7143,0.032842
41.899,72.6824,0.032842
41.929,72.6524,0.032842
41.961,72.6204,0.032842
41.994,72.5878,0.032842
42.022,72.5595,0.032842
42.054,72.5273,0.035289
42.083,72.4989,0.035289
42.116,72.4652,0.035289
42.145,72.4363,0.035289
42.175,72.4066,0.035289
42.206,72.3752,0.035289
42.237,72.3444,0.035289
42.269,72.3124,0.035289
42.300,72.2820,0.036653
42.331,72.2503,0.036653
42.365,72.2172,0.036653
42.394,72.1873,0.036653
42.425,72.1570,0.036653
42.456,72.1257,0.036653
42.486,72.0954,0.036653
42.516,72.0659,0.036860
42.547,72.0345,0.036860
42.578,72.0035,0.036860
42.609,71.9728,0.036860
42.640,71.9417,0.036860
42.672,71.9100,0.036860
42.703,71.8780,0.036860
42.735,71.8471,0.036860
42.765,71.8164,0.036860
42.797,71.7851,0.036644
42.828,71.7535,0.036644
42.861,71.7200,0.036644
42.890,71.6920,0.036644
42.923,71.6593,0.036644
42.952,71.6294,0.036644
42.983,71.5984,0.036644
43.014,71.5682,0.035816
43.045,71.5368,0.035816
43.077,71.5052,0.035816
43.108,71.4743,0.035816
43.138,71.4430,0.035816
43.170,71.4120,0.035816
43.201,71.3801,0.035816
43.232,71.3502,0.035816
43.262,71.3187,0.035816
43.293,71.2885,0.023140
43.324,71.2567,0.023140
43.355,71.2264,0.023140
43.386,71.1949,0.023140
43.417,71.1642,0.023140
43.449,71.1328,0.023140
43.480,71.1014,0.023140
43.510,71.0708,0.009824
43.542,71.0395,0.009824
43.573,71.0086,0.009824
43.604,70.9774,0.009824
43.635,70.9464,0.009824
43.666,70.9161,0.009824
43.697,70.8850,0.009824
43.728,70.8536,0.009824
43.759,70.8222,0.008225
43.790,70.7916,0.008225
43.821,70.7612,0.008225
43.852,70.7301,0.008225
43.883,70.6992,0.008225
43.914,70.6682,0.008225
43.944,70.6375,0.008225
43.976,70.6060,0.008225
44.007,70.5739,0.007886
44.038,70.5439,0.007886
44.069,70.5132,0.007886
44.100,70.4817,0.007886
44.131,70.4503,0.007886
44.161,70.4194,0.007886
44.192,70.3891,0.007886
44.223,70.3585,0.007886
44.253,70.3280,0.007886
44.285,70.2967,0.007688
44.315,70.2666,0.007688
44.348,70.2335,0.007688
44.378,70.2040,0.007688
44.409,70.1723,0.007688
44.441,70.1412,0.007688
44.471,70.1098,0.007688
44.501,70.0802,0.007622
44.532,70.0500,0.007622
44.565,70.0169,0.007622
44.593,69.9889,0.007622
44.624,69.9568,0.007622
44.655,69.9260,0.007622
44.686,69.8956,0.007622
44.717,69.8645,0.007622
44.748,69.8339,0.007622
44.778,69.8035,0.007622
44.810,69.7732,0.007632
44.841,69.7433,0.007632
44.872,69.7141,0.007632
44.903,69.6865,0.007632
44.933,69.6593,0.007632
44.964,69.6331,0.007632
44.998,69.6048,0.007632
45.028,69.5800,0.007632
45.056,69.5584,0.007632
45.089,69.5336,0.007566
45.119,69.5108,0.007566
45.150,69.4888,0.007566
45.181,69.4675,0.007566
45.212,69.4461,0.007566
45.246,69.4242,0.007566
45.274,69.4067,0.007566
45.306,69.3875,0.007444
45.337,69.3695,0.007444
45.365,69.3544,0.007444
45.399,69.3364,0.007444
45.429,69.3207,0.007444
45.461,69.3059,0.007444
45.491,69.2915,0.007444
45.522,69.2783,0.007387
45.560,69.2627,0.007387
45.599,69.2480,0.007387
45.630,69.2371,0.007387
45.661,69.2268,0.007387
45.692,69.2171,0.007387
45.723,69.2084,0.007387
45.753,69.2004,0.007387
45.784,69.1930,0.007312
45.815,69.1865,0.007312
45.846,69.1805,0.007312
45.877,69.1753,0.007312
45.908,69.1707,0.007312
45.940,69.1670,0.007312
45.970,69.1640,0.007312
46.002,69.1617,0.007312
46.033,69.1602,0.007227
46.065,69.1593,0.007227
46.094,69.1592,0.007227
46.125,69.1592,0.007227
46.157,69.1592,0.007227
46.189,69.1592,0.007227
46.220,69.1592,0.007227
46.251,69.1592,0.007227
46.283,69.1592,0.007227
46.313,69.1592,0.007227
46.345,69.1592,0.007227
46.376,69.1592,0.007227
46.408,69.1592,0.007227
46.439,69.1592,0.007227
46.471,69.1592,0.007227
46.503,69.1592,0.007255
46.536,69.1592,0.007255
46.565,69.1592,0.007255
46.597,69.1593,0.007255
46.628,69.1599,0.007255
46.658,69.1613,0.007255
46.688,69.1634,0.007255
46.719,69.1663,0.007255
46.750,69.1697,0.007255
46.781,69.1741,0.007218
46.813,69.1792,0.007218
46.844,69.1849,0.007218
46.875,69.1914,0.007218
46.906,69.1986,0.007218
46.937,69.2067,0.007218
46.968,69.2152,0.007218
46.997,69.2241,0.007218
47.029,69.2343,0.007161
47.059,69.2450,0.007161
47.089,69.2565,0.007161
47.120,69.2683,0.007161
47.152,69.2820,0.007161
47.177,69.2929,0.007161
47.213,69.3098,0.007161
47.245,69.3249,0.007161
47.276,69.3415,0.007030
47.306,69.3570,0.007030
47.337,69.3744,0.007030
47.368,69.3921,0.007030
47.398,69.4107,0.007030
47.429,69.4306,0.007030
47.460,69.4503,0.007030
47.491,69.4717,0.007030
47.522,69.4929,0.006823
47.554,69.5160,0.006823
47.584,69.5387,0.006823
47.609,69.5577,0.006823
47.646,69.5868,0.006823
47.677,69.6122,0.006823
47.709,69.6392,0.006823
47.743,69.6686,0.006823
47.772,69.6937,0.006625
47.803,69.7224,0.006625
47.833,69.7510,0.006625
47.865,69.7810,0.006625
47.896,69.8109,0.006625
47.927,69.8424,0.006625
47.958,69.8737,0.006625
47.989,69.9046,0.006408
48.020,69.9361,0.006408
48.050,69.9660,0.006408
48.084,69.9996,0.006408
48.113,70.0290,0.006408
48.144,70.0600,0.006408
48.176,70.0920,0.006408
48.207,70.1229,0.006408
48.237,70.1530,0.006408
48.271,70.1870,0.006239
48.299,70.2151,0.006239
48.329,70.2451,0.006239
48.361,70.2768,0.006239
48.392,70.3076,0.006239
48.423,70.3393,0.006239
48.454,70.3698,0.006239
48.486,70.4018,0.006239
48.516,70.4315,0.006089
48.547,70.4622,0.006089
48.578,70.4945,0.006089
48.606,70.5212,0.006089
48.640,70.5558,0.006089
48.673,70.5884,0.006089
48.703,70.6189,0.006089
48.736,70.6514,0.005863
48.766,70.6818,0.005863
48.798,70.7135,0.005863
48.828,70.7440,0.005863
48.859,70.7750,0.005863
48.893,70.8093,0.005863
48.921,70.8371,0.005863
48.953,70.8687,0.005863
48.983,70.8987,0.005863
49.015,70.9304,0.005627
49.045,70.9601,0.005627
49.075,70.9906,0.005627
49.107,71.0220,0.005627
49.139,71.0544,0.005627
49.169,71.0843,0.005627
49.200,71.1153,0.005627
49.230,71.1462,0.005627
49.261,71.1767,0.005373
49.292,71.2079,0.005373
49.323,71.2389,0.005373
49.354,71.2690,0.005373
49.385,71.3011,0.005373
49.416,71.3312,0.005373
49.449,71.3651,0.005373
49.478,71.3937,0.005373
49.509,71.4251,0.005035
49.539,71.4542,0.005035
49.570,71.4860,0.005035
49.601,71.5172,0.005035
49.633,71.5499,0.005035
49.662,71.5776,0.005035
49.693,71.6082,0.005035
49.724,71.6394,0.005035
49.755,71.6708,0.004696
49.785,71.7014,0.004696
49.817,71.7322,0.004696
49.847,71.7623,0.004696
49.878,71.7932,0.004696
49.910,71.8253,0.004696
49.941,71.8572,0.004696
49.972,71.8875,0.004696
50.003,71.9190,0.004272
50.035,71.9498,0.004272
50.065,71.9810,0.004272
50.097,72.0120,0.004272
50.128,72.0434,0.004272
50.158,72.0735,0.004272
50.189,72.1046,0.004272
50.220,72.1351,0.004272
50.251,72.1664,0.004272
50.282,72.1975,0.003689
50.314,72.2298,0.003689
50.345,72.2609,0.003689
50.377,72.2929,0.003689
50.406,72.3222,0.003689
50.438,72.3533,0.003689
50.469,72.3844,0.003689
50.499,72.4155,0.003689
50.531,72.4464,0.002785
50.568,72.4835,0.002785
50.609,72.5247,0.002785
50.640,72.5551,0.002785
50.671,72.5861,0.002785
50.701,72.6166,0.002785
50.732,72.6475,0.002785
50.763,72.6786,0.001242
50.795,72.7104,0.001242
50.826,72.7410,0.001242
50.858,72.7732,0.001242
50.888,72.8044,0.001242
50.919,72.8343,0.001242
50.949,72.8650,0.001242
50.980,72.8953,0.001242
51.011,72.9263,-0.001543
51.041,72.9570,-0.001543
51.073,72.9884,-0.001543
51.102,73.0187,-0.001543
51.133,73.0491,-0.001543
51.166,73.0814,-0.001543
51.196,73.1111,-0.001543
51.227,73.1437,-0.001543
51.256,73.1713,-0.001543
51.289,73.2051,-0.007030
51.320,73.2360,-0.007030
51.351,73.2660,-0.007030
51.382,73.2979,-0.007030
51.412,73.3280,-0.007030
51.443,73.3583,-0.007030
51.474,73.3904,-0.007030
51.506,73.4216,-0.017494
51.537,73.4528,-0.017494
51.568,73.4835,-0.017494
51.599,73.5148,-0.017494
51.631,73.5455,-0.017494
51.662,73.5755,-0.017494
51.693,73.6041,-0.017494
51.723,73.6317,-0.017494
51.754,73.6584,-0.017494
51.786,73.6863,-0.017494
51.818,73.7121,-0.035091
51.849,73.7374,-0.035091
51.879,73.7611,-0.035091
51.910,73.7848,-0.035091
51.941,73.8078,-0.035091
51.972,73.8300,-0.035091
52.003,73.8515,-0.035091
52.034,73.8727,-0.058062
52.064,73.8927,-0.058062
52.096,73.9118,-0.058062
52.132,73.9345,-0.058062
52.158,73.9485,-0.058062
52.190,73.9662,-0.058062
52.222,73.9828,-0.058062
52.256,74.0004,-0.058062
52.285,74.0141,-0.080920
52.315,74.0282,-0.080920
52.346,74.0411,-0.080920
52.377,74.0543,-0.080920
52.409,74.0663,-0.080920
52.438,74.0770,-0.080920
52.469,74.0876,-0.080920
52.502,74.0978,-0.080920
52.531,74.1066,-0.099411
52.562,74.1150,-0.099411
52.594,74.1227,-0.099411
52.625,74.1298,-0.099411
52.656,74.1359,-0.099411
52.687,74.1415,-0.099411
52.718,74.1460,-0.099411
52.750,74.1501,-0.099411
52.781,74.1534,-0.111635
52.812,74.1560,-0.111635
52.844,74.1578,-0.111635
52.875,74.1588,-0.111635
52.905,74.1592,-0.111635
52.935,74.1592,-0.111635
52.967,74.1592,-0.111635
52.997,74.1592,-0.111635
53.028,74.1592,-0.113960
53.059,74.1592,-0.113960
53.091,74.1592,-0.113960
53.122,74.1592,-0.113960
53.152,74.1592,-0.113960
53.184,74.1592,-0.113960
53.215,74.1592,-0.113960
53.249,74.1592,-0.113960
53.276,74.1592,-0.113960
53.308,74.1592,-0.106206
53.338,74.1592,-0.106206
53.369,74.1592,-0.106206
53.401,74.1592,-0.106206
53.432,74.1592,-0.106206
53.463,74.1592,-0.106206
53.493,74.1592,-0.106206
53.524,74.1592,-0.106206
53.555,74.1592,-0.097492
53.586,74.1592,-0.097492
53.617,74.1592,-0.097492
53.649,74.1592,-0.097492
53.680,74.1592,-0.097492
53.710,74.1592,-0.097492
53.741,74.1592,-0.092457
53.771,74.1592,-0.092457
53.803,74.1592,-0.092457
53.835,74.1592,-0.092457
53.866,74.1592,-0.092457
53.897,74.1592,-0.092457
53.928,74.1592,-0.092457
53.959,74.1592,-0.092457
53.990,74.1592,-0.092457
54.021,74.1592,-0.088947
54.052,74.1592,-0.088947
54.083,74.1592,-0.088947
54.115,74.1592,-0.088947
54.145,74.1592,-0.088947
54.176,74.1592,-0.088947
54.207,74.1592,-0.088947
54.238,74.1592,-0.088947
54.269,74.1592,-0.086199
54.300,74.1592,-0.086199
54.331,74.1592,-0.086199
54.362,74.1592,-0.086199
54.393,74.1592,-0.086199
54.429,74.1592,-0.086199
54.455,74.1592,-0.086199
54.488,74.1592,-0.086199
54.518,74.1592,-0.086199
54.549,74.1592,-0.083941
54.580,74.1592,-0.083941
54.610,74.1592,-0.083941
54.640,74.1592,-0.083941
54.671,74.1592,-0.083941
54.702,74.1592,-0.083941
54.733,74.1592,-0.083941
54.764,74.1592,-0.082040
54.797,74.1592,-0.082040
54.825,74.1592,-0.082040
54.856,74.1592,-0.082040
54.888,74.1592,-0.082040
54.919,74.1592,-0.082040
54.951,74.1592,-0.082040
54.981,74.1592,-0.082040
55.012,74.1592,-0.080478
55.043,74.1592,-0.080478
55.074,74.1592,-0.080478
55.105,74.1592,-0.080478
55.136,74.1592,-0.080478
55.167,74.1592,-0.080478
55.198,74.1592,-0.080478
55.229,74.1592,-0.080478
55.260,74.1592,-0.079123
55.291,74.1592,-0.079123
55.322,74.1592,-0.079123
55.354,74.1592,-0.079123
55.383,74.1592,-0.079123
55.414,74.1592,-0.079123
55.446,74.1592,-0.079123
55.477,74.1592,-0.079123
55.509,74.1592,-0.077984
55.540,74.1592,-0.077984
55.570,74.1592,-0.077984
55.601,74.1592,-0.077984
55.632,74.1592,-0.077984
55.663,74.1592,-0.077984
55.693,74.1592,-0.077984
55.725,74.1592,-0.077984
55.756,74.1592,-0.077984
55.787,74.1592,-0.077071
55.817,74.1592,-0.077071
55.849,74.1592,-0.077071
55.880,74.1592,-0.077071
55.912,74.1592,-0.077071
55.942,74.1592,-0.077071
55.973,74.1592,-0.077071
56.004,74.1592,-0.076281
56.035,74.1592,-0.076281
56.066,74.1592,-0.076281
56.097,74.1592,-0.076281
56.128,74.1592,-0.076281
56.159,74.1592,-0.076281
56.190,74.1592,-0.076281
56.221,74.1592,-0.076281
56.251,74.1592,-0.075603
56.282,74.1592,-0.075603
56.312,74.1592,-0.075603
56.343,74.1592,-0.075603
56.373,74.1592,-0.075603
56.405,74.1592,-0.075603
56.435,74.1592,-0.075603
56.466,74.1592,-0.075603
56.497,74.1592,-0.074982
56.528,74.1592,-0.074982
56.559,74.1592,-0.074982
56.589,74.1592,-0.074982
56.621,74.1592,-0.074982
56.651,74.1592,-0.074982
56.683,74.1592,-0.074982
56.714,74.1592,-0.074982
56.745,74.1592,-0.074982
56.776,74.1592,-0.074427
56.808,74.1592,-0.074427
56.839,74.1592,-0.074427
56.871,74.1592,-0.074427
56.902,74.1592,-0.074427
56.933,74.1592,-0.074427
56.964,74.1592,-0.074427
56.994,74.1592,-0.073834
57.025,74.1592,-0.073834
57.056,74.1592,-0.073834
57.087,74.1592,-0.073834
57.118,74.1592,-0.073834
57.149,74.1592,-0.073834
57.180,74.1592,-0.073834
57.211,74.1592,-0.073834
57.242,74.1592,-0.073250
57.272,74.1592,-0.073250
57.303,74.1592,-0.073250
57.335,74.1592,-0.073250
57.365,74.1592,-0.073250
57.397,74.1592,-0.073250
57.426,74.1592,-0.073250
57.458,74.1592,-0.073250
57.488,74.1592,-0.073250
57.520,74.1589,-0.072780
57.551,74.1578,-0.072780
57.583,74.1561,-0.072780
57.616,74.1532,-0.072780
57.645,74.1504,-0.072780
57.675,74.1464,-0.072780
57.707,74.1416,-0.072780
57.738,74.1361,-0.072780
57.770,74.1298,-0.069816
57.800,74.1231,-0.069816
57.831,74.1155,-0.069816
57.863,74.1070,-0.069816
57.895,74.0974,-0.069816
57.924,74.0881,-0.069816
57.956,74.0776,-0.069816
57.987,74.0661,-0.069816
58.018,74.0540,-0.057968
58.048,74.0415,-0.057968
58.082,74.0271,-0.057968
58.110,74.0141,-0.057968
58.142,73.9991,-0.057968
58.174,73.9828,-0.057968
58.205,73.9662,-0.057968
58.235,73.9498,-0.057968
58.267,73.9312,-0.038564
58.298,73.9128,-0.038564
58.328,73.8937,-0.038564
58.358,73.8748,-0.038564
58.390,73.8536,-0.038564
58.421,73.8318,-0.038564
58.453,73.8094,-0.038564
58.484,73.7859,-0.038564
58.515,73.7629,-0.017287
58.546,73.7383,-0.017287
58.577,73.7125,-0.017287
58.608,73.6873,-0.017287
58.639,73.6601,-0.017287
58.670,73.6338,-0.017287
58.700,73.6054,-0.017287
58.731,73.5779,-0.017287
58.763,73.5470,-0.017287
58.792,73.5194,0.003510
58.824,73.4860,0.003510
58.854,73.4567,0.003510
58.884,73.4267,0.003510
58.916,73.3948,0.003510
58.951,73.3601,0.003510
58.979,73.3317,0.003510
59.011,73.3003,0.019687
59.041,73.2703,0.019687
59.074,73.2366,0.019687
59.102,73.2094,0.019687
59.133,73.1775,0.019687
59.164,73.1469,0.019687
59.195,73.1155,0.019687
59.226,73.0853,0.019687
59.257,73.0539,0.028683
59.287,73.0241,0.028683
59.319,72.9921,0.028683
59.350,72.9616,0.028683
59.381,72.9281,0.028683
59.412,72.8996,0.028683
59.441,72.8703,0.028683
59.473,72.8377,0.028683
59.504,72.8072,0.032786
59.535,72.7758,0.032786
59.567,72.7440,0.032786
59.598,72.7133,0.032786
59.628,72.6829,0.032786
59.659,72.6516,0.032786
59.691,72.6197,0.032786
59.721,72.5905,0.032786
59.752,72.5585,0.032786
59.783,72.5287,0.035270
59.814,72.4969,0.035270
59.845,72.4668,0.035270
59.877,72.4329,0.035270
59.907,72.4045,0.035270
59.938,72.3725,0.035270
59.969,72.3421,0.035270
60.001,72.3088,0.035270
60.032,72.2797,0.036691
60.062,72.2492,0.036691
60.093,72.2182,0.036691
60.124,72.1871,0.036691
60.155,72.1558,0.036691
60.191,72.1196,0.036691
60.232,72.0796,0.036691
60.263,72.0482,0.036691
60.293,72.0181,0.037096
60.324,71.9869,0.037096
60.355,71.9562,0.037096
60.386,71.9255,0.037096
60.418,71.8932,0.037096
60.449,71.8620,0.037096
60.479,71.8313,0.037096
60.508,71.8032,0.037096
60.540,71.7709,0.037058
60.570,71.7402,0.037058
60.602,71.7096,0.037058
60.633,71.6780,0.037058
60.666,71.6441,0.037058
60.695,71.6161,0.037058
60.726,71.5847,0.037058
60.756,71.5550,0.037058
60.787,71.5232,0.036559
60.822,71.4880,0.036559
60.849,71.4621,0.036559
60.880,71.4317,0.036559
60.911,71.3998,0.036559
60.941,71.3703,0.036559
60.973,71.3375,0.036559
61.003,71.3086,0.036559
61.034,71.2773,0.024890
61.065,71.2465,0.024890
61.098,71.2120,0.024890
61.128,71.1830,0.024890
61.160,71.1511,0.024890
61.190,71.1207,0.024890
61.224,71.0870,0.024890
61.252,71.0585,0.024890
61.283,71.0279,0.011095
61.315,70.9968,0.011095
61.344,70.9671,0.011095
61.376,70.9356,0.011095
61.407,70.9038,0.011095
61.438,70.8737,0.011095
61.468,70.8428,0.011095
61.498,70.8128,0.008281
61.529,70.7813,0.008281
61.560,70.7515,0.008281
61.591,70.7201,0.008281
61.622,70.6894,0.008281
61.653,70.6584,0.008281
61.684,70.6270,0.008281
61.715,70.5959,0.008281
61.747,70.5643,0.007942
61.777,70.5336,0.007942
61.810,70.5011,0.007942
61.838,70.4730,0.007942
61.869,70.4422,0.007942
61.900,70.4108,0.007942
61.933,70.3787,0.007942
61.962,70.3489,0.007942
61.994,70.3174,0.007942
62.025,70.2863,0.007942
62.058,70.2533,0.007773
62.086,70.2248,0.007773
62.117,70.1944,0.007773
62.147,70.1634,0.007773
62.178,70.1334,0.007773
62.209,70.1019,0.007773
62.240,70.0719,0.007773
62.271,70.0400,0.007660
62.302,70.0095,0.007660
62.333,69.9777,0.007660
62.364,69.9469,0.007660
62.394,69.9170,0.007660
62.424,69.8867,0.007660
62.456,69.8556,0.007660
62.490,69.8212,0.007660
62.519,69.7929,0.007660
62.550,69.7618,0.007660
62.581,69.7314,0.007660
62.614,69.6986,0.007660
62.643,69.6720,0.007660
62.673,69.6450,0.007660
62.704,69.6167,0.007660
62.736,69.5899,0.007660
62.768,69.5631,0.007660
62.798,69.5382,0.007641
62.829,69.5138,0.007641
62.860,69.4892,0.007641
62.891,69.4666,0.007641
62.922,69.4443,0.007641
62.952,69.4225,0.007641
62.983,69.4020,0.007641
63.014,69.3816,0.007509
63.045,69.3622,0.007509
63.076,69.3436,0.007509
63.107,69.3251,0.007509
63.138,69.3083,0.007509
63.168,69.2914,0.007509
63.199,69.2756,0.007509
63.230,69.2606,0.007509
63.260,69.2464,0.007509
63.291,69.2327,0.007406
63.321,69.2198,0.007406
63.352,69.2078,0.007406
63.383,69.1963,0.007406
63.413,69.1859,0.007406
63.443,69.1758,0.007406
63.474,69.1661,0.007406
63.505,69.1573,0.007406
63.536,69.1494,0.007368
63.567,69.1422,0.007368
63.598,69.1355,0.007368
63.629,69.1298,0.007368
63.659,69.1247,0.007368
63.691,69.1204,0.007368
63.722,69.1166,0.007368
63.753,69.1138,0.007368
63.784,69.1116,0.007321
63.816,69.1100,0.007321
63.848,69.1093,0.007321
63.878,69.1092,0.007321
63.910,69.1092,0.007321
63.940,69.1092,0.007321
63.971,69.1092,0.007321
64.002,69.1092,0.007255
64.033,69.1092,0.007255
64.065,69.1092,0.007255
64.096,69.1092,0.007255
64.126,69.1092,0.007255
64.157,69.1092,0.007255
64.189,69.1092,0.007255
64.221,69.1092,0.007255
64.252,69.1092,0.007255
64.283,69.1092,0.007255
64.315,69.1092,0.007255
64.346,69.1092,0.007255
64.381,69.1092,0.007255
64.407,69.1092,0.007255
64.439,69.1092,0.007255
64.470,69.1092,0.007255
64.501,69.1092,0.007246
64.532,69.1098,0.007246
64.564,69.1112,0.007246
64.595,69.1133,0.007246
64.627,69.1162,0.007246
64.658,69.1197,0.007246
64.689,69.1241,0.007246
64.720,69.1289,0.007246
64.750,69.1346,0.007133
64.782,69.1413,0.007133
64.813,69.1483,0.007133
64.845,69.1565,0.007133
64.875,69.1649,0.007133
64.908,69.1749,0.007133
64.938,69.1851,0.007133
64.970,69.1959,0.007133
65.001,69.2073,0.007030
65.031,69.2196,0.007030
65.063,69.2329,0.007030
65.094,69.2470,0.007030
65.125,69.2613,0.007030
65.157,69.2768,0.007030
65.187,69.2923,0.007030
65.218,69.3093,0.007030
65.249,69.3265,0.006954
65.280,69.3446,0.006954
65.310,69.3627,0.006954
65.340,69.3824,0.006954
65.371,69.4023,0.006954
65.402,69.4229,0.006954
65.432,69.4442,0.006954
65.463,69.4664,0.006954
65.494,69.4900,0.006954
65.525,69.5134,0.006954
65.555,69.5383,0.006841
65.587,69.5638,0.006841
65.620,69.5922,0.006841
65.648,69.6158,0.006841
65.682,69.6457,0.006841
65.710,69.6715,0.006841
65.743,69.7029,0.006841
65.771,69.7288,0.006841
65.805,69.7631,0.006625
65.834,69.7910,0.006625
65.866,69.8231,0.006625
65.896,69.8533,0.006625
65.927,69.8852,0.006625
65.958,69.9155,0.006625
65.989,69.9460,0.006352
66.019,69.9772,0.006352
66.050,70.0070,0.006352
66.081,70.0386,0.006352
66.112,70.0698,0.006352
66.144,70.1011,0.006352
66.173,70.1302,0.006352
66.204,70.1617,0.006352
66.235,70.1929,0.006192
66.265,70.2231,0.006192
66.298,70.2548,0.006192
66.329,70.2858,0.006192
66.359,70.3173,0.006192
66.391,70.3477,0.006192
66.422,70.3790,0.006192
66.454,70.4120,0.006192
66.484,70.4407,0.006192
66.514,70.4720,0.006051
66.546,70.5029,0.006051
66.577,70.5354,0.006051
66.607,70.5638,0.006051
66.638,70.5959,0.006051
66.670,70.6275,0.006051
66.701,70.6588,0.006051
66.732,70.6891,0.006051
66.762,70.7201,0.005759
66.793,70.7512,0.005759
66.825,70.7817,0.005759
66.856,70.8133,0.005759
66.886,70.8436,0.005759
66.917,70.8741,0.005759
66.948,70.9054,0.005759
66.979,70.9366,0.005759
67.010,70.9675,0.005505
67.041,70.9983,0.005505
67.071,71.0290,0.005505
67.101,71.0586,0.005505
67.133,71.0900,0.005505
67.164,71.1216,0.005505
67.194,71.1517,0.005505
67.225,71.1820,0.005505
67.258,71.2152,0.005505
67.286,71.2434,0.005251
67.317,71.2745,0.005251
67.350,71.3074,0.005251
67.379,71.3368,0.005251
67.410,71.3673,0.005251
67.442,71.3987,0.005251
67.473,71.4303,0.005251
67.504,71.4609,0.004922
67.537,71.4942,0.004922
67.565,71.5228,0.004922
67.597,71.5545,0.004922
67.628,71.5848,0.004922
67.661,71.6182,0.004922
67.690,71.6469,0.004922
67.720,71.6780,0.004922
67.751,71.7091,0.004573
67.783,71.7401,0.004573
67.813,71.7701,0.004573
67.844,71.8011,0.004573
67.875,71.8329,0.004573
67.906,71.8638,0.004573
67.938,71.8953,0.004573
67.969,71.9260,0.004573
68.000,71.9580,0.004573
68.032,71.9889,0.004094
68.063,72.0205,0.004094
68.094,72.0515,0.004094
68.125,72.0824,0.004094
68.156,72.1131,0.004094
68.187,72.1443,0.004094
68.217,72.1737,0.004094
68.248,72.2057,0.003378
68.278,72.2357,0.003378
68.309,72.2668,0.003378
68.340,72.2974,0.003378
68.371,72.3286,0.003378
68.403,72.3611,0.003378
68.434,72.3910,0.003378
68.466,72.4229,0.003378
68.496,72.4528,0.003378
68.527,72.4843,0.002277
68.559,72.5159,0.002277
68.590,72.5470,0.002277
68.620,72.5776,0.002277
68.651,72.6087,0.002277
68.682,72.6399,0.002277
68.714,72.6718,0.002277
68.745,72.7029,0.002277
68.777,72.7348,0.000376
68.808,72.7658,0.000376
68.840,72.7977,0.000376
68.870,72.8272,0.000376
68.902,72.8589,0.000376
68.932,72.8893,0.000376
68.963,72.9213,0.000376
68.994,72.9515,-0.003237
69.026,72.9831,-0.003237
69.056,73.0135,-0.003237
69.089,73.0471,-0.003237
69.118,73.0750,-0.003237
69.149,73.1061,-0.003237
69.178,73.1356,-0.003237
69.209,73.1663,-0.003237
69.240,73.1975,-0.003237
69.271,73.2282,-0.010389
69.303,73.2600,-0.010389
69.333,73.2900,-0.010389
69.364,73.3209,-0.010389
69.395,73.3525,-0.010389
69.426,73.3827,-0.010389
69.456,73.4141,-0.010389
69.486,73.4431,-0.010389
69.518,73.4747,-0.023413
69.549,73.5045,-0.023413
69.579,73.5335,-0.023413
69.610,73.5624,-0.023413
69.643,73.5915,-0.023413
69.676,73.6202,-0.023413
69.701,73.6421,-0.023413
69.735,73.6702,-0.023413
69.766,73.6947,-0.023413
69.797,73.7188,-0.043542
69.829,73.7428,-0.043542
69.860,73.7655,-0.043542
69.891,73.7882,-0.043542
69.924,73.8103,-0.043542
69.953,73.8297,-0.043542
69.984,73.8491,-0.043542
70.015,73.8682,-0.067218
70.046,73.8868,-0.067218
70.077,73.9043,-0.067218
70.109,73.9221,-0.067218
70.139,73.9376,-0.067218
70.170,73.9529,-0.067218
70.200,73.9673,-0.067218
70.232,73.9820,-0.067218
70.263,73.9947,-0.067218
70.294,74.0074,-0.088796
70.325,74.0192,-0.088796
70.355,74.0302,-0.088796
70.386,74.0404,-0.088796
70.416,74.0498,-0.088796
70.447,74.0589,-0.088796
70.484,74.0683,-0.088796
70.509,74.0745,-0.088796
70.540,74.0812,-0.105255
70.572,74.0874,-0.105255
70.603,74.0927,-0.105255
70.634,74.0972,-0.105255
70.665,74.1010,-0.105255
70.697,74.1043,-0.105255
70.727,74.1065,-0.105255
70.759,74.1082,-0.115240
70.791,74.1090,-0.115240
70.820,74.1092,-0.115240
70.851,74.1092,-0.115240
70.883,74.1092,-0.115240
70.914,74.1092,-0.115240
70.943,74.1092,-0.115240
70.974,74.1092,-0.115240
71.006,74.1092,-0.113066
71.036,74.1092,-0.113066
71.067,74.1092,-0.113066
71.098,74.1092,-0.113066
71.128,74.1092,-0.113066
71.159,74.1092,-0.113066
71.191,74.1092,-0.113066
71.222,74.1092,-0.113066
71.254,74.1092,-0.103317
71.284,74.1092,-0.103317
71.316,74.1092,-0.103317
71.348,74.1092,-0.103317
71.379,74.1092,-0.103317
71.409,74.1092,-0.103317
71.441,74.1092,-0.103317
71.472,74.1092,-0.103317
71.503,74.1092,-0.096447
71.533,74.1092,-0.096447
71.564,74.1092,-0.096447
71.595,74.1092,-0.096447
71.626,74.1092,-0.096447
71.658,74.1092,-0.096447
71.689,74.1092,-0.096447
71.720,74.1092,-0.096447
71.751,74.1092,-0.091958
71.781,74.1092,-0.091958
71.813,74.1092,-0.091958
71.843,74.1092,-0.091958
71.875,74.1092,-0.091958
71.906,74.1092,-0.091958
71.938,74.1092,-0.091958
71.968,74.1092,-0.091958
71.999,74.1092,-0.088693
72.031,74.1092,-0.088693
72.062,74.1092,-0.088693
72.093,74.1092,-0.088693
72.124,74.1092,-0.088693
72.155,74.1092,-0.088693
72.186,74.1092,-0.088693
72.217,74.1092,-0.088693
72.248,74.1092,-0.088693
72.279,74.1092,-0.086162
72.310,74.1092,-0.086162
72.341,74.1092,-0.086162
72.372,74.1092,-0.086162
72.403,74.1092,-0.086162
72.434,74.1092,-0.086162
72.465,74.1092,-0.086162
72.496,74.1092,-0.086162
72.526,74.1092,-0.086162
72.557,74.1092,-0.084007
72.590,74.1092,-0.084007
72.619,74.1092,-0.084007
72.650,74.1092,-0.084007
72.683,74.1092,-0.084007
72.712,74.1092,-0.084007
72.744,74.1092,-0.084007
72.775,74.1092,-0.084007
72.806,74.1092,-0.082171
72.837,74.1092,-0.082171
72.867,74.1092,-0.082171
72.898,74.1092,-0.082171
72.929,74.1092,-0.082171
72.960,74.1092,-0.082171
72.992,74.1092,-0.082171
73.022,74.1092,-0.080694
73.053,74.1092,-0.080694
73.084,74.1092,-0.080694
73.115,74.1092,-0.080694
73.145,74.1092,-0.080694
73.177,74.1092,-0.080694
73.207,74.1092,-0.080694
73.240,74.1092,-0.080694
73.270,74.1092,-0.079414
73.301,74.1092,-0.079414
73.333,74.1092,-0.079414
73.364,74.1092,-0.079414
73.398,74.1092,-0.079414
73.428,74.1092,-0.079414
73.457,74.1092,-0.079414
73.489,74.1092,-0.079414
73.516,74.1092,-0.078257
73.550,74.1092,-0.078257
73.581,74.1092,-0.078257
73.611,74.1092,-0.078257
73.643,74.1092,-0.078257
73.674,74.1092,-0.078257
73.705,74.1092,-0.078257
73.736,74.1092,-0.077193
73.767,74.1092,-0.077193
73.798,74.1092,-0.077193
73.830,74.1092,-0.077193
73.860,74.1092,-0.077193
73.892,74.1092,-0.077193
73.925,74.1092,-0.077193
73.954,74.1092,-0.077193
73.986,74.1092,-0.077193
74.017,74.1092,-0.076205
74.047,74.1092,-0.076205
74.079,74.1092,-0.076205
74.110,74.1092,-0.076205
74.141,74.1092,-0.076205
74.172,74.1092,-0.076205
74.204,74.1092,-0.076205
74.234,74.1092,-0.076205
74.265,74.1092,-0.075481
74.295,74.1092,-0.075481
74.326,74.1092,-0.075481
74.357,74.1092,-0.075481
74.388,74.1092,-0.075481
74.418,74.1092,-0.075481
74.449,74.1092,-0.075481
74.480,74.1092,-0.075481
74.511,74.1092,-0.074888
74.542,74.1092,-0.074888
74.574,74.1092,-0.074888
74.605,74.1092,-0.074888
74.635,74.1092,-0.074888
74.665,74.1092,-0.074888
74.696,74.1092,-0.074888
74.727,74.1092,-0.074888
74.759,74.1092,-0.074248
74.790,74.1092,-0.074248
74.822,74.1092,-0.074248
74.853,74.1092,-0.074248
74.888,74.1092,-0.074248
74.915,74.1092,-0.074248
74.946,74.1092,-0.074248
74.977,74.1092,-0.074248
75.008,74.1092,-0.074248
75.039,74.1092,-0.073693
75.070,74.1092,-0.073693
75.101,74.1091,-0.073693
75.132,74.1081,-0.073693
75.164,74.1065,-0.073693
75.195,74.1043,-0.073693
75.227,74.1009,-0.073693
75.258,74.0972,-0.073241
75.289,74.0927,-0.073241
75.319,74.0876,-0.073241
75.352,74.0812,-0.073241
75.379,74.0751,-0.073241
75.410,74.0679,-0.073241
75.441,74.0597,-0.073241
75.472,74.0509,-0.073241
75.503,74.0412,-0.064800
75.533,74.0312,-0.064800
75.564,74.0200,-0.064800
75.595,74.0085,-0.064800
75.626,73.9960,-0.064800
75.658,73.9827,-0.064800
75.688,73.9689,-0.064800
75.719,73.9547,-0.064800
75.749,73.9393,-0.046732
75.780,73.9231,-0.046732
75.812,73.9064,-0.046732
75.846,73.8866,-0.046732
75.874,73.8707,-0.046732
75.905,73.8514,-0.046732
75.938,73.8304,-0.046732
75.967,73.8109,-0.046732
75.998,73.7902,-0.046732
76.028,73.7689,-0.046732
76.059,73.7464,-0.025869
76.091,73.7220,-0.025869
76.122,73.6984,-0.025869
76.153,73.6735,-0.025869
76.184,73.6472,-0.025869
76.215,73.6211,-0.025869
76.249,73.5907,-0.025869
76.277,73.5669,-0.025869
76.308,73.5383,-0.004225
76.338,73.5091,-0.004225
76.372,73.4769,-0.004225
76.401,73.4485,-0.004225
76.431,73.4184,-0.004225
76.462,73.3868,-0.004225
76.493,73.3565,-0.004225
76.523,73.3256,-0.004225
76.554,73.2957,0.014238
76.584,73.2649,0.014238
76.616,73.2336,0.014238
76.647,73.2012,0.014238
76.678,73.1711,0.014238
76.710,73.1396,0.014238
76.740,73.1093,0.014238
76.770,73.0788,0.025822
76.801,73.0476,0.025822
76.832,73.0171,0.025822
76.863,72.9866,0.025822
76.895,72.9546,0.025822
76.926,72.9235,0.025822
76.957,72.8923,0.025822
76.988,72.8613,0.025822
77.018,72.8313,0.025822
77.049,72.8006,0.031139
77.080,72.7693,0.031139
77.112,72.7379,0.031139
77.143,72.7058,0.031139
77.175,72.6748,0.031139
77.206,72.6430,0.031139
77.237,72.6124,0.031139
77.269,72.5795,0.031139
77.298,72.5514,0.033840
77.331,72.5184,0.033840
77.363,72.4859,0.033840
77.395,72.4549,0.033840
77.426,72.4235,0.033840
77.458,72.3916,0.033840
77.488,72.3614,0.033840
77.519,72.3302,0.035571
77.549,72.3000,0.035571
77.581,72.2680,0.035571
77.613,72.2365,0.035571
77.643,72.2062,0.035571
77.674,72.1746,0.035571
77.705,72.1441,0.035571
77.736,72.1131,0.035571
77.770,72.0794,0.035571
77.799,72.0507,0.035571
77.830,72.0187,0.036230
77.862,71.9872,0.036230
77.893,71.9567,0.036230
77.924,71.9253,0.036230
77.956,71.8932,0.036230
77.989,71.8596,0.036230
78.018,71.8313,0.036230
78.049,71.7999,0.036268
78.079,71.7699,0.036268
78.111,71.7388,0.036268
78.142,71.7076,0.036268
78.173,71.6770,0.036268
78.204,71.6451,0.036268
78.235,71.6147,0.036268
78.267,71.5825,0.036268
78.297,71.5522,0.036042
78.328,71.5211,0.036042
78.359,71.4902,0.036042
78.390,71.4591,0.036042
78.423,71.4263,0.036042
78.452,71.3972,0.036042
78.483,71.3659,0.036042
78.514,71.3357,0.029502
78.544,71.3052,0.029502
78.575,71.2740,0.029502
78.606,71.2429,0.029502
78.638,71.2114,0.029502
78.669,71.1809,0.029502
78.699,71.1500,0.029502
78.731,71.1189,0.029502
78.761,71.0889,0.016092
78.792,71.0571,0.016092
78.823,71.0270,0.016092
78.853,70.9966,0.016092
78.884,70.9657,0.016092
78.915,70.9351,0.016092
78.946,70.9031,0.016092
78.977,70.8723,0.016092
79.007,70.8413,0.008620
79.039,70.8103,0.008620
79.069,70.7799,0.008620
79.100,70.7495,0.008620
79.131,70.7180,0.008620
79.161,70.6884,0.008620
79.192,70.6580,0.008620
79.223,70.6260,0.008620
79.254,70.5951,0.008018
79.285,70.5644,0.008018
79.315,70.5347,0.008018
79.347,70.5026,0.008018
79.377,70.4722,0.008018
79.408,70.4412,0.008018
79.439,70.4103,0.008018
79.470,70.3793,0.008018
79.501,70.3488,0.007811
79.532,70.3178,0.007811
79.561,70.2879,0.007811
79.596,70.2537,0.007811
79.623,70.2260,0.007811
79.654,70.1958,0.007811
79.684,70.1651,0.007811
79.715,70.1348,0.007811
79.746,70.1034,0.007811
79.777,70.0729,0.007811
79.807,70.0421,0.007726
79.838,70.0107,0.007726
79.871,69.9777,0.007726
79.900,69.9488,0.007726
79.934,69.9157,0.007726
79.962,69.8873,0.007726
79.992,69.8573,0.007726
80.023,69.8257,0.007679
80.055,69.7951,0.007679
80.086,69.7633,0.007679
80.117,69.7322,0.007679
80.148,69.7017,0.007679
80.179,69.6714,0.007679
80.211,69.6409,0.007679
80.242,69.6115,0.007679
80.273,69.5845,0.007660
80.304,69.5569,0.007660
80.335,69.5304,0.007660
80.366,69.5048,0.007660
80.397,69.4797,0.007660
80.427,69.4559,0.007660
80.458,69.4320,0.007660
80.489,69.4091,0.007660
80.521,69.3869,0.007585
80.552,69.3651,0.007585
80.582,69.3444,0.007585
80.613,69.3249,0.007585
80.645,69.3054,0.007585
80.676,69.2863,0.007585
80.707,69.2688,0.007585
80.739,69.2511,0.007500
80.770,69.2345,0.007500
80.802,69.2186,0.007500
80.832,69.2042,0.007500
80.862,69.1903,0.007500
80.894,69.1767,0.007500
80.925,69.1635,0.007500
80.957,69.1516,0.007500
80.988,69.1402,0.007434
81.018,69.1300,0.007434
81.050,69.1200,0.007434
81.081,69.1109,0.007434
81.112,69.1026,0.007434
81.143,69.0949,0.007434
81.175,69.0881,0.007434
81.207,69.0817,0.007434
81.237,69.0766,0.007434
81.268,69.0719,0.007434
81.300,69.0679,0.007415
81.331,69.0647,0.007415
81.362,69.0622,0.007415
81.392,69.0605,0.007415
81.423,69.0595,0.007415
81.455,69.0592,0.007415
81.485,69.0592,0.007415
81.516,69.0592,0.007302
81.547,69.0592,0.007302
81.578,69.0592,0.007302
81.609,69.0592,0.007302
81.640,69.0597,0.007302
81.672,69.0610,0.007302
81.703,69.0629,0.007302
81.734,69.0657,0.007302
81.764,69.0690,0.007208
81.796,69.0732,0.007208
81.826,69.0780,0.007208
81.857,69.0835,0.007208
81.887,69.0899,0.007208
81.919,69.0969,0.007208
81.950,69.1045,0.007208
81.981,69.1132,0.007208
82.012,69.1221,0.007180
82.043,69.1325,0.007180
82.073,69.1427,0.007180
82.104,69.1542,0.007180
82.135,69.1659,0.007180
82.167,69.1792,0.007180
82.197,69.1924,0.007180
82.228,69.2071,0.007180
82.260,69.2219,0.007020
82.291,69.2382,0.007020
82.320,69.2533,0.007020
82.351,69.2708,0.007020
82.382,69.2882,0.007020
82.413,69.3076,0.007020
82.444,69.3267,0.007020
82.477,69.3483,0.007020
82.509,69.3694,0.007020
82.537,69.3890,0.006841
82.568,69.4112,0.006841
82.600,69.4348,0.006841
82.630,69.4583,0.006841
82.663,69.4843,0.006841
82.691,69.5072,0.006841
82.722,69.5327,0.006841
82.753,69.5599,0.006841
82.784,69.5863,0.006691
82.814,69.6144,0.006691
82.848,69.6454,0.006691
82.876,69.6725,0.006691
82.908,69.7034,0.006691
82.939,69.7337,0.006691
82.970,69.7655,0.006691
83.001,69.7967,0.006446
83.032,69.8272,0.006446
83.063,69.8586,0.006446
83.094,69.8888,0.006446
83.125,69.9206,0.006446
83.156,69.9506,0.006446
83.186,69.9817,0.006446
83.217,70.0127,0.006446
83.248,70.0440,0.006248
83.279,70.0746,0.006248
83.311,70.1064,0.006248
83.342,70.1374,0.006248
83.373,70.1676,0.006248
83.404,70.1996,0.006248
83.435,70.2299,0.006248
83.466,70.2613,0.006248
83.497,70.2928,0.006117
83.528,70.3238,0.006117
83.559,70.3544,0.006117
83.590,70.3854,0.006117
83.622,70.4165,0.006117
83.653,70.4478,0.006117
83.684,70.4786,0.006117
83.714,70.5098,0.006117
83.745,70.5396,0.006117
83.775,70.5700,0.005929
83.806,70.6011,0.005929
83.837,70.6327,0.005929
83.868,70.6633,0.005929
83.900,70.6950,0.005929
83.931,70.7257,0.005929
83.962,70.7572,0.005929
83.993,70.7879,0.005665
84.025,70.8194,0.005665
84.055,70.8499,0.005665
84.086,70.8815,0.005665
84.118,70.9137,0.005665
84.148,70.9433,0.005665
84.179,70.9744,0.005665
84.210,71.0052,0.005665
84.241,71.0354,0.005665
84.271,71.0660,0.005665
84.302,71.0966,0.005345
84.332,71.1272,0.005345
84.363,71.1591,0.005345
84.394,71.1891,0.005345
84.426,71.2205,0.005345
84.455,71.2500,0.005345
84.488,71.2828,0.005345
84.517,71.3124,0.005091
84.550,71.3446,0.005091
84.579,71.3747,0.005091
84.610,71.4053,0.005091
84.641,71.4356,0.005091
84.673,71.4678,0.005091
84.703,71.4978,0.005091
84.738,71.5331,0.005091
84.765,71.5608,0.004762
84.796,71.5913,0.004762
84.827,71.6217,0.004762
84.858,71.6527,0.004762
84.889,71.6836,0.004762
84.920,71.7158,0.004762
84.951,71.7464,0.004762
84.986,71.7808,0.004762
85.013,71.8082,0.004762
85.044,71.8393,0.004310
85.076,71.8706,0.004310
85.107,71.9015,0.004310
85.137,71.9324,0.004310
85.168,71.9634,0.004310
85.199,71.9944,0.004310
85.230,72.0250,0.004310
85.265,72.0596,0.003745
85.293,72.0883,0.003745
85.324,72.1194,0.003745
85.355,72.1501,0.003745
85.387,72.1824,0.003745
85.419,72.2140,0.003745
85.448,72.2439,0.003745
85.479,72.2744,0.003745
85.510,72.3057,0.002814
85.541,72.3359,0.002814
85.572,72.3669,0.002814
85.605,72.3998,0.002814
85.633,72.4278,0.002814
85.665,72.4598,0.002814
85.695,72.4898,0.002814
85.727,72.5218,0.002814
85.757,72.5527,0.001355
85.789,72.5847,0.001355
85.820,72.6157,0.001355
85.851,72.6462,0.001355
85.881,72.6761,0.001355
85.912,72.7064,0.001355
85.943,72.7375,0.001355
85.974,72.7690,0.001355
86.005,72.8000,0.001355
86.036,72.8304,-0.001308
86.068,72.8635,-0.001308
86.098,72.8930,-0.001308
86.130,72.9249,-0.001308
86.160,72.9552,-0.001308
86.192,72.9875,-0.001308
86.222,73.0173,-0.001308
86.253,73.0489,-0.001308
86.284,73.0792,-0.006644
86.315,73.1100,-0.006644
86.345,73.1396,-0.006644
86.376,73.1713,-0.006644
86.407,73.2024,-0.006644
86.438,73.2326,-0.006644
86.469,73.2636,-0.006644
86.500,73.2949,-0.016788
86.530,73.3244,-0.016788
86.561,73.3556,-0.016788
86.592,73.3869,-0.016788
86.624,73.4188,-0.016788
86.656,73.4495,-0.016788
86.687,73.4790,-0.016788
86.719,73.5086,-0.016788
86.756,73.5419,-0.016788
86.797,73.5778,-0.033934
86.828,73.6039,-0.033934
86.859,73.6289,-0.033934
86.889,73.6534,-0.033934
86.921,73.6776,-0.033934
86.951,73.7009,-0.033934
86.985,73.7249,-0.033934
87.014,73.7451,-0.033934
87.044,73.7662,-0.056754
87.075,73.7861,-0.056754
87.106,73.8057,-0.056754
87.136,73.8236,-0.056754
87.170,73.8437,-0.056754
87.199,73.8594,-0.056754
87.229,73.8764,-0.056754
87.261,73.8923,-0.056754
87.293,73.9084,-0.079913
87.324,73.9227,-0.079913
87.354,73.9364,-0.079913
87.385,73.9490,-0.079913
87.418,73.9626,-0.079913
87.448,73.9733,-0.079913
87.479,73.9839,-0.079913
87.510,73.9940,-0.079913
87.537,74.0023,-0.099063
87.573,74.0125,-0.099063
87.603,74.0200,-0.099063
87.635,74.0275,-0.099063
87.667,74.0341,-0.099063
87.697,74.0395,-0.099063
87.728,74.0445,-0.099063
87.758,74.0486,-0.112605
87.789,74.0523,-0.112605
87.820,74.0551,-0.112605
87.852,74.0572,-0.112605
87.883,74.0586,-0.112605
87.914,74.0592,-0.112605
87.946,74.0592,-0.112605
87.976,74.0592,-0.112605
88.007,74.0592,-0.112605
88.038,74.0592,-0.116811
88.069,74.0592,-0.116811
88.100,74.0592,-0.116811
88.132,74.0592,-0.116811
88.163,74.0592,-0.116811
88.193,74.0592,-0.116811
88.224,74.0592,-0.116811
88.256,74.0592,-0.116811
88.287,74.0592,-0.109330
88.318,74.0592,-0.109330
88.348,74.0592,-0.109330
88.380,74.0592,-0.109330
88.413,74.0592,-0.109330
88.442,74.0592,-0.109330
88.473,74.0592,-0.109330
88.505,74.0592,-0.099835
88.536,74.0592,-0.099835
88.567,74.0592,-0.099835
88.597,74.0592,-0.099835
88.629,74.0592,-0.099835
88.659,74.0592,-0.099835
88.691,74.0592,-0.099835
88.721,74.0592,-0.099835
88.752,74.0592,-0.094565
88.784,74.0592,-0.094565
88.815,74.0592,-0.094565
88.846,74.0592,-0.094565
88.877,74.0592,-0.094565
88.908,74.0592,-0.094565
88.939,74.0592,-0.094565
88.970,74.0592,-0.094565
89.002,74.0592,-0.094565
89.032,74.0592,-0.094565
89.063,74.0592,-0.090754
89.094,74.0592,-0.090754
89.125,74.0592,-0.090754
89.156,74.0592,-0.090754
89.187,74.0592,-0.090754
89.219,74.0592,-0.090754
89.249,74.0592,-0.090754
89.281,74.0592,-0.087837
89.311,74.0592,-0.087837
89.342,74.0592,-0.087837
89.373,74.0592,-0.087837
89.404,74.0592,-0.087837
89.434,74.0592,-0.087837
89.465,74.0592,-0.087837
89.497,74.0592,-0.087837
89.527,74.0592,-0.085559
89.558,74.0592,-0.085559
89.588,74.0592,-0.085559
89.619,74.0592,-0.085559
89.651,74.0592,-0.085559
89.683,74.0592,-0.085559
89.714,74.0592,-0.085559
89.745,74.0592,-0.085559
89.776,74.0592,-0.083602
89.807,74.0592,-0.083602
89.838,74.0592,-0.083602
89.869,74.0592,-0.083602
89.899,74.0592,-0.083602
89.931,74.0592,-0.083602
89.962,74.0592,-0.083602
89.993,74.0592,-0.083602
90.024,74.0592,-0.081899
90.054,74.0592,-0.081899
90.085,74.0592,-0.081899
90.116,74.0592,-0.081899
90.147,74.0592,-0.081899
90.176,74.0592,-0.081899
90.208,74.0592,-0.081899
90.238,74.0592,-0.081899
90.270,74.0592,-0.080468
90.301,74.0592,-0.080468
90.332,74.0592,-0.080468
90.363,74.0592,-0.080468
90.394,74.0592,-0.080468
90.425,74.0592,-0.080468
90.456,74.0592,-0.080468
90.488,74.0592,-0.080468
90.518,74.0592,-0.079273
90.550,74.0592,-0.079273
90.579,74.0592,-0.079273
90.610,74.0592,-0.079273
90.643,74.0592,-0.079273
90.673,74.0592,-0.079273
90.705,74.0592,-0.079273
90.735,74.0592,-0.079273
90.766,74.0592,-0.078191
90.798,74.0592,-0.078191
90.828,74.0592,-0.078191
90.859,74.0592,-0.078191
90.891,74.0592,-0.078191
90.922,74.0592,-0.078191
90.952,74.0592,-0.078191
90.984,74.0592,-0.078191
91.015,74.0592,-0.078191
91.048,74.0592,-0.077137
91.077,74.0592,-0.077137
91.110,74.0592,-0.077137
91.139,74.0592,-0.077137
91.171,74.0592,-0.077137
91.202,74.0592,-0.077137
91.233,74.0592,-0.077137
91.263,74.0592,-0.077137
91.294,74.0592,-0.076252
91.326,74.0592,-0.076252
91.356,74.0592,-0.076252
91.387,74.0592,-0.076252
91.418,74.0592,-0.076252
91.448,74.0592,-0.076252
91.479,74.0592,-0.076252
91.510,74.0592,-0.075500
91.542,74.0592,-0.075500
91.572,74.0592,-0.075500
91.603,74.0592,-0.075500
91.634,74.0592,-0.075500
91.665,74.0592,-0.075500
91.696,74.0592,-0.075500
91.728,74.0592,-0.075500
91.758,74.0592,-0.075500
91.789,74.0592,-0.074728
91.820,74.0592,-0.074728
91.852,74.0592,-0.074728
91.882,74.0592,-0.074728
91.913,74.0592,-0.074728
91.945,74.0592,-0.074728
91.978,74.0592,-0.074728
92.007,74.0592,-0.074728
92.038,74.0592,-0.074041
92.069,74.0592,-0.074041
92.100,74.0592,-0.074041
92.131,74.0592,-0.074041
92.166,74.0592,-0.074041
92.192,74.0592,-0.074041
92.224,74.0592,-0.074041
92.254,74.0592,-0.073486
92.285,74.0591,-0.073486
92.315,74.0582,-0.073486
92.346,74.0566,-0.073486
92.377,74.0544,-0.073486
92.408,74.0513,-0.073486
92.440,74.0476,-0.073486
92.471,74.0429,-0.073486
92.502,74.0378,-0.073486
92.533,74.0317,-0.071660
92.564,74.0252,-0.071660
92.594,74.0178,-0.071660
92.625,74.0099,-0.071660
92.656,74.0009,-0.071660
92.688,73.9911,-0.071660
92.717,73.9815,-0.071660
92.748,73.9702,-0.060810
92.780,73.9586,-0.060810
92.811,73.9461,-0.060810
92.843,73.9324,-0.060810
92.872,73.9190,-0.060810
92.904,73.9045,-0.060810
92.934,73.8892,-0.060810
92.965,73.8729,-0.060810
92.996,73.8562,-0.060810
93.027,73.8386,-0.041349
93.058,73.8206,-0.041349
93.090,73.8006,-0.041349
93.119,73.7822,-0.041349
93.151,73.7616,-0.041349
93.182,73.7401,-0.041349
93.213,73.7187,-0.041349
93.244,73.6951,-0.020006
93.278,73.6703,-0.020006
93.306,73.6482,-0.020006
93.337,73.6232,-0.020006
93.368,73.5975,-0.020006
93.399,73.5713,-0.020006
93.430,73.5438,-0.020006
93.462,73.5159,-0.020006
93.493,73.4875,0.001280
93.523,73.4581,0.001280
93.554,73.4293,0.001280
93.585,73.3983,0.001280
93.615,73.3680,0.001280
93.647,73.3370,0.001280
93.678,73.3054,0.001280
93.709,73.2745,0.001280
93.741,73.2423,0.001280
93.772,73.2118,0.018143
93.803,73.1805,0.018143
93.834,73.1503,0.018143
93.864,73.1195,0.018143
93.895,73.0891,0.018143
93.926,73.0579,0.018143
93.957,73.0266,0.018143
93.988,72.9959,0.018143
94.018,72.9656,0.027855
94.050,72.9333,0.027855
94.081,72.9030,0.027855
94.112,72.8713,0.027855
94.143,72.8406,0.027855
94.174,72.8091,0.027855
94.205,72.7788,0.027855
94.236,72.7481,0.027855
94.267,72.7167,0.032428
94.298,72.6852,0.032428
94.331,72.6514,0.032428
94.360,72.6228,0.032428
94.392,72.5917,0.032428
94.427,72.5567,0.032428
94.454,72.5292,0.032428
94.486,72.4973,0.032428
94.517,72.4670,0.035185
94.550,72.4338,0.035185
94.580,72.4038,0.035185
94.611,72.3721,0.035185
94.643,72.3404,0.035185
94.673,72.3104,0.035185
94.704,72.2800,0.035185
94.735,72.2490,0.035185
94.765,72.2186,0.036701
94.797,72.1873,0.036701
94.828,72.1565,0.036701
94.859,72.1241,0.036701
94.891,72.0930,0.036701
94.923,72.0607,0.036701
94.954,72.0300,0.036701
94.985,71.9988,0.036701
95.016,71.9676,0.037039
95.047,71.9371,0.037039
95.078,71.9054,0.037039
95.109,71.8748,0.037039
95.140,71.8433,0.037039
95.172,71.8123,0.037039
95.202,71.7815,0.037039
95.234,71.7504,0.037039
95.263,71.7204,0.037039
95.294,71.6891,0.036851
95.324,71.6593,0.036851
95.356,71.6275,0.036851
95.387,71.5965,0.036851
95.417,71.5666,0.036851
95.448,71.5352,0.036851
95.479,71.5050,0.036851
95.511,71.4717,0.036851
95.541,71.4431,0.036851
95.572,71.4115,0.036305
95.603,71.3809,0.036305
95.635,71.3486,0.036305
95.667,71.3172,0.036305
95.699,71.2848,0.036305
95.728,71.2553,0.036305
95.760,71.2241,0.036305
95.793,71.1899,0.025813
95.821,71.1629,0.025813
95.852,71.1310,0.025813
95.882,71.1016,0.025813
95.914,71.0700,0.025813
95.944,71.0396,0.025813
95.975,71.0083,0.025813
96.007,70.9766,0.025813
96.037,70.9464,0.012234
96.068,70.9159,0.012234
96.098,70.8855,0.012234
96.129,70.8545,0.012234
96.160,70.8236,0.012234
96.191,70.7928,0.012234
96.221,70.7626,0.012234
96.252,70.7317,0.012234
96.283,70.7008,0.008441
96.315,70.6687,0.008441
96.346,70.6380,0.008441
96.378,70.6059,0.008441
96.408,70.5759,0.008441
96.439,70.5445,0.008441
96.471,70.5134,0.008441
96.502,70.4820,0.008441
96.533,70.4513,0.007971
96.565,70.4186,0.007971
96.595,70.3886,0.007971
96.626,70.3584,0.007971
96.656,70.3270,0.007971
96.687,70.2970,0.007971
96.718,70.2663,0.007971
96.748,70.2355,0.007971
96.779,70.2041,0.007773
96.810,70.1731,0.007773
96.842,70.1423,0.007773
96.872,70.1112,0.007773
96.903,70.0811,0.007773
96.934,70.0494,0.007773
96.965,70.0192,0.007773
96.999,69.9842,0.007773
97.026,69.9577,0.007679
97.058,69.9264,0.007679
97.089,69.8946,0.007679
97.120,69.8638,0.007679
97.152,69.8313,0.007679
97.183,69.8008,0.007679
97.215,69.7694,0.007679
97.245,69.7386,0.007679
97.276,69.7071,0.007679
97.307,69.6766,0.007679
97.339,69.6455,0.007679
97.370,69.6149,0.007679
97.402,69.5851,0.007679
97.433,69.5559,0.007679
97.464,69.5280,0.007679
97.495,69.5010,0.007679
97.526,69.4748,0.007660
97.558,69.4488,0.007660
97.589,69.4235,0.007660
97.620,69.3991,0.007660
97.652,69.3751,0.007660
97.683,69.3519,0.007660
97.715,69.3300,0.007660
97.745,69.3088,0.007660
97.776,69.2884,0.007660
97.807,69.2686,0.007519
97.840,69.2487,0.007519
97.870,69.2306,0.007519
97.901,69.2129,0.007519
97.932,69.1961,0.007519
97.963,69.1800,0.007519
97.994,69.1648,0.007519
98.025,69.1500,0.007500
98.055,69.1365,0.007500
98.087,69.1232,0.007500
98.117,69.1107,0.007500
98.149,69.0989,0.007500
98.179,69.0879,0.007500
98.211,69.0775,0.007500
98.242,69.0678,0.007500
98.273,69.0589,0.007444
98.303,69.0509,0.007444
98.335,69.0434,0.007444
98.366,69.0367,0.007444
98.398,69.0305,0.007444
98.429,69.0254,0.007444
98.459,69.0210,0.007444
98.490,69.0172,0.007444
98.523,69.0141,0.007321
98.553,69.0118,0.007321
98.584,69.0102,0.007321
98.614,69.0094,0.007321
98.646,69.0092,0.007321
98.676,69.0092,0.007321
98.707,69.0092,0.007321
98.738,69.0092,0.007284
98.768,69.0095,0.007284
98.799,69.0104,0.007284
98.829,69.0120,0.007284
98.860,69.0143,0.007284
98.891,69.0174,0.007284
98.922,69.0212,0.007284
98.952,69.0256,0.007284
98.983,69.0309,0.007284
99.013,69.0368,0.007284
99.044,69.0434,0.007190
99.074,69.0504,0.007190
99.105,69.0589,0.007190
99.136,69.0675,0.007190
99.168,69.0775,0.007190
99.200,69.0879,0.007190
99.231,69.0992,0.007190
99.263,69.1112,0.007058
99.294,69.1237,0.007058
99.326,69.1376,0.007058
99.357,69.1513,0.007058
99.387,69.1661,0.007058
99.419,69.1814,0.007058
99.450,69.1978,0.007058
99.481,69.2148,0.007058
99.512,69.2325,0.006964
99.543,69.2513,0.006964
99.574,69.2699,0.006964
99.605,69.2902,0.006964
99.635,69.3099,0.006964
99.667,69.3320,0.006964
99.699,69.3539,0.006964
99.729,69.3766,0.006964
99.761,69.4004,0.006832
99.794,69.4261,0.006832
99.823,69.4499,0.006832
99.854,69.4757,0.006832
99.883,69.5004,0.006832
99.916,69.5292,0.006832
99.948,69.5582,0.006832
99.979,69.5863,0.006832
100.010,69.6161,0.006634
100.041,69.6455,0.006634
100.072,69.6771,0.006634
100.103,69.7075,0.006634
100.134,69.7392,0.006634
100.165,69.7701,0.006634
100.196,69.8006,0.006634
100.227,69.8325,0.006634
100.259,69.8631,0.006634
100.290,69.8950,0.006427
100.320,69.9249,0.006427
100.352,69.9563,0.006427
100.383,69.9874,0.006427
100.414,70.0192,0.006427
100.445,70.0497,0.006427
100.476,70.0808,0.006427
100.506,70.1106,0.006267
100.537,70.1413,0.006267
100.568,70.1730,0.006267
100.606,70.2102,0.006267
100.647,70.2512,0.006267
100.678,70.2826,0.006267
100.709,70.3140,0.006267
100.739,70.3434,0.006267
100.770,70.3749,0.006051
100.802,70.4067,0.006051
100.833,70.4384,0.006051
100.865,70.4702,0.006051
100.896,70.5015,0.006051
100.928,70.5327,0.006051
100.957,70.5620,0.006051
100.985,70.5891,0.006051
101.021,70.6249,0.005797
101.051,70.6555,0.005797
101.082,70.6862,0.005797
101.113,70.7187,0.005797
101.145,70.7499,0.005797
101.178,70.7832,0.005797
101.207,70.8111,0.005797
101.240,70.8447,0.005797
101.270,70.8739,0.005590
101.300,70.9052,0.005590
101.332,70.9367,0.005590
101.362,70.9672,0.005590
101.396,71.0004,0.005590
101.422,71.0265,0.005590
101.456,71.0606,0.005590
101.486,71.0904,0.005590
101.518,71.1227,0.005326
101.548,71.1527,0.005326
101.579,71.1845,0.005326
101.609,71.2141,0.005326
101.641,71.2456,0.005326
101.671,71.2761,0.005326
101.703,71.3085,0.005326
101.733,71.3383,0.005326
101.764,71.3689,0.004969
101.795,71.3992,0.004969
101.826,71.4307,0.004969
101.857,71.4612,0.004969
101.887,71.4916,0.004969
101.919,71.5237,0.004969
101.949,71.5531,0.004969
101.979,71.5840,0.004969
102.010,71.6149,0.004969
102.042,71.6461,0.004969
102.073,71.6774,0.004545
102.104,71.7084,0.004545
102.135,71.7404,0.004545
102.166,71.7708,0.004545
102.197,71.8024,0.004545
102.228,71.8326,0.004545
102.261,71.8653,0.004545
102.291,71.8951,0.004037
102.322,71.9271,0.004037
102.352,71.9567,0.004037
102.383,71.9883,0.004037
102.414,72.0185,0.004037
102.448,72.0533,0.004037
102.477,72.0820,0.004037
102.509,72.1139,0.004037
102.541,72.1452,0.003341
102.572,72.1766,0.003341
102.602,72.2077,0.003341
102.634,72.2384,0.003341
102.664,72.2685,0.003341
102.696,72.3010,0.003341
102.726,72.3307,0.003341
102.757,72.3618,0.003341
102.788,72.3926,0.002230
102.819,72.4242,0.002230
102.850,72.4540,0.002230
102.881,72.4861,0.002230
102.912,72.5169,0.002230
102.943,72.5479,0.002230
102.974,72.5779,0.002230
103.005,72.6099,0.002230
103.036,72.6403,0.000386
103.067,72.6715,0.000386
103.098,72.7034,0.000386
103.130,72.7348,0.000386
103.160,72.7652,0.000386
103.191,72.7952,0.000386
103.222,72.8267,0.000386
103.253,72.8574,0.000386
103.284,72.8893,-0.003228
103.315,72.9197,-0.003228
103.346,72.9513,-0.003228
103.377,72.9822,-0.003228
103.408,73.0135,-0.003228
103.439,73.0435,-0.003228
103.470,73.0750,-0.003228
103.502,73.1062,-0.003228
103.533,73.1374,-0.010474
103.564,73.1690,-0.010474
103.595,73.1989,-0.010474
103.626,73.2306,-0.010474
103.657,73.2611,-0.010474
103.688,73.2925,-0.010474
103.719,73.3234,-0.010474
103.750,73.3545,-0.023582
103.781,73.3849,-0.023582
103.812,73.4142,-0.023582
103.843,73.4446,-0.023582
103.874,73.4719,-0.023582
103.904,73.4990,-0.023582
103.936,73.5267,-0.023582
103.967,73.5527,-0.023582
103.997,73.5774,-0.043683
104.028,73.6021,-0.043683
104.059,73.6264,-0.043683
104.096,73.6540,-0.043683
104.136,73.6824,-0.043683
104.168,73.7040,-0.043683
104.199,73.7252,-0.043683
104.230,73.7448,-0.043683
104.262,73.7648,-0.067341
104.292,73.7830,-0.067341
104.323,73.8008,-0.067341
104.354,73.8178,-0.067341
104.387,73.8350,-0.067341
104.416,73.8493,-0.067341
104.446,73.8643,-0.067341
104.478,73.8790,-0.067341
104.508,73.8917,-0.067341
104.541,73.9052,-0.089145
104.569,73.9161,-0.089145
104.601,73.9279,-0.089145
104.632,73.9381,-0.089145
104.663,73.9481,-0.089145
104.694,73.9570,-0.089145
104.727,73.9661,-0.089145
104.756,73.9729,-0.089145
104.787,73.9800,-0.089145
104.818,73.9861,-0.106008
104.849,73.9915,-0.106008
104.881,73.9965,-0.106008
104.911,74.0002,-0.106008
104.942,74.0035,-0.106008
104.973,74.0060,-0.106008
105.004,74.0079,-0.106008
105.035,74.0089,-0.117263
105.066,74.0092,-0.117263
105.096,74.0092,-0.117263
105.127,74.0092,-0.117263
105.157,74.0092,-0.117263
105.188,74.0092,-0.117263
105.219,74.0092,-0.117263
105.251,74.0092,-0.117263
