Elapsed Time (s),Position (mm),Force (N)
-0.019,75.8092,-0.067303
0.011,75.8092,-0.067303
0.043,75.8092,-0.067303
0.074,75.8092,-0.067303
0.106,75.8092,-0.067303
0.137,75.8092,-0.063605
0.168,75.8092,-0.063605
0.200,75.8092,-0.063605
0.230,75.8092,-0.063605
0.260,75.8092,-0.063605
0.291,75.8092,-0.063605
0.324,75.8092,-0.063605
0.355,75.8092,-0.060970
0.386,75.8092,-0.060970
0.416,75.8092,-0.060970
0.447,75.8092,-0.060970
0.478,75.8092,-0.060970
0.509,75.8092,-0.060970
0.540,75.8092,-0.060970
0.572,75.8092,-0.060970
0.601,75.8092,-0.060970
0.633,75.8092,-0.058871
0.664,75.8092,-0.058871
0.695,75.8092,-0.058871
0.725,75.8092,-0.058871
0.756,75.8092,-0.058871
0.787,75.8092,-0.058871
0.818,75.8092,-0.058871
0.849,75.8092,-0.057187
0.884,75.8092,-0.057187
0.910,75.8092,-0.057187
0.942,75.8092,-0.057187
0.973,75.8092,-0.057187
1.004,75.8092,-0.057187
1.036,75.8092,-0.057187
1.067,75.8092,-0.057187
1.098,75.8092,-0.055747
1.129,75.8092,-0.055747
1.159,75.8092,-0.055747
1.191,75.8092,-0.055747
1.221,75.8092,-0.055747
1.253,75.8092,-0.055747
1.283,75.8092,-0.055747
1.315,75.8092,-0.055747
1.345,75.8092,-0.054543
1.376,75.8092,-0.054543
1.406,75.8092,-0.054543
1.438,75.8092,-0.054543
1.468,75.8092,-0.054543
1.499,75.8092,-0.054543
1.530,75.8092,-0.054543
1.561,75.8092,-0.054543
1.592,75.8092,-0.053489
1.623,75.8092,-0.053489
1.654,75.8092,-0.053489
1.686,75.8092,-0.053489
1.717,75.8092,-0.053489
1.747,75.8092,-0.053489
1.778,75.8092,-0.053489
1.810,75.8092,-0.053489
1.841,75.8092,-0.052529
1.872,75.8092,-0.052529
1.904,75.8092,-0.052529
1.935,75.8092,-0.052529
1.966,75.8092,-0.052529
1.997,75.8092,-0.052529
2.028,75.8092,-0.052529
2.059,75.8092,-0.052529
2.090,75.8092,-0.051663
2.120,75.8092,-0.051663
2.152,75.8092,-0.051663
2.184,75.8092,-0.051663
2.214,75.8092,-0.051663
2.245,75.8092,-0.051663
2.276,75.8092,-0.051663
2.308,75.8092,-0.051663
2.339,75.8092,-0.050891
2.370,75.8092,-0.050891
2.400,75.8092,-0.050891
2.430,75.8092,-0.050891
2.461,75.8092,-0.050891
2.492,75.8092,-0.050891
2.523,75.8092,-0.050891
2.554,75.8092,-0.050891
2.585,75.8092,-0.050204
2.616,75.8092,-0.050204
2.648,75.8092,-0.050204
2.679,75.8092,-0.050204
2.710,75.8092,-0.050204
2.741,75.8092,-0.050204
2.771,75.8092,-0.050204
2.803,75.8092,-0.050204
2.834,75.8092,-0.050204
2.866,75.8092,-0.050204
2.897,75.8092,-0.049527
2.929,75.8092,-0.049527
2.961,75.8092,-0.049527
2.991,75.8092,-0.049527
3.023,75.8092,-0.049527
3.054,75.8092,-0.049527
3.085,75.8092,-0.049527
3.115,75.8092,-0.048925
3.147,75.8092,-0.048925
3.178,75.8092,-0.048925
3.210,75.8092,-0.048925
3.240,75.8092,-0.048925
3.272,75.8092,-0.048925
3.303,75.8092,-0.048925
3.333,75.8092,-0.048925
3.365,75.8092,-0.048360
3.396,75.8092,-0.048360
3.427,75.8092,-0.048360
3.457,75.8092,-0.048360
3.488,75.8092,-0.048360
3.519,75.8092,-0.048360
3.551,75.8092,-0.048360
3.582,75.8092,-0.048360
3.613,75.8092,-0.047852
3.644,75.8092,-0.047852
3.675,75.8092,-0.047852
3.707,75.8092,-0.047852
3.738,75.8092,-0.047852
3.772,75.8092,-0.047852
3.802,75.8092,-0.047852
3.832,75.8092,-0.047306
3.863,75.8092,-0.047306
3.893,75.8092,-0.047306
3.924,75.8092,-0.047306
3.955,75.8092,-0.047306
3.986,75.8092,-0.047306
4.017,75.8092,-0.047306
4.048,75.8092,-0.047306
4.078,75.8092,-0.047306
4.110,75.8091,-0.046741
4.141,75.8081,-0.046741
4.172,75.8065,-0.046741
4.203,75.8041,-0.046741
4.236,75.8008,-0.046741
4.266,75.7972,-0.046741
4.299,75.7922,-0.046741
4.329,75.7870,-0.046741
4.360,75.7810,-0.046741
4.391,75.7744,-0.045480
4.422,75.7669,-0.045480
4.452,75.7590,-0.045480
4.483,75.7502,-0.045480
4.514,75.7406,-0.045480
4.545,75.7302,-0.045480
4.577,75.7188,-0.045480
4.608,75.7065,-0.045480
4.640,75.6940,-0.038724
4.671,75.6802,-0.038724
4.701,75.6667,-0.038724
4.733,75.6513,-0.038724
4.764,75.6364,-0.038724
4.795,75.6201,-0.038724
4.825,75.6033,-0.038724
4.856,75.5855,-0.038724
4.887,75.5674,-0.024674
4.919,75.5471,-0.024674
4.950,75.5280,-0.024674
4.981,75.5066,-0.024674
5.011,75.4867,-0.024674
5.042,75.4647,-0.024674
5.073,75.4420,-0.024674
5.104,75.4180,-0.024674
5.135,75.3936,-0.007764
5.166,75.3693,-0.007764
5.196,75.3435,-0.007764
5.227,75.3173,-0.007764
5.258,75.2903,-0.007764
5.289,75.2623,-0.007764
5.320,75.2337,-0.007764
5.352,75.2045,-0.007764
5.383,75.1736,0.007867
5.415,75.1427,0.007867
5.446,75.1112,0.007867
5.477,75.0803,0.007867
5.507,75.0498,0.007867
5.541,75.0164,0.007867
5.570,74.9866,0.007867
5.599,74.9582,0.007867
5.633,74.9240,0.018840
5.664,74.8923,0.018840
5.695,74.8629,0.018840
5.726,74.8315,0.018840
5.756,74.8011,0.018840
5.787,74.7705,0.018840
5.819,74.7378,0.018840
5.849,74.7085,0.024806
5.880,74.6776,0.024806
5.911,74.6462,0.024806
5.943,74.6146,0.024806
5.974,74.5831,0.024806
6.005,74.5521,0.024806
6.037,74.5201,0.024806
6.067,74.4903,0.024806
6.098,74.4596,0.024806
6.128,74.4296,0.028608
6.159,74.3978,0.028608
6.190,74.3680,0.028608
6.221,74.3364,0.028608
6.252,74.3052,0.028608
6.283,74.2745,0.028608
6.314,74.2427,0.028608
6.344,74.2133,0.028608
6.375,74.1815,0.031892
6.406,74.1509,0.031892
6.438,74.1193,0.031892
6.469,74.0884,0.031892
6.500,74.0570,0.031892
6.531,74.0262,0.031892
6.562,73.9945,0.031892
6.594,73.9636,0.034122
6.626,73.9311,0.034122
6.657,73.9005,0.034122
6.689,73.8691,0.034122
6.718,73.8395,0.034122
6.749,73.8082,0.034122
6.780,73.7775,0.034122
6.811,73.7466,0.034122
6.842,73.7153,0.034988
6.873,73.6849,0.034988
6.904,73.6532,0.034988
6.935,73.6224,0.034988
6.967,73.5912,0.034988
6.998,73.5592,0.034988
7.029,73.5288,0.034988
7.060,73.4973,0.034988
7.091,73.4663,0.034884
7.121,73.4358,0.034884
7.153,73.4051,0.034884
7.184,73.3729,0.034884
7.215,73.3429,0.034884
7.247,73.3103,0.034884
7.278,73.2796,0.034884
7.309,73.2476,0.034884
7.339,73.2187,0.023978
7.370,73.1873,0.023978
7.401,73.1566,0.023978
7.432,73.1251,0.023978
7.463,73.0946,0.023978
7.495,73.0626,0.023978
7.526,73.0306,0.023978
7.558,72.9990,0.023978
7.590,72.9681,0.010464
7.620,72.9371,0.010464
7.651,72.9068,0.010464
7.683,72.8747,0.010464
7.714,72.8438,0.010464
7.745,72.8128,0.010464
7.775,72.7825,0.010464
7.807,72.7503,0.010464
7.836,72.7211,0.010464
7.867,72.6896,0.010464
7.898,72.6594,0.007415
7.930,72.6269,0.007415
7.964,72.5934,0.007415
7.992,72.5655,0.007415
8.022,72.5352,0.007415
8.053,72.5042,0.007415
8.085,72.4722,0.007415
8.116,72.4416,0.007086
8.147,72.4107,0.007086
8.178,72.3793,0.007086
8.209,72.3489,0.007086
8.239,72.3177,0.007086
8.271,72.2873,0.007086
8.302,72.2562,0.007086
8.333,72.2246,0.007086
8.364,72.1935,0.006973
8.396,72.1615,0.006973
8.429,72.1283,0.006973
8.458,72.0994,0.006973
8.490,72.0679,0.006973
8.520,72.0376,0.006973
8.551,72.0063,0.006973
8.582,71.9754,0.006973
8.614,71.9440,0.006917
8.645,71.9128,0.006917
8.676,71.8818,0.006917
8.707,71.8501,0.006917
8.738,71.8195,0.006917
8.770,71.7875,0.006917
8.800,71.7575,0.006917
8.832,71.7251,0.006917
8.863,71.6945,0.006917
8.898,71.6594,0.006917
8.925,71.6323,0.006917
8.957,71.6003,0.006917
8.988,71.5693,0.006917
9.019,71.5387,0.006917
9.049,71.5088,0.006917
9.080,71.4778,0.006917
9.111,71.4469,0.006964
9.145,71.4120,0.006964
9.173,71.3847,0.006964
9.204,71.3553,0.006964
9.235,71.3260,0.006964
9.266,71.2981,0.006964
9.297,71.2706,0.006964
9.327,71.2438,0.006964
9.358,71.2186,0.006964
9.389,71.1929,0.006879
9.420,71.1677,0.006879
9.451,71.1434,0.006879
9.482,71.1205,0.006879
9.513,71.0976,0.006879
9.544,71.0758,0.006879
9.575,71.0548,0.006879
9.606,71.0345,0.006785
9.637,71.0143,0.006785
9.669,70.9956,0.006785
9.700,70.9770,0.006785
9.731,70.9600,0.006785
9.762,70.9429,0.006785
9.793,70.9268,0.006785
9.825,70.9114,0.006785
9.854,70.8973,0.006785
9.885,70.8834,0.006747
9.917,70.8705,0.006747
9.948,70.8581,0.006747
9.979,70.8463,0.006747
10.009,70.8355,0.006747
10.040,70.8254,0.006747
10.071,70.8163,0.006747
10.102,70.8075,0.006681
10.133,70.7993,0.006681
10.164,70.7921,0.006681
10.195,70.7854,0.006681
10.226,70.7797,0.006681
10.258,70.7745,0.006681
10.288,70.7703,0.006681
10.325,70.7660,0.006681
10.366,70.7624,0.006634
10.397,70.7607,0.006634
10.428,70.7596,0.006634
10.459,70.7592,0.006634
10.490,70.7592,0.006634
10.521,70.7592,0.006634
10.552,70.7592,0.006634
10.583,70.7592,0.006634
10.615,70.7596,0.006597
10.645,70.7607,0.006597
10.676,70.7626,0.006597
10.709,70.7653,0.006597
10.737,70.7683,0.006597
10.768,70.7722,0.006597
10.798,70.7768,0.006597
10.830,70.7825,0.006597
10.861,70.7885,0.006484
10.891,70.7954,0.006484
10.922,70.8027,0.006484
10.953,70.8112,0.006484
10.984,70.8204,0.006484
11.014,70.8299,0.006484
11.045,70.8401,0.006484
11.077,70.8524,0.006484
11.105,70.8625,0.006427
11.138,70.8760,0.006427
11.166,70.8882,0.006427
11.198,70.9025,0.006427
11.229,70.9176,0.006427
11.260,70.9330,0.006427
11.291,70.9492,0.006427
11.324,70.9678,0.006427
11.352,70.9835,0.006427
11.383,71.0021,0.006343
11.415,71.0212,0.006343
11.448,71.0434,0.006343
11.477,71.0618,0.006343
11.508,71.0833,0.006343
11.539,71.1060,0.006343
11.571,71.1293,0.006343
11.601,71.1514,0.006183
11.633,71.1775,0.006183
11.662,71.2001,0.006183
11.694,71.2267,0.006183
11.724,71.2531,0.006183
11.754,71.2790,0.006183
11.785,71.3064,0.006183
11.816,71.3349,0.006183
11.847,71.3642,0.006041
11.878,71.3942,0.006041
11.909,71.4250,0.006041
11.940,71.4571,0.006041
11.971,71.4870,0.006041
12.003,71.5190,0.006041
12.032,71.5479,0.006041
12.063,71.5794,0.006041
12.093,71.6094,0.006041
12.125,71.6414,0.005938
12.155,71.6715,0.005938
12.185,71.7020,0.005938
12.216,71.7332,0.005938
12.247,71.7634,0.005938
12.278,71.7946,0.005938
12.309,71.8252,0.005938
12.340,71.8568,0.005863
12.371,71.8875,0.005863
12.402,71.9185,0.005863
12.433,71.9488,0.005863
12.464,71.9796,0.005863
12.494,72.0110,0.005863
12.525,72.0414,0.005863
12.557,72.0731,0.005863
12.590,72.1064,0.005863
12.619,72.1346,0.005863
12.653,72.1695,0.005712
12.681,72.1966,0.005712
12.713,72.2288,0.005712
12.743,72.2589,0.005712
12.774,72.2898,0.005712
12.805,72.3207,0.005712
12.836,72.3518,0.005712
12.868,72.3839,0.005712
12.898,72.4143,0.005562
12.930,72.4458,0.005562
12.961,72.4776,0.005562
12.992,72.5078,0.005562
13.023,72.5391,0.005562
13.054,72.5708,0.005562
13.085,72.6011,0.005562
13.116,72.6330,0.005364
13.147,72.6636,0.005364
13.177,72.6930,0.005364
13.209,72.7246,0.005364
13.240,72.7561,0.005364
13.271,72.7877,0.005364
13.302,72.8186,0.005364
13.333,72.8501,0.005364
13.364,72.8798,0.005364
13.394,72.9110,0.005100
13.425,72.9414,0.005100
13.456,72.9732,0.005100
13.488,73.0042,0.005100
13.520,73.0372,0.005100
13.552,73.0682,0.005100
13.583,73.1000,0.005100
13.614,73.1300,0.005100
13.645,73.1608,0.004875
13.676,73.1919,0.004875
13.708,73.2234,0.004875
13.738,73.2537,0.004875
13.769,73.2845,0.004875
13.800,73.3160,0.004875
13.831,73.3473,0.004875
13.862,73.3783,0.004875
13.893,73.4091,0.004649
13.924,73.4401,0.004649
13.955,73.4705,0.004649
13.984,73.5008,0.004649
14.015,73.5321,0.004649
14.047,73.5633,0.004649
14.077,73.5939,0.004649
14.109,73.6245,0.004649
14.140,73.6564,0.004376
14.171,73.6870,0.004376
14.202,73.7185,0.004376
14.233,73.7490,0.004376
14.264,73.7806,0.004376
14.294,73.8106,0.004376
14.325,73.8411,0.004376
14.356,73.8721,0.003962
14.387,73.9032,0.003962
14.418,73.9347,0.003962
14.448,73.9640,0.003962
14.479,73.9951,0.003962
14.510,74.0261,0.003962
14.542,74.0575,0.003962
14.573,74.0891,0.003962
14.604,74.1201,0.003312
14.635,74.1508,0.003312
14.666,74.1821,0.003312
14.698,74.2140,0.003312
14.728,74.2438,0.003312
14.759,74.2753,0.003312
14.791,74.3075,0.003312
14.822,74.3384,0.003312
14.853,74.3692,0.002287
14.885,74.4005,0.002287
14.916,74.4323,0.002287
14.948,74.4639,0.002287
14.980,74.4960,0.002287
15.010,74.5261,0.002287
15.042,74.5578,0.002287
15.072,74.5888,0.002287
15.104,74.6202,0.000461
15.135,74.6513,0.000461
15.166,74.6812,0.000461
15.197,74.7126,0.000461
15.227,74.7432,0.000461
15.258,74.7737,0.000461
15.288,74.8045,0.000461
15.319,74.8345,0.000461
15.350,74.8665,0.000461
15.385,74.9012,-0.003021
15.412,74.9286,-0.003021
15.443,74.9594,-0.003021
15.475,74.9914,-0.003021
15.505,75.0213,-0.003021
15.537,75.0528,-0.003021
15.567,75.0832,-0.003021
15.599,75.1152,-0.009956
15.632,75.1475,-0.009956
15.661,75.1746,-0.009956
15.692,75.2031,-0.009956
15.722,75.2309,-0.009956
15.753,75.2580,-0.009956
15.783,75.2837,-0.009956
15.814,75.3099,-0.009956
15.844,75.3344,-0.022303
15.879,75.3616,-0.022303
15.908,75.3836,-0.022303
15.939,75.4069,-0.022303
15.968,75.4281,-0.022303
15.998,75.4493,-0.022303
16.029,75.4694,-0.022303
16.059,75.4898,-0.022303
16.091,75.5092,-0.038536
16.122,75.5279,-0.038536
16.153,75.5457,-0.038536
16.184,75.5633,-0.038536
16.216,75.5808,-0.038536
16.245,75.5953,-0.038536
16.276,75.6100,-0.038536
16.308,75.6249,-0.038536
16.338,75.6383,-0.054354
16.369,75.6516,-0.054354
16.399,75.6629,-0.054354
16.430,75.6743,-0.054354
16.461,75.6849,-0.054354
16.492,75.6949,-0.054354
16.523,75.7045,-0.054354
16.554,75.7131,-0.054354
16.588,75.7214,-0.054354
16.616,75.7277,-0.054354
16.646,75.7343,-0.066390
16.677,75.7396,-0.066390
16.709,75.7448,-0.066390
16.740,75.7492,-0.066390
16.771,75.7526,-0.066390
16.797,75.7549,-0.066390
16.833,75.7574,-0.066390
16.864,75.7586,-0.066390
16.894,75.7592,-0.072404
16.924,75.7592,-0.072404
16.956,75.7592,-0.072404
16.986,75.7592,-0.072404
17.018,75.7592,-0.072404
17.049,75.7592,-0.072404
17.080,75.7592,-0.072404
17.111,75.7592,-0.072404
17.143,75.7592,-0.071481
17.174,75.7592,-0.071481
17.205,75.7592,-0.071481
17.236,75.7592,-0.071481
17.266,75.7592,-0.071481
17.297,75.7592,-0.071481
17.329,75.7592,-0.071481
17.361,75.7592,-0.067181
17.392,75.7592,-0.067181
17.423,75.7592,-0.067181
17.454,75.7592,-0.067181
17.485,75.7592,-0.067181
17.516,75.7592,-0.067181
17.547,75.7592,-0.067181
17.578,75.7592,-0.067181
17.609,75.7592,-0.063558
17.640,75.7592,-0.063558
17.671,75.7592,-0.063558
17.703,75.7592,-0.063558
17.734,75.7592,-0.063558
17.764,75.7592,-0.063558
17.795,75.7592,-0.063558
17.826,75.7592,-0.063558
17.857,75.7592,-0.060960
17.888,75.7592,-0.060960
17.919,75.7592,-0.060960
17.950,75.7592,-0.060960
17.981,75.7592,-0.060960
18.012,75.7592,-0.060960
18.042,75.7592,-0.060960
18.073,75.7592,-0.060960
18.104,75.7592,-0.058928
18.134,75.7592,-0.058928
18.165,75.7592,-0.058928
18.201,75.7592,-0.058928
18.227,75.7592,-0.058928
18.257,75.7592,-0.058928
18.288,75.7592,-0.058928
18.319,75.7592,-0.058928
18.351,75.7592,-0.057243
18.382,75.7592,-0.057243
18.413,75.7592,-0.057243
18.444,75.7592,-0.057243
18.475,75.7592,-0.057243
18.506,75.7592,-0.057243
18.537,75.7592,-0.057243
18.573,75.7592,-0.057243
18.599,75.7592,-0.057243
18.631,75.7592,-0.055822
18.662,75.7592,-0.055822
18.693,75.7592,-0.055822
18.725,75.7592,-0.055822
18.760,75.7592,-0.055822
18.786,75.7592,-0.055822
18.817,75.7592,-0.055822
18.848,75.7592,-0.054627
18.878,75.7592,-0.054627
18.909,75.7592,-0.054627
18.941,75.7592,-0.054627
18.970,75.7592,-0.054627
19.001,75.7592,-0.054627
19.032,75.7592,-0.054627
19.063,75.7592,-0.054627
19.095,75.7592,-0.053536
19.125,75.7592,-0.053536
19.156,75.7592,-0.053536
19.188,75.7592,-0.053536
19.219,75.7592,-0.053536
19.251,75.7592,-0.053536
19.281,75.7592,-0.053536
19.313,75.7592,-0.053536
19.344,75.7592,-0.053536
19.374,75.7592,-0.053536
19.406,75.7592,-0.052595
19.437,75.7592,-0.052595
19.468,75.7592,-0.052595
19.499,75.7592,-0.052595
19.530,75.7592,-0.052595
19.561,75.7592,-0.052595
19.593,75.7592,-0.052595
19.624,75.7592,-0.051785
19.654,75.7592,-0.051785
19.686,75.7592,-0.051785
19.717,75.7592,-0.051785
19.749,75.7592,-0.051785
19.780,75.7592,-0.051785
19.811,75.7592,-0.051785
19.842,75.7592,-0.051785
19.873,75.7592,-0.051785
19.904,75.7592,-0.050976
19.935,75.7592,-0.050976
19.967,75.7592,-0.050976
19.998,75.7592,-0.050976
20.029,75.7592,-0.050976
20.060,75.7592,-0.050976
20.091,75.7592,-0.050976
20.123,75.7592,-0.050223
20.153,75.7592,-0.050223
20.185,75.7592,-0.050223
20.216,75.7592,-0.050223
20.247,75.7592,-0.050223
20.278,75.7592,-0.050223
20.309,75.7592,-0.050223
20.340,75.7592,-0.050223
20.371,75.7592,-0.049593
20.403,75.7592,-0.049593
20.434,75.7592,-0.049593
20.465,75.7592,-0.049593
20.496,75.7592,-0.049593
20.527,75.7592,-0.049593
20.559,75.7592,-0.049593
20.588,75.7592,-0.049593
20.620,75.7592,-0.049019
20.652,75.7592,-0.049019
20.682,75.7592,-0.049019
20.713,75.7592,-0.049019
20.745,75.7592,-0.049019
20.775,75.7592,-0.049019
20.806,75.7592,-0.049019
20.837,75.7592,-0.049019
20.867,75.7592,-0.049019
20.899,75.7592,-0.048445
20.929,75.7592,-0.048445
20.960,75.7592,-0.048445
20.991,75.7592,-0.048445
21.022,75.7592,-0.048445
21.053,75.7592,-0.048445
21.084,75.7592,-0.048445
21.115,75.7592,-0.048445
21.145,75.7592,-0.047889
21.176,75.7592,-0.047889
21.207,75.7591,-0.047889
21.238,75.7585,-0.047889
21.270,75.7570,-0.047889
21.302,75.7548,-0.047889
21.332,75.7519,-0.047889
21.364,75.7482,-0.047372
21.394,75.7438,-0.047372
21.425,75.7386,-0.047372
21.456,75.7329,-0.047372
21.488,75.7261,-0.047372
21.519,75.7190,-0.047372
21.550,75.7106,-0.047372
21.582,75.7017,-0.047372
21.614,75.6921,-0.043467
21.644,75.6820,-0.043467
21.675,75.6709,-0.043467
21.707,75.6589,-0.043467
21.738,75.6464,-0.043467
21.769,75.6333,-0.043467
21.801,75.6193,-0.043467
21.832,75.6046,-0.043467
21.863,75.5889,-0.032071
21.894,75.5728,-0.032071
21.925,75.5562,-0.032071
21.955,75.5391,-0.032071
21.986,75.5210,-0.032071
22.017,75.5019,-0.032071
22.048,75.4820,-0.032071
22.079,75.4617,-0.032071
22.110,75.4407,-0.015584
22.140,75.4194,-0.015584
22.171,75.3968,-0.015584
22.204,75.3720,-0.015584
22.234,75.3486,-0.015584
22.266,75.3233,-0.015584
22.296,75.2980,-0.015584
22.327,75.2721,-0.015584
22.358,75.2446,0.001101
22.390,75.2165,0.001101
22.421,75.1877,0.001101
22.453,75.1577,0.001101
22.483,75.1287,0.001101
22.514,75.0979,0.001101
22.546,75.0664,0.001101
22.576,75.0359,0.001101
22.607,75.0054,0.001101
22.638,74.9739,0.014567
22.669,74.9434,0.014567
22.700,74.9120,0.014567
22.731,74.8818,0.014567
22.762,74.8504,0.014567
22.793,74.8191,0.014567
22.824,74.7889,0.014567
22.855,74.7571,0.022594
22.886,74.7264,0.022594
22.917,74.6952,0.022594
22.949,74.6626,0.022594
22.981,74.6320,0.022594
23.011,74.6012,0.022594
23.042,74.5701,0.022594
23.073,74.5390,0.022594
23.104,74.5079,0.022594
23.135,74.4771,0.026923
23.167,74.4456,0.026923
23.199,74.4136,0.026923
23.229,74.3832,0.026923
23.260,74.3523,0.026923
23.291,74.3217,0.026923
23.322,74.2900,0.026923
23.353,74.2592,0.026923
23.383,74.2294,0.030377
23.415,74.1973,0.030377
23.447,74.1658,0.030377
23.477,74.1348,0.030377
23.508,74.1033,0.030377
23.540,74.0726,0.030377
23.571,74.0410,0.030377
23.602,74.0105,0.030377
23.634,73.9789,0.033200
23.665,73.9476,0.033200
23.696,73.9167,0.033200
23.727,73.8856,0.033200
23.757,73.8551,0.033200
23.788,73.8236,0.033200
23.820,73.7930,0.033200
23.851,73.7618,0.033200
23.881,73.7312,0.034696
23.913,73.6997,0.034696
23.943,73.6693,0.034696
23.975,73.6372,0.034696
24.006,73.6058,0.034696
24.038,73.5744,0.034696
24.069,73.5433,0.034696
24.100,73.5119,0.035007
24.131,73.4803,0.035007
24.163,73.4497,0.035007
24.194,73.4183,0.035007
24.224,73.3884,0.035007
24.255,73.3570,0.035007
24.287,73.3256,0.035007
24.317,73.2948,0.035007
24.348,73.2649,0.032024
24.379,73.2327,0.032024
24.410,73.2025,0.032024
24.442,73.1706,0.032024
24.474,73.1387,0.032024
24.505,73.1076,0.032024
24.536,73.0766,0.032024
24.567,73.0446,0.032024
24.597,73.0143,0.018736
24.629,72.9837,0.018736
24.660,72.9528,0.018736
24.691,72.9212,0.018736
24.722,72.8911,0.018736
24.753,72.8591,0.018736
24.784,72.8287,0.018736
24.816,72.7965,0.018736
24.846,72.7667,0.018736
24.877,72.7350,0.007886
24.908,72.7045,0.007886
24.940,72.6723,0.007886
24.970,72.6425,0.007886
25.002,72.6105,0.007886
25.032,72.5803,0.007886
25.064,72.5483,0.007886
25.095,72.5177,0.007227
25.126,72.4862,0.007227
25.157,72.4559,0.007227
25.189,72.4226,0.007227
25.220,72.3922,0.007227
25.251,72.3617,0.007227
25.282,72.3302,0.007227
25.313,72.2995,0.007227
25.344,72.2675,0.007039
25.375,72.2376,0.007039
25.406,72.2072,0.007039
25.436,72.1762,0.007039
25.467,72.1454,0.007039
25.498,72.1145,0.007039
25.529,72.0830,0.007039
25.560,72.0522,0.007039
25.592,72.0204,0.007039
25.623,71.9889,0.006945
25.654,71.9586,0.006945
25.685,71.9276,0.006945
25.716,71.8961,0.006945
25.747,71.8655,0.006945
25.778,71.8345,0.006945
25.810,71.8027,0.006945
25.841,71.7715,0.006945
25.872,71.7402,0.006898
25.903,71.7087,0.006898
25.934,71.6782,0.006898
25.965,71.6467,0.006898
25.997,71.6158,0.006898
26.028,71.5841,0.006898
26.059,71.5537,0.006898
26.089,71.5233,0.006898
26.120,71.4927,0.006888
26.152,71.4606,0.006888
26.182,71.4311,0.006888
26.213,71.3991,0.006888
26.244,71.3683,0.006888
26.276,71.3369,0.006888
26.307,71.3068,0.006888
26.337,71.2785,0.006888
26.369,71.2497,0.006954
26.400,71.2224,0.006954
26.430,71.1959,0.006954
26.466,71.1653,0.006954
26.506,71.1324,0.006954
26.538,71.1080,0.006954
26.569,71.0840,0.006954
26.600,71.0611,0.006954
26.630,71.0393,0.006870
26.661,71.0178,0.006870
26.691,70.9972,0.006870
26.727,70.9744,0.006870
26.754,70.9573,0.006870
26.786,70.9381,0.006870
26.816,70.9209,0.006870
26.847,70.9035,0.006870
26.878,70.8875,0.006738
26.909,70.8713,0.006738
26.940,70.8565,0.006738
26.970,70.8427,0.006738
27.001,70.8288,0.006738
27.032,70.8160,0.006738
27.062,70.8045,0.006738
27.093,70.7930,0.006738
27.124,70.7825,0.006644
27.155,70.7725,0.006644
27.185,70.7634,0.006644
27.217,70.7548,0.006644
27.249,70.7468,0.006644
27.281,70.7396,0.006644
27.311,70.7335,0.006644
27.342,70.7280,0.006644
27.373,70.7231,0.006587
27.403,70.7190,0.006587
27.434,70.7156,0.006587
27.466,70.7128,0.006587
27.497,70.7110,0.006587
27.528,70.7097,0.006587
27.559,70.7092,0.006587
27.590,70.7092,0.006587
27.615,70.7092,0.006587
27.652,70.7092,0.006587
27.683,70.7092,0.006587
27.714,70.7094,0.006587
27.745,70.7104,0.006587
27.776,70.7120,0.006587
27.807,70.7143,0.006587
27.838,70.7175,0.006587
27.870,70.7213,0.006597
27.900,70.7257,0.006597
27.931,70.7311,0.006597
27.962,70.7370,0.006597
27.994,70.7438,0.006597
28.024,70.7510,0.006597
28.056,70.7595,0.006597
28.086,70.7683,0.006597
28.116,70.7777,0.006597
28.148,70.7880,0.006587
28.179,70.7993,0.006587
28.209,70.8107,0.006587
28.240,70.8233,0.006587
28.273,70.8370,0.006587
28.302,70.8505,0.006587
28.333,70.8653,0.006587
28.364,70.8805,0.006587
28.395,70.8966,0.006456
28.426,70.9137,0.006456
28.458,70.9319,0.006456
28.489,70.9502,0.006456
28.520,70.9693,0.006456
28.552,70.9893,0.006456
28.582,71.0100,0.006456
28.614,71.0313,0.006456
28.644,71.0523,0.006267
28.676,71.0758,0.006267
28.708,71.0998,0.006267
28.739,71.1245,0.006267
28.769,71.1488,0.006267
28.800,71.1743,0.006267
28.831,71.2009,0.006267
28.862,71.2278,0.006267
28.893,71.2568,0.006089
28.919,71.2794,0.006089
28.955,71.3141,0.006089
28.985,71.3432,0.006089
29.016,71.3741,0.006089
29.048,71.4050,0.006089
29.079,71.4369,0.006089
29.110,71.4665,0.005976
29.141,71.4979,0.005976
29.171,71.5279,0.005976
29.203,71.5604,0.005976
29.233,71.5905,0.005976
29.264,71.6213,0.005976
29.295,71.6523,0.005976
29.326,71.6823,0.005976
29.357,71.7139,0.005976
29.387,71.7442,0.005900
29.418,71.7747,0.005900
29.448,71.8054,0.005900
29.480,71.8371,0.005900
29.511,71.8675,0.005900
29.542,71.8989,0.005900
29.573,71.9295,0.005900
29.604,71.9615,0.005759
29.635,71.9929,0.005759
29.666,72.0225,0.005759
29.697,72.0536,0.005759
29.727,72.0843,0.005759
29.758,72.1154,0.005759
29.789,72.1464,0.005759
29.820,72.1775,0.005759
29.852,72.2098,0.005646
29.885,72.2424,0.005646
29.913,72.2708,0.005646
29.944,72.3011,0.005646
29.975,72.3329,0.005646
30.006,72.3636,0.005646
30.036,72.3941,0.005646
30.068,72.4252,0.005646
30.100,72.4573,0.005505
30.131,72.4880,0.005505
30.163,72.5196,0.005505
30.193,72.5502,0.005505
30.225,72.5820,0.005505
30.255,72.6134,0.005505
30.286,72.6436,0.005505
30.317,72.6744,0.005505
30.349,72.7056,0.005505
30.380,72.7370,0.005242
30.411,72.7683,0.005242
30.442,72.7993,0.005242
30.474,72.8307,0.005242
30.505,72.8622,0.005242
30.536,72.8938,0.005242
30.567,72.9247,0.005242
30.598,72.9555,0.005072
30.629,72.9863,0.005072
30.660,73.0169,0.005072
30.691,73.0479,0.005072
30.721,73.0778,0.005072
30.752,73.1088,0.005072
30.783,73.1407,0.005072
30.815,73.1722,0.005072
30.846,73.2033,0.004809
30.876,73.2336,0.004809
30.908,73.2645,0.004809
30.939,73.2964,0.004809
30.970,73.3267,0.004809
31.001,73.3586,0.004809
31.033,73.3900,0.004809
31.063,73.4205,0.004809
31.094,73.4506,0.004479
31.125,73.4815,0.004479
31.155,73.5118,0.004479
31.186,73.5430,0.004479
31.217,73.5743,0.004479
31.248,73.6054,0.004479
31.279,73.6363,0.004479
31.310,73.6678,0.004479
31.341,73.6989,0.004479
31.372,73.7298,0.004131
31.403,73.7598,0.004131
31.434,73.7910,0.004131
31.465,73.8222,0.004131
31.496,73.8532,0.004131
31.527,73.8837,0.004131
31.559,73.9161,0.004131
31.589,73.9456,0.003632
31.620,73.9779,0.003632
31.651,74.0081,0.003632
31.683,74.0398,0.003632
31.715,74.0727,0.003632
31.744,74.1008,0.003632
31.778,74.1346,0.003632
31.807,74.1635,0.003632
31.837,74.1944,0.003632
31.868,74.2252,0.003632
31.899,74.2568,0.002814
31.930,74.2874,0.002814
31.961,74.3187,0.002814
31.992,74.3493,0.002814
32.024,74.3813,0.002814
32.055,74.4123,0.002814
32.086,74.4441,0.002814
32.118,74.4747,0.002814
32.149,74.5065,0.001421
32.180,74.5371,0.001421
32.212,74.5691,0.001421
32.243,74.5998,0.001421
32.274,74.6311,0.001421
32.304,74.6612,0.001421
32.335,74.6927,0.001421
32.367,74.7241,-0.001148
32.397,74.7545,-0.001148
32.428,74.7860,-0.001148
32.459,74.8168,-0.001148
32.490,74.8469,-0.001148
32.521,74.8779,-0.001148
32.551,74.9080,-0.001148
32.584,74.9403,-0.001148
32.614,74.9708,-0.006361
32.644,75.0016,-0.006361
32.675,75.0321,-0.006361
32.707,75.0641,-0.006361
32.738,75.0942,-0.006361
32.770,75.1252,-0.006361
32.801,75.1535,-0.006361
32.831,75.1815,-0.006361
32.863,75.2089,-0.016383
32.895,75.2358,-0.016383
32.926,75.2625,-0.016383
32.957,75.2877,-0.016383
32.988,75.3116,-0.016383
33.019,75.3358,-0.016383
33.051,75.3591,-0.016383
33.082,75.3816,-0.016383
33.113,75.4029,-0.031402
33.150,75.4277,-0.031402
33.190,75.4528,-0.031402
33.221,75.4719,-0.031402
33.252,75.4902,-0.031402
33.283,75.5075,-0.031402
33.316,75.5261,-0.031402
33.345,75.5406,-0.031402
33.377,75.5562,-0.048049
33.407,75.5703,-0.048049
33.441,75.5855,-0.048049
33.468,75.5966,-0.048049
33.500,75.6096,-0.048049
33.530,75.6208,-0.048049
33.561,75.6321,-0.048049
33.591,75.6419,-0.062203
33.622,75.6514,-0.062203
33.653,75.6602,-0.062203
33.685,75.6684,-0.062203
33.715,75.6756,-0.062203
33.746,75.6823,-0.062203
33.776,75.6880,-0.062203
33.809,75.6935,-0.062203
33.840,75.6980,-0.071030
33.870,75.7015,-0.071030
33.901,75.7045,-0.071030
33.932,75.7068,-0.071030
33.965,75.7084,-0.071030
33.993,75.7091,-0.071030
34.024,75.7092,-0.071030
34.055,75.7092,-0.071030
34.086,75.7092,-0.071030
34.116,75.7092,-0.072940
34.147,75.7092,-0.072940
34.178,75.7092,-0.072940
34.209,75.7092,-0.072940
34.240,75.7092,-0.072940
34.272,75.7092,-0.072940
34.303,75.7092,-0.072940
34.335,75.7092,-0.072940
34.366,75.7092,-0.069505
34.397,75.7092,-0.069505
34.428,75.7092,-0.069505
34.459,75.7092,-0.069505
34.490,75.7092,-0.069505
34.521,75.7092,-0.069505
34.551,75.7092,-0.069505
34.582,75.7092,-0.069505
34.613,75.7092,-0.069505
34.644,75.7092,-0.065327
34.675,75.7092,-0.065327
34.706,75.7092,-0.065327
34.737,75.7092,-0.065327
34.769,75.7092,-0.065327
34.799,75.7092,-0.065327
34.834,75.7092,-0.065327
34.861,75.7092,-0.065327
34.892,75.7092,-0.062391
34.923,75.7092,-0.062391
34.955,75.7092,-0.062391
34.986,75.7092,-0.062391
35.016,75.7092,-0.062391
35.047,75.7092,-0.062391
35.078,75.7092,-0.062391
35.109,75.7092,-0.060170
35.139,75.7092,-0.060170
35.170,75.7092,-0.060170
35.201,75.7092,-0.060170
35.232,75.7092,-0.060170
35.263,75.7092,-0.060170
35.294,75.7092,-0.060170
35.325,75.7092,-0.060170
35.356,75.7092,-0.058363
35.386,75.7092,-0.058363
35.417,75.7092,-0.058363
35.448,75.7092,-0.058363
35.479,75.7092,-0.058363
35.510,75.7092,-0.058363
35.541,75.7092,-0.058363
35.574,75.7092,-0.058363
35.603,75.7092,-0.056773
35.636,75.7092,-0.056773
35.666,75.7092,-0.056773
35.697,75.7092,-0.056773
35.728,75.7092,-0.056773
35.760,75.7092,-0.056773
35.790,75.7092,-0.056773
35.821,75.7092,-0.056773
35.852,75.7092,-0.055418
35.883,75.7092,-0.055418
35.915,75.7092,-0.055418
35.945,75.7092,-0.055418
35.976,75.7092,-0.055418
36.007,75.7092,-0.055418
36.038,75.7092,-0.055418
36.070,75.7092,-0.055418
36.101,75.7092,-0.054298
36.132,75.7092,-0.054298
36.162,75.7092,-0.054298
36.194,75.7092,-0.054298
36.225,75.7092,-0.054298
36.256,75.7092,-0.054298
36.287,75.7092,-0.054298
36.318,75.7092,-0.054298
36.349,75.7092,-0.053329
36.380,75.7092,-0.053329
36.411,75.7092,-0.053329
36.442,75.7092,-0.053329
36.474,75.7092,-0.053329
36.505,75.7092,-0.053329
36.536,75.7092,-0.053329
36.568,75.7092,-0.053329
36.598,75.7092,-0.052425
36.629,75.7092,-0.052425
36.660,75.7092,-0.052425
36.692,75.7092,-0.052425
36.724,75.7092,-0.052425
36.755,75.7092,-0.052425
36.787,75.7092,-0.052425
36.817,75.7092,-0.052425
36.849,75.7092,-0.051635
36.880,75.7092,-0.051635
36.911,75.7092,-0.051635
36.942,75.7092,-0.051635
36.972,75.7092,-0.051635
37.003,75.7092,-0.051635
37.034,75.7092,-0.051635
37.065,75.7092,-0.051635
37.096,75.7092,-0.050910
37.127,75.7092,-0.050910
37.158,75.7092,-0.050910
37.189,75.7092,-0.050910
37.220,75.7092,-0.050910
37.251,75.7092,-0.050910
37.283,75.7092,-0.050910
37.314,75.7092,-0.050910
37.347,75.7092,-0.050910
37.377,75.7092,-0.050186
37.408,75.7092,-0.050186
37.439,75.7092,-0.050186
37.471,75.7092,-0.050186
37.502,75.7092,-0.050186
37.533,75.7092,-0.050186
37.565,75.7092,-0.050186
37.595,75.7092,-0.050186
37.625,75.7092,-0.049555
37.656,75.7092,-0.049555
37.687,75.7092,-0.049555
37.719,75.7092,-0.049555
37.750,75.7092,-0.049555
37.781,75.7092,-0.049555
37.812,75.7092,-0.049555
37.843,75.7092,-0.049555
37.874,75.7092,-0.049555
37.905,75.7092,-0.048972
37.937,75.7092,-0.048972
37.967,75.7092,-0.048972
37.998,75.7092,-0.048972
38.028,75.7092,-0.048972
38.058,75.7092,-0.048972
38.090,75.7092,-0.048972
38.121,75.7092,-0.048407
38.153,75.7092,-0.048407
38.184,75.7092,-0.048407
38.214,75.7090,-0.048407
38.245,75.7080,-0.048407
38.277,75.7061,-0.048407
38.308,75.7037,-0.048407
38.339,75.7004,-0.048407
38.370,75.6966,-0.047861
38.402,75.6918,-0.047861
38.432,75.6865,-0.047861
38.463,75.6802,-0.047861
38.494,75.6736,-0.047861
38.526,75.6657,-0.047861
38.556,75.6576,-0.047861
38.588,75.6483,-0.047861
38.618,75.6388,-0.043768
38.649,75.6281,-0.043768
38.680,75.6172,-0.043768
38.712,75.6047,-0.043768
38.742,75.5925,-0.043768
38.773,75.5794,-0.043768
38.804,75.5651,-0.043768
38.835,75.5499,-0.043768
38.866,75.5341,-0.032174
38.898,75.5177,-0.032174
38.929,75.5010,-0.032174
38.959,75.4829,-0.032174
38.992,75.4642,-0.032174
39.025,75.4432,-0.032174
39.052,75.4263,-0.032174
39.083,75.4048,-0.032174
39.114,75.3838,-0.032174
39.146,75.3607,-0.015621
39.177,75.3379,-0.015621
39.209,75.3136,-0.015621
39.240,75.2889,-0.015621
39.271,75.2635,-0.015621
39.303,75.2372,-0.015621
39.333,75.2112,-0.015621
39.364,75.1842,0.001139
39.396,75.1555,0.001139
39.427,75.1268,0.001139
39.459,75.0951,0.001139
39.489,75.0669,0.001139
39.521,75.0357,0.001139
39.551,75.0052,0.001139
39.581,74.9756,0.001139
39.613,74.9433,0.014473
39.644,74.9126,0.014473
39.675,74.8815,0.014473
39.707,74.8500,0.014473
39.738,74.8185,0.014473
39.769,74.7869,0.014473
39.800,74.7572,0.014473
39.831,74.7254,0.014473
39.862,74.6949,0.014473
39.892,74.6643,0.022218
39.924,74.6328,0.022218
39.955,74.6021,0.022218
39.985,74.5710,0.022218
40.016,74.5406,0.022218
40.047,74.5097,0.022218
40.078,74.4782,0.022218
40.109,74.4472,0.022218
40.138,74.4185,0.026255
40.172,74.3847,0.026255
40.202,74.3535,0.026255
40.233,74.3238,0.026255
40.264,74.2923,0.026255
40.295,74.2613,0.026255
40.326,74.2300,0.026255
40.358,74.1980,0.029605
40.388,74.1682,0.029605
40.419,74.1380,0.029605
40.450,74.1066,0.029605
40.481,74.0752,0.029605
40.512,74.0442,0.029605
40.544,74.0115,0.029605
40.574,73.9826,0.029605
40.606,73.9506,0.029605
40.637,73.9200,0.032353
40.667,73.8887,0.032353
40.698,73.8581,0.032353
40.730,73.8269,0.032353
40.761,73.7949,0.032353
40.796,73.7615,0.032353
40.824,73.7319,0.032353
40.855,73.7019,0.033689
40.887,73.6678,0.033689
40.916,73.6404,0.033689
40.947,73.6095,0.033689
40.978,73.5790,0.033689
41.011,73.5453,0.033689
41.038,73.5175,0.033689
41.070,73.4867,0.033689
41.101,73.4561,0.034047
41.131,73.4263,0.034047
41.162,73.3945,0.034047
41.192,73.3648,0.034047
41.224,73.3322,0.034047
41.255,73.3014,0.034047
41.287,73.2696,0.034047
41.317,73.2393,0.034047
41.348,73.2082,0.029050
41.379,73.1777,0.029050
41.410,73.1464,0.029050
41.441,73.1149,0.029050
41.472,73.0843,0.029050
41.503,73.0536,0.029050
41.534,73.0225,0.029050
41.565,72.9914,0.029050
41.596,72.9604,0.029050
41.626,72.9304,0.016111
41.658,72.8994,0.016111
41.688,72.8679,0.016111
41.720,72.8372,0.016111
41.751,72.8047,0.016111
41.783,72.7737,0.016111
41.814,72.7430,0.016111
41.845,72.7115,0.007745
41.875,72.6815,0.007745
41.906,72.6502,0.007745
41.938,72.6186,0.007745
41.969,72.5877,0.007745
42.000,72.5563,0.007745
42.030,72.5264,0.007745
42.061,72.4950,0.007745
42.094,72.4626,0.007745
42.124,72.4325,0.007745
42.155,72.4015,0.007161
42.188,72.3680,0.007161
42.216,72.3405,0.007161
42.248,72.3086,0.007161
42.279,72.2778,0.007161
42.310,72.2463,0.007161
42.341,72.2150,0.007030
42.372,72.1849,0.007030
42.403,72.1536,0.007030
42.434,72.1224,0.007030
42.465,72.0910,0.007030
42.496,72.0608,0.007030
42.527,72.0295,0.007030
42.558,71.9983,0.007030
42.589,71.9677,0.007030
42.620,71.9362,0.006992
42.652,71.9049,0.006992
42.683,71.8736,0.006992
42.714,71.8431,0.006992
42.745,71.8119,0.006992
42.776,71.7812,0.006992
42.808,71.7492,0.006992
42.838,71.7187,0.006935
42.869,71.6872,0.006935
42.901,71.6559,0.006935
42.932,71.6244,0.006935
42.963,71.5939,0.006935
42.995,71.5624,0.006935
43.025,71.5313,0.006935
43.056,71.5004,0.006935
43.087,71.4700,0.006954
43.118,71.4385,0.006954
43.149,71.4077,0.006954
43.180,71.3766,0.006954
43.211,71.3455,0.006954
43.242,71.3151,0.006954
43.274,71.2836,0.006954
43.304,71.2538,0.006954
43.336,71.2242,0.006973
43.368,71.1953,0.006973
43.398,71.1684,0.006973
43.430,71.1410,0.006973
43.461,71.1148,0.006973
43.492,71.0891,0.006973
43.522,71.0654,0.006973
43.554,71.0409,0.006973
43.586,71.0169,0.006879
43.618,70.9939,0.006879
43.648,70.9720,0.006879
43.679,70.9518,0.006879
43.710,70.9314,0.006879
43.741,70.9123,0.006879
43.772,70.8932,0.006879
43.803,70.8749,0.006879
43.834,70.8578,0.006879
43.865,70.8409,0.006766
43.895,70.8257,0.006766
43.927,70.8101,0.006766
43.959,70.7948,0.006766
43.989,70.7818,0.006766
44.021,70.7684,0.006766
44.053,70.7560,0.006766
44.083,70.7447,0.006766
44.113,70.7339,0.006738
44.149,70.7226,0.006738
44.175,70.7149,0.006738
44.205,70.7063,0.006738
44.236,70.6986,0.006738
44.271,70.6904,0.006738
44.297,70.6850,0.006738
44.329,70.6792,0.006738
44.360,70.6741,0.006738
44.391,70.6698,0.006700
44.422,70.6663,0.006700
44.453,70.6635,0.006700
44.484,70.6614,0.006700
44.514,70.6600,0.006700
44.545,70.6594,0.006700
44.575,70.6593,0.006700
44.606,70.6593,0.006634
44.638,70.6593,0.006634
44.668,70.6593,0.006634
44.700,70.6596,0.006634
44.730,70.6607,0.006634
44.761,70.6625,0.006634
44.793,70.6651,0.006634
44.824,70.6684,0.006634
44.855,70.6724,0.006587
44.886,70.6771,0.006587
44.917,70.6826,0.006587
44.949,70.6890,0.006587
44.979,70.6957,0.006587
45.010,70.7034,0.006587
45.041,70.7118,0.006587
45.079,70.7231,0.006587
45.118,70.7357,0.006493
45.150,70.7471,0.006493
45.183,70.7598,0.006493
45.212,70.7711,0.006493
45.243,70.7843,0.006493
45.275,70.7983,0.006493
45.305,70.8129,0.006493
45.340,70.8302,0.006493
45.368,70.8448,0.006380
45.399,70.8612,0.006380
45.429,70.8785,0.006380
45.461,70.8969,0.006380
45.490,70.9155,0.006380
45.521,70.9350,0.006380
45.552,70.9549,0.006380
45.583,70.9758,0.006380
45.613,70.9971,0.006305
45.644,71.0198,0.006305
45.675,71.0427,0.006305
45.707,71.0679,0.006305
45.737,71.0914,0.006305
45.768,71.1171,0.006305
45.798,71.1424,0.006305
45.828,71.1690,0.006305
45.860,71.1968,0.006220
45.891,71.2246,0.006220
45.921,71.2532,0.006220
45.950,71.2809,0.006220
45.984,71.3146,0.006220
46.014,71.3449,0.006220
46.046,71.3770,0.006220
46.077,71.4072,0.006220
46.107,71.4375,0.006051
46.138,71.4689,0.006051
46.169,71.4995,0.006051
46.200,71.5304,0.006051
46.232,71.5621,0.006051
46.261,71.5917,0.006051
46.292,71.6225,0.006051
46.323,71.6538,0.006051
46.353,71.6841,0.005919
46.386,71.7157,0.005919
46.417,71.7476,0.005919
46.449,71.7788,0.005919
46.480,71.8104,0.005919
46.511,71.8422,0.005919
46.543,71.8732,0.005919
46.574,71.9047,0.005919
46.606,71.9361,0.005834
46.636,71.9667,0.005834
46.668,71.9987,0.005834
46.699,72.0291,0.005834
46.730,72.0610,0.005834
46.761,72.0921,0.005834
46.791,72.1221,0.005834
46.822,72.1526,0.005834
46.853,72.1831,0.005834
46.884,72.2145,0.005684
46.914,72.2444,0.005684
46.946,72.2763,0.005684
46.977,72.3074,0.005684
47.007,72.3374,0.005684
47.038,72.3680,0.005684
47.069,72.3988,0.005684
47.099,72.4303,0.005684
47.130,72.4604,0.005496
47.161,72.4922,0.005496
47.192,72.5228,0.005496
47.224,72.5540,0.005496
47.255,72.5857,0.005496
47.286,72.6163,0.005496
47.316,72.6471,0.005496
47.347,72.6771,0.005496
47.378,72.7090,0.005260
47.408,72.7379,0.005260
47.439,72.7704,0.005260
47.471,72.8010,0.005260
47.501,72.8316,0.005260
47.532,72.8627,0.005260
47.563,72.8928,0.005260
47.594,72.9248,0.005260
47.625,72.9558,0.004997
47.657,72.9877,0.004997
47.687,73.0176,0.004997
47.718,73.0489,0.004997
47.750,73.0798,0.004997
47.780,73.1109,0.004997
47.811,73.1412,0.004997
47.842,73.1720,0.004997
47.873,73.2032,0.004762
47.904,73.2350,0.004762
47.936,73.2659,0.004762
47.966,73.2967,0.004762
47.997,73.3275,0.004762
48.031,73.3615,0.004762
48.058,73.3888,0.004762
48.090,73.4201,0.004762
48.122,73.4526,0.004762
48.151,73.4823,0.004545
48.184,73.5140,0.004545
48.216,73.5475,0.004545
48.246,73.5762,0.004545
48.279,73.6098,0.004545
48.307,73.6379,0.004545
48.340,73.6707,0.004545
48.368,73.6992,0.004545
48.400,73.7304,0.004112
48.430,73.7608,0.004112
48.461,73.7913,0.004112
48.493,73.8238,0.004112
48.524,73.8538,0.004112
48.555,73.8862,0.004112
48.587,73.9169,0.004112
48.619,73.9500,0.004112
48.646,73.9759,0.003567
48.680,74.0100,0.003567
48.711,74.0422,0.003567
48.741,74.0713,0.003567
48.772,74.1026,0.003567
48.803,74.1336,0.003567
48.835,74.1649,0.003567
48.866,74.1962,0.002804
48.897,74.2269,0.002804
48.927,74.2580,0.002804
48.959,74.2888,0.002804
48.990,74.3208,0.002804
49.021,74.3519,0.002804
49.052,74.3834,0.002804
49.083,74.4132,0.002804
49.113,74.4442,0.001383
49.144,74.4747,0.001383
49.174,74.5045,0.001383
49.205,74.5352,0.001383
49.236,74.5666,0.001383
49.268,74.5984,0.001383
49.300,74.6304,0.001383
49.330,74.6606,0.001383
49.361,74.6911,0.001383
49.392,74.7228,-0.001383
49.423,74.7535,-0.001383
49.455,74.7850,-0.001383
49.486,74.8165,-0.001383
49.518,74.8485,-0.001383
49.549,74.8800,-0.001383
49.586,74.9167,-0.001383
49.628,74.9580,-0.007020
49.659,74.9895,-0.007020
49.689,75.0199,-0.007020
49.721,75.0497,-0.007020
49.751,75.0794,-0.007020
49.781,75.1066,-0.007020
49.814,75.1360,-0.007020
49.844,75.1627,-0.017588
49.878,75.1916,-0.017588
49.906,75.2148,-0.017588
49.938,75.2407,-0.017588
49.969,75.2649,-0.017588
50.005,75.2936,-0.017588
50.046,75.3225,-0.017588
50.078,75.3447,-0.033049
50.112,75.3678,-0.033049
50.139,75.3855,-0.033049
50.170,75.4055,-0.033049
50.201,75.4241,-0.033049
50.232,75.4422,-0.033049
50.263,75.4593,-0.033049
50.293,75.4758,-0.033049
50.324,75.4915,-0.033049
50.360,75.5094,-0.033049
50.387,75.5215,-0.049659
50.417,75.5354,-0.049659
50.448,75.5485,-0.049659
50.479,75.5607,-0.049659
50.511,75.5724,-0.049659
50.541,75.5831,-0.049659
50.572,75.5935,-0.049659
50.603,75.6025,-0.063370
50.633,75.6110,-0.063370
50.665,75.6193,-0.063370
50.696,75.6265,-0.063370
50.726,75.6330,-0.063370
50.757,75.6388,-0.063370
50.788,75.6438,-0.063370
50.819,75.6481,-0.063370
50.850,75.6518,-0.071745
50.881,75.6547,-0.071745
50.912,75.6569,-0.071745
50.943,75.6584,-0.071745
50.974,75.6590,-0.071745
51.011,75.6591,-0.071745
51.037,75.6591,-0.071745
51.069,75.6591,-0.071745
51.100,75.6591,-0.073109
51.130,75.6591,-0.073109
51.160,75.6591,-0.073109
51.191,75.6591,-0.073109
51.221,75.6591,-0.073109
51.252,75.6591,-0.073109
51.283,75.6591,-0.073109
51.310,75.6591,-0.073109
51.345,75.6591,-0.069392
51.375,75.6591,-0.069392
51.406,75.6591,-0.069392
51.437,75.6591,-0.069392
51.468,75.6591,-0.069392
51.499,75.6591,-0.069392
51.531,75.6591,-0.069392
51.561,75.6591,-0.069392
51.591,75.6591,-0.069392
51.622,75.6591,-0.065252
51.653,75.6591,-0.065252
51.684,75.6591,-0.065252
51.716,75.6591,-0.065252
51.746,75.6591,-0.065252
51.777,75.6591,-0.065252
51.809,75.6591,-0.065252
51.840,75.6591,-0.065252
51.871,75.6591,-0.062400
51.902,75.6591,-0.062400
51.933,75.6591,-0.062400
51.964,75.6591,-0.062400
51.995,75.6591,-0.062400
52.026,75.6591,-0.062400
52.058,75.6591,-0.062400
52.089,75.6591,-0.062400
52.120,75.6591,-0.060198
52.151,75.6591,-0.060198
52.182,75.6591,-0.060198
52.213,75.6591,-0.060198
52.244,75.6591,-0.060198
52.275,75.6591,-0.060198
52.305,75.6591,-0.060198
52.337,75.6591,-0.058344
52.368,75.6591,-0.058344
52.399,75.6591,-0.058344
52.430,75.6591,-0.058344
52.461,75.6591,-0.058344
52.491,75.6591,-0.058344
52.524,75.6591,-0.058344
52.554,75.6591,-0.058344
52.585,75.6591,-0.056782
52.616,75.6591,-0.056782
52.647,75.6591,-0.056782
52.678,75.6591,-0.056782
52.709,75.6591,-0.056782
52.741,75.6591,-0.056782
52.772,75.6591,-0.056782
52.803,75.6591,-0.056782
52.834,75.6591,-0.056782
52.865,75.6591,-0.055512
52.896,75.6591,-0.055512
52.927,75.6591,-0.055512
52.957,75.6591,-0.055512
52.988,75.6591,-0.055512
53.019,75.6591,-0.055512
53.051,75.6591,-0.055512
53.082,75.6591,-0.054411
53.113,75.6591,-0.054411
53.144,75.6591,-0.054411
53.174,75.6591,-0.054411
53.206,75.6591,-0.054411
53.236,75.6591,-0.054411
53.269,75.6591,-0.054411
53.299,75.6591,-0.054411
53.329,75.6591,-0.054411
53.360,75.6591,-0.053423
53.391,75.6591,-0.053423
53.421,75.6591,-0.053423
53.453,75.6591,-0.053423
53.484,75.6591,-0.053423
53.515,75.6591,-0.053423
53.545,75.6591,-0.053423
53.576,75.6591,-0.053423
53.607,75.6591,-0.052501
53.639,75.6591,-0.052501
53.670,75.6591,-0.052501
53.701,75.6591,-0.052501
53.732,75.6591,-0.052501
53.763,75.6591,-0.052501
53.794,75.6591,-0.052501
53.824,75.6591,-0.052501
53.855,75.6591,-0.051719
53.887,75.6591,-0.051719
53.919,75.6591,-0.051719
53.949,75.6591,-0.051719
53.980,75.6591,-0.051719
54.013,75.6591,-0.051719
54.040,75.6591,-0.051719
54.073,75.6591,-0.051719
54.101,75.6591,-0.051719
54.132,75.6591,-0.051033
54.163,75.6591,-0.051033
54.194,75.6591,-0.051033
54.226,75.6591,-0.051033
54.256,75.6591,-0.051033
54.286,75.6591,-0.051033
54.317,75.6591,-0.051033
54.347,75.6591,-0.051033
54.378,75.6591,-0.050327
54.409,75.6591,-0.050327
54.440,75.6591,-0.050327
54.471,75.6591,-0.050327
54.502,75.6591,-0.050327
54.533,75.6591,-0.050327
54.569,75.6591,-0.050327
54.610,75.6591,-0.050327
54.640,75.6591,-0.049743
54.671,75.6591,-0.049743
54.703,75.6591,-0.049743
54.733,75.6591,-0.049743
54.765,75.6591,-0.049743
54.797,75.6591,-0.049743
54.829,75.6591,-0.049743
54.860,75.6591,-0.049122
54.891,75.6591,-0.049122
54.921,75.6591,-0.049122
54.954,75.6591,-0.049122
54.984,75.6591,-0.049122
55.017,75.6591,-0.049122
55.047,75.6591,-0.049122
55.078,75.6591,-0.049122
55.109,75.6591,-0.048511
55.141,75.6591,-0.048511
55.172,75.6591,-0.048511
55.203,75.6589,-0.048511
55.234,75.6579,-0.048511
55.265,75.6563,-0.048511
55.296,75.6539,-0.048511
55.328,75.6506,-0.047965
55.359,75.6467,-0.047965
55.391,75.6420,-0.047965
55.420,75.6371,-0.047965
55.452,75.6306,-0.047965
55.482,75.6242,-0.047965
55.514,75.6162,-0.047965
55.546,75.6080,-0.047965
55.578,75.5987,-0.047965
55.608,75.5893,-0.043683
55.638,75.5790,-0.043683
55.670,75.5672,-0.043683
55.700,75.5559,-0.043683
55.731,75.5435,-0.043683
55.762,75.5303,-0.043683
55.793,75.5161,-0.043683
55.825,75.5010,-0.043683
55.856,75.4851,-0.031798
55.887,75.4688,-0.031798
55.917,75.4524,-0.031798
55.949,75.4345,-0.031798
55.980,75.4158,-0.031798
56.011,75.3967,-0.031798
56.043,75.3761,-0.031798
56.074,75.3553,-0.031798
56.105,75.3339,-0.031798
56.136,75.3120,-0.015085
56.170,75.2867,-0.015085
56.198,75.2655,-0.015085
56.229,75.2412,-0.015085
56.260,75.2165,-0.015085
56.292,75.1900,-0.015085
56.322,75.1640,-0.015085
56.353,75.1365,-0.015085
56.384,75.1088,0.001590
56.416,75.0793,0.001590
56.447,75.0494,0.001590
56.477,75.0213,0.001590
56.507,74.9903,0.001590
56.539,74.9590,0.001590
56.570,74.9280,0.001590
56.600,74.8976,0.001590
56.632,74.8656,0.014821
56.663,74.8349,0.014821
56.694,74.8037,0.014821
56.726,74.7719,0.014821
56.756,74.7422,0.014821
56.788,74.7099,0.014821
56.815,74.6831,0.014821
56.850,74.6471,0.022632
56.881,74.6161,0.022632
56.912,74.5861,0.022632
56.943,74.5548,0.022632
56.974,74.5237,0.022632
57.005,74.4928,0.022632
57.036,74.4617,0.022632
57.067,74.4301,0.022632
57.098,74.3992,0.026801
57.128,74.3699,0.026801
57.159,74.3380,0.026801
57.190,74.3083,0.026801
57.221,74.2761,0.026801
57.258,74.2397,0.026801
57.300,74.1975,0.026801
57.330,74.1675,0.026801
57.361,74.1369,0.030085
57.393,74.1049,0.030085
57.424,74.0734,0.030085
57.455,74.0431,0.030085
57.486,74.0117,0.030085
57.518,73.9797,0.030085
57.550,73.9485,0.030085
57.582,73.9159,0.032682
57.612,73.8855,0.032682
57.643,73.8550,0.032682
57.676,73.8222,0.032682
57.706,73.7923,0.032682
57.735,73.7619,0.032682
57.766,73.7317,0.032682
57.798,73.6996,0.032682
57.829,73.6688,0.032682
57.860,73.6374,0.033990
57.892,73.6058,0.033990
57.923,73.5750,0.033990
57.954,73.5440,0.033990
57.984,73.5129,0.033990
58.015,73.4830,0.033990
58.046,73.4526,0.033990
58.077,73.4205,0.033990
58.108,73.3900,0.034226
58.140,73.3579,0.034226
58.170,73.3277,0.034226
58.202,73.2961,0.034226
58.233,73.2649,0.034226
58.264,73.2339,0.034226
58.295,73.2032,0.034226
58.326,73.1720,0.034226
58.357,73.1415,0.028871
58.388,73.1100,0.028871
58.420,73.0782,0.028871
58.451,73.0470,0.028871
58.482,73.0158,0.028871
58.513,72.9849,0.028871
58.543,72.9543,0.028871
58.574,72.9239,0.028871
58.604,72.8934,0.028871
58.636,72.8625,0.015894
58.666,72.8320,0.015894
58.698,72.7999,0.015894
58.729,72.7696,0.015894
58.760,72.7376,0.015894
58.791,72.7071,0.015894
58.822,72.6751,0.015894
58.853,72.6452,0.015894
58.883,72.6141,0.007792
58.915,72.5834,0.007792
58.946,72.5515,0.007792
58.978,72.5197,0.007792
59.007,72.4908,0.007792
59.038,72.4597,0.007792
59.069,72.4289,0.007792
59.104,72.3930,0.007792
59.131,72.3669,0.007792
59.161,72.3369,0.007227
59.192,72.3060,0.007227
59.223,72.2748,0.007227
59.255,72.2433,0.007227
59.286,72.2125,0.007227
59.317,72.1808,0.007227
59.348,72.1496,0.007227
59.379,72.1185,0.007086
59.410,72.0880,0.007086
59.441,72.0570,0.007086
59.473,72.0252,0.007086
59.503,71.9950,0.007086
59.534,71.9637,0.007086
59.565,71.9332,0.007086
59.596,71.9015,0.007086
59.627,71.8711,0.007011
59.658,71.8403,0.007011
59.689,71.8090,0.007011
59.720,71.7779,0.007011
59.751,71.7471,0.007011
59.782,71.7164,0.007011
59.816,71.6810,0.007011
59.845,71.6531,0.007011
59.876,71.6225,0.006945
59.907,71.5907,0.006945
59.939,71.5594,0.006945
59.970,71.5282,0.006945
60.002,71.4962,0.006945
60.033,71.4640,0.006945
60.063,71.4349,0.006945
60.095,71.4033,0.006917
60.126,71.3718,0.006917
60.157,71.3413,0.006917
60.189,71.3088,0.006917
60.220,71.2781,0.006917
60.250,71.2482,0.006917
60.281,71.2184,0.006917
60.311,71.1895,0.006917
60.343,71.1598,0.006917
60.374,71.1319,0.006917
60.405,71.1052,0.006917
60.436,71.0782,0.006917
60.467,71.0530,0.006917
60.498,71.0280,0.006917
60.529,71.0035,0.006917
60.560,70.9797,0.006917
60.590,70.9574,0.006917
60.621,70.9352,0.006860
60.653,70.9134,0.006860
60.684,70.8925,0.006860
60.716,70.8721,0.006860
60.748,70.8525,0.006860
60.779,70.8336,0.006860
60.810,70.8161,0.006860
60.842,70.7987,0.006757
60.873,70.7823,0.006757
60.904,70.7665,0.006757
60.936,70.7512,0.006757
60.968,70.7373,0.006757
60.999,70.7240,0.006757
61.031,70.7110,0.006757
61.062,70.6989,0.006757
61.093,70.6877,0.006757
61.122,70.6784,0.006700
61.155,70.6679,0.006700
61.185,70.6593,0.006700
61.216,70.6512,0.006700
61.247,70.6436,0.006700
61.279,70.6369,0.006700
61.310,70.6309,0.006700
61.341,70.6255,0.006681
61.372,70.6211,0.006681
61.403,70.6172,0.006681
61.434,70.6142,0.006681
61.466,70.6118,0.006681
61.496,70.6103,0.006681
61.527,70.6093,0.006681
61.558,70.6091,0.006681
61.590,70.6091,0.006634
61.621,70.6091,0.006634
61.653,70.6091,0.006634
61.684,70.6091,0.006634
61.714,70.6093,0.006634
61.745,70.6101,0.006634
61.776,70.6118,0.006634
61.807,70.6140,0.006634
61.838,70.6171,0.006625
61.869,70.6208,0.006625
61.900,70.6253,0.006625
61.931,70.6306,0.006625
61.963,70.6366,0.006625
61.994,70.6435,0.006625
62.024,70.6504,0.006625
62.055,70.6588,0.006625
62.087,70.6679,0.006625
62.119,70.6776,0.006521
62.149,70.6875,0.006521
62.180,70.6987,0.006521
62.211,70.7104,0.006521
62.242,70.7229,0.006521
62.273,70.7360,0.006521
62.307,70.7514,0.006521
62.335,70.7649,0.006371
62.366,70.7803,0.006371
62.397,70.7962,0.006371
62.429,70.8138,0.006371
62.459,70.8307,0.006371
62.489,70.8486,0.006371
62.521,70.8682,0.006371
62.552,70.8878,0.006371
62.583,70.9085,0.006371
62.615,70.9302,0.006305
62.649,70.9548,0.006305
62.676,70.9740,0.006305
62.703,70.9946,0.006305
62.738,71.0224,0.006305
62.770,71.0473,0.006305
62.800,71.0725,0.006305
62.831,71.0988,0.006305
62.862,71.1255,0.006173
62.893,71.1537,0.006173
62.924,71.1821,0.006173
62.955,71.2114,0.006173
62.985,71.2403,0.006173
63.017,71.2724,0.006173
63.049,71.3033,0.006173
63.080,71.3351,0.006173
63.111,71.3657,0.005976
63.142,71.3971,0.005976
63.173,71.4273,0.005976
63.203,71.4587,0.005976
63.230,71.4849,0.005976
63.267,71.5212,0.005976
63.298,71.5527,0.005976
63.328,71.5827,0.005976
63.359,71.6144,0.005976
63.390,71.6446,0.005891
63.422,71.6769,0.005891
63.453,71.7077,0.005891
63.484,71.7390,0.005891
63.514,71.7695,0.005891
63.545,71.7993,0.005891
63.576,71.8309,0.005891
63.606,71.8613,0.005891
63.638,71.8937,0.005863
63.670,71.9248,0.005863
63.701,71.9567,0.005863
63.733,71.9880,0.005863
63.763,72.0187,0.005863
63.794,72.0488,0.005863
63.825,72.0798,0.005863
63.856,72.1109,0.005863
63.887,72.1416,0.005684
63.919,72.1732,0.005684
63.949,72.2041,0.005684
63.981,72.2351,0.005684
64.011,72.2654,0.005684
64.042,72.2974,0.005684
64.072,72.3270,0.005684
64.103,72.3581,0.005684
64.134,72.3890,0.005505
64.165,72.4203,0.005505
64.196,72.4504,0.005505
64.226,72.4808,0.005505
64.257,72.5123,0.005505
64.289,72.5438,0.005505
64.319,72.5743,0.005505
64.350,72.6053,0.005505
64.381,72.6367,0.005289
64.415,72.6695,0.005289
64.445,72.7002,0.005289
64.478,72.7324,0.005289
64.507,72.7626,0.005289
64.540,72.7952,0.005289
64.569,72.8243,0.005289
64.600,72.8553,0.005289
64.631,72.8855,0.005053
64.662,72.9171,0.005053
64.693,72.9480,0.005053
64.728,72.9838,0.005053
64.755,73.0095,0.005053
64.785,73.0399,0.005053
64.816,73.0709,0.005053
64.849,73.1030,0.005053
64.876,73.1312,0.005053
64.907,73.1617,0.004790
64.938,73.1928,0.004790
64.969,73.2236,0.004790
64.999,73.2539,0.004790
65.030,73.2847,0.004790
65.061,73.3166,0.004790
65.097,73.3518,0.004790
65.123,73.3782,0.004790
65.154,73.4096,0.004517
65.185,73.4396,0.004517
65.216,73.4715,0.004517
65.248,73.5022,0.004517
65.278,73.5336,0.004517
65.309,73.5635,0.004517
65.340,73.5950,0.004517
65.371,73.6258,0.004141
65.404,73.6585,0.004141
65.433,73.6880,0.004141
65.461,73.7157,0.004141
65.495,73.7497,0.004141
65.526,73.7806,0.004141
65.556,73.8108,0.004141
65.589,73.8445,0.004141
65.618,73.8723,0.004141
65.651,73.9064,0.003614
65.680,73.9352,0.003614
65.713,73.9673,0.003614
65.742,73.9967,0.003614
65.773,74.0281,0.003614
65.805,74.0595,0.003614
65.837,74.0918,0.003614
65.867,74.1220,0.002880
65.897,74.1520,0.002880
65.928,74.1835,0.002880
65.959,74.2141,0.002880
65.991,74.2464,0.002880
66.022,74.2768,0.002880
66.053,74.3072,0.002880
66.084,74.3385,0.002880
66.114,74.3690,0.001506
66.146,74.4003,0.001506
66.176,74.4309,0.001506
66.207,74.4619,0.001506
66.237,74.4913,0.001506
66.267,74.5223,0.001506
66.298,74.5528,0.001506
66.329,74.5845,0.001506
66.360,74.6145,-0.001120
66.391,74.6462,-0.001120
66.422,74.6777,-0.001120
66.453,74.7079,-0.001120
66.484,74.7396,-0.001120
66.516,74.7711,-0.001120
66.547,74.8020,-0.001120
66.578,74.8321,-0.001120
66.609,74.8630,-0.006380
66.640,74.8944,-0.006380
66.671,74.9260,-0.006380
66.702,74.9568,-0.006380
66.733,74.9874,-0.006380
66.765,75.0176,-0.006380
66.796,75.0466,-0.006380
66.827,75.0752,-0.006380
66.858,75.1019,-0.016440
66.888,75.1292,-0.016440
66.920,75.1549,-0.016440
66.951,75.1808,-0.016440
66.982,75.2052,-0.016440
67.013,75.2290,-0.016440
67.043,75.2517,-0.016440
67.075,75.2749,-0.016440
67.105,75.2959,-0.031534
67.136,75.3168,-0.031534
67.168,75.3372,-0.031534
67.199,75.3570,-0.031534
67.230,75.3757,-0.031534
67.260,75.3931,-0.031534
67.290,75.4105,-0.031534
67.322,75.4271,-0.031534
67.353,75.4432,-0.048304
67.384,75.4582,-0.048304
67.415,75.4727,-0.048304
67.446,75.4864,-0.048304
67.477,75.4995,-0.048304
67.507,75.5118,-0.048304
67.538,75.5230,-0.048304
67.573,75.5359,-0.048304
67.601,75.5444,-0.062588
67.633,75.5538,-0.062588
67.663,75.5621,-0.062588
67.694,75.5701,-0.062588
67.725,75.5774,-0.062588
67.750,75.5826,-0.062588
67.788,75.5897,-0.062588
67.819,75.5945,-0.062588
67.850,75.5990,-0.062588
67.882,75.6023,-0.071585
67.913,75.6052,-0.071585
67.944,75.6072,-0.071585
67.976,75.6087,-0.071585
68.007,75.6092,-0.071585
68.036,75.6092,-0.071585
68.067,75.6092,-0.071585
68.098,75.6092,-0.071585
68.128,75.6092,-0.073617
68.159,75.6092,-0.073617
68.190,75.6092,-0.073617
68.221,75.6092,-0.073617
68.251,75.6092,-0.073617
68.281,75.6092,-0.073617
68.312,75.6092,-0.073617
68.344,75.6092,-0.073617
68.376,75.6092,-0.070192
68.407,75.6092,-0.070192
68.438,75.6092,-0.070192
68.469,75.6092,-0.070192
68.500,75.6092,-0.070192
68.530,75.6092,-0.070192
68.562,75.6092,-0.070192
68.593,75.6092,-0.070192
68.624,75.6092,-0.065976
68.655,75.6092,-0.065976
68.686,75.6092,-0.065976
68.717,75.6092,-0.065976
68.748,75.6092,-0.065976
68.779,75.6092,-0.065976
68.810,75.6092,-0.065976
68.841,75.6092,-0.065976
68.872,75.6092,-0.063003
68.904,75.6092,-0.063003
68.934,75.6092,-0.063003
68.965,75.6092,-0.063003
68.996,75.6092,-0.063003
69.026,75.6092,-0.063003
69.057,75.6092,-0.063003
69.088,75.6092,-0.063003
69.118,75.6092,-0.060697
69.149,75.6092,-0.060697
69.180,75.6092,-0.060697
69.212,75.6092,-0.060697
69.241,75.6092,-0.060697
69.272,75.6092,-0.060697
69.304,75.6092,-0.060697
69.334,75.6092,-0.060697
69.365,75.6092,-0.058834
69.396,75.6092,-0.058834
69.428,75.6092,-0.058834
69.459,75.6092,-0.058834
69.489,75.6092,-0.058834
69.521,75.6092,-0.058834
69.552,75.6092,-0.058834
69.584,75.6092,-0.058834
69.615,75.6092,-0.057375
69.647,75.6092,-0.057375
69.678,75.6092,-0.057375
69.709,75.6092,-0.057375
69.740,75.6092,-0.057375
69.771,75.6092,-0.057375
69.802,75.6092,-0.057375
69.834,75.6092,-0.057375
69.865,75.6092,-0.056095
69.895,75.6092,-0.056095
69.926,75.6092,-0.056095
69.957,75.6092,-0.056095
69.988,75.6092,-0.056095
70.021,75.6092,-0.056095
70.051,75.6092,-0.056095
70.081,75.6092,-0.056095
70.111,75.6092,-0.054881
70.143,75.6092,-0.054881
70.174,75.6092,-0.054881
70.205,75.6092,-0.054881
70.236,75.6092,-0.054881
70.267,75.6092,-0.054881
70.298,75.6092,-0.054881
70.329,75.6092,-0.053799
70.360,75.6092,-0.053799
70.391,75.6092,-0.053799
70.422,75.6092,-0.053799
70.453,75.6092,-0.053799
70.484,75.6092,-0.053799
70.515,75.6092,-0.053799
70.547,75.6092,-0.053799
70.577,75.6092,-0.053799
70.607,75.6092,-0.053799
70.638,75.6092,-0.052943
70.668,75.6092,-0.052943
70.699,75.6092,-0.052943
70.730,75.6092,-0.052943
70.762,75.6092,-0.052943
70.792,75.6092,-0.052943
70.823,75.6092,-0.052943
70.854,75.6092,-0.052943
70.885,75.6092,-0.052152
70.916,75.6092,-0.052152
70.947,75.6092,-0.052152
70.978,75.6092,-0.052152
71.009,75.6092,-0.052152
71.040,75.6092,-0.052152
71.070,75.6092,-0.052152
71.101,75.6092,-0.052152
71.132,75.6092,-0.051409
71.163,75.6092,-0.051409
71.194,75.6092,-0.051409
71.225,75.6092,-0.051409
71.256,75.6092,-0.051409
71.287,75.6092,-0.051409
71.318,75.6092,-0.051409
71.349,75.6092,-0.051409
71.381,75.6092,-0.050797
71.412,75.6092,-0.050797
71.443,75.6092,-0.050797
71.474,75.6092,-0.050797
71.505,75.6092,-0.050797
71.536,75.6092,-0.050797
71.566,75.6092,-0.050797
71.597,75.6092,-0.050797
71.628,75.6092,-0.050091
71.660,75.6092,-0.050091
71.689,75.6092,-0.050091
71.720,75.6092,-0.050091
71.751,75.6092,-0.050091
71.782,75.6092,-0.050091
71.813,75.6092,-0.050091
71.844,75.6092,-0.050091
71.875,75.6092,-0.049499
71.907,75.6092,-0.049499
71.938,75.6092,-0.049499
71.969,75.6092,-0.049499
72.000,75.6092,-0.049499
72.031,75.6092,-0.049499
72.061,75.6092,-0.049499
72.093,75.6092,-0.049499
72.125,75.6092,-0.048990
72.156,75.6092,-0.048990
72.187,75.6092,-0.048990
72.217,75.6092,-0.048990
72.249,75.6092,-0.048990
72.279,75.6092,-0.048990
72.309,75.6092,-0.048990
72.340,75.6088,-0.048990
72.371,75.6078,-0.048473
72.402,75.6059,-0.048473
72.433,75.6034,-0.048473
72.464,75.6002,-0.048473
72.495,75.5964,-0.048473
72.526,75.5915,-0.048473
72.557,75.5860,-0.048473
72.588,75.5799,-0.048473
72.620,75.5729,-0.048473
72.651,75.5654,-0.047061
72.682,75.5571,-0.047061
72.712,75.5479,-0.047061
72.743,75.5382,-0.047061
72.774,75.5275,-0.047061
72.805,75.5166,-0.047061
72.836,75.5045,-0.047061
72.868,75.4916,-0.039288
72.900,75.4777,-0.039288
72.930,75.4638,-0.039288
72.961,75.4487,-0.039288
72.992,75.4333,-0.039288
73.022,75.4169,-0.039288
73.054,75.4000,-0.039288
73.084,75.3826,-0.039288
73.115,75.3645,-0.024119
73.145,75.3455,-0.024119
73.177,75.3253,-0.024119
73.208,75.3044,-0.024119
73.239,75.2826,-0.024119
73.270,75.2604,-0.024119
73.301,75.2377,-0.024119
73.332,75.2138,-0.024119
73.363,75.1897,-0.006823
73.394,75.1647,-0.006823
73.425,75.1390,-0.006823
73.456,75.1121,-0.006823
73.487,75.0855,-0.006823
73.517,75.0580,-0.006823
73.549,75.0290,-0.006823
73.579,74.9992,-0.006823
73.611,74.9689,0.008761
73.642,74.9379,0.008761
73.674,74.9063,0.008761
73.704,74.8757,0.008761
73.736,74.8447,0.008761
73.767,74.8132,0.008761
73.798,74.7818,0.008761
73.829,74.7513,0.008761
73.860,74.7203,0.019385
73.892,74.6885,0.019385
73.922,74.6580,0.019385
73.954,74.6265,0.019385
73.985,74.5958,0.019385
74.016,74.5644,0.019385
74.047,74.5335,0.019385
74.077,74.5029,0.019385
74.107,74.4732,0.025210
74.138,74.4416,0.025210
74.169,74.4112,0.025210
74.200,74.3805,0.025210
74.232,74.3487,0.025210
74.264,74.3165,0.025210
74.294,74.2859,0.025210
74.325,74.2549,0.025210
74.357,74.2233,0.029125
74.387,74.1928,0.029125
74.419,74.1614,0.029125
74.448,74.1313,0.029125
74.479,74.1008,0.029125
74.510,74.0694,0.029125
74.541,74.0390,0.029125
74.573,74.0073,0.029125
74.604,73.9766,0.032475
74.635,73.9450,0.032475
74.664,73.9160,0.032475
74.695,73.8844,0.032475
74.726,73.8541,0.032475
74.757,73.8221,0.032475
74.789,73.7913,0.032475
74.819,73.7613,0.032475
74.850,73.7302,0.032475
74.882,73.6982,0.034517
74.912,73.6682,0.034517
74.945,73.6351,0.034517
74.975,73.6057,0.034517
75.006,73.5737,0.034517
75.038,73.5423,0.034517
75.070,73.5104,0.034517
75.100,73.4800,0.035129
75.132,73.4474,0.035129
75.164,73.4165,0.035129
75.193,73.3867,0.035129
75.224,73.3560,0.035129
75.255,73.3241,0.035129
75.286,73.2936,0.035129
75.317,73.2625,0.035129
75.348,73.2316,0.034734
75.380,73.1999,0.034734
75.411,73.1691,0.034734
75.443,73.1369,0.034734
75.474,73.1061,0.034734
75.504,73.0754,0.034734
75.535,73.0447,0.034734
75.566,73.0138,0.034734
75.597,72.9835,0.022971
75.629,72.9510,0.022971
75.659,72.9212,0.022971
75.690,72.8893,0.022971
75.721,72.8589,0.022971
75.752,72.8279,0.022971
75.783,72.7979,0.022971
75.820,72.7588,0.022971
75.861,72.7190,0.009655
75.892,72.6877,0.009655
75.923,72.6574,0.009655
75.955,72.6258,0.009655
75.986,72.5940,0.009655
76.017,72.5633,0.009655
76.047,72.5332,0.009655
76.077,72.5030,0.009655
76.108,72.4726,0.007434
76.139,72.4415,0.007434
76.170,72.4103,0.007434
76.201,72.3786,0.007434
76.232,72.3477,0.007434
76.262,72.3183,0.007434
76.292,72.2877,0.007434
76.324,72.2568,0.007434
76.357,72.2219,0.007161
76.386,72.1942,0.007161
76.417,72.1633,0.007161
76.448,72.1319,0.007161
76.478,72.1023,0.007161
76.509,72.0704,0.007161
76.541,72.0394,0.007161
76.572,72.0074,0.007161
76.604,71.9764,0.007161
76.634,71.9450,0.007086
76.666,71.9139,0.007086
76.698,71.8819,0.007086
76.728,71.8511,0.007086
76.760,71.8205,0.007086
76.791,71.7887,0.007086
76.823,71.7577,0.007086
76.853,71.7265,0.007086
76.884,71.6963,0.007020
76.915,71.6655,0.007020
76.946,71.6341,0.007020
76.976,71.6037,0.007020
77.008,71.5724,0.007020
77.039,71.5412,0.007020
77.071,71.5092,0.007020
77.102,71.4779,0.007020
77.134,71.4467,0.006964
77.164,71.4152,0.006964
77.195,71.3848,0.006964
77.226,71.3535,0.006964
77.257,71.3235,0.006964
77.291,71.2882,0.006964
77.318,71.2621,0.006964
77.350,71.2294,0.006964
77.381,71.1993,0.006973
77.412,71.1682,0.006973
77.443,71.1403,0.006973
77.473,71.1118,0.006973
77.504,71.0838,0.006973
77.535,71.0570,0.006973
77.565,71.0302,0.006973
77.596,71.0050,0.006973
77.627,70.9795,0.006907
77.659,70.9550,0.006907
77.690,70.9309,0.006907
77.721,70.9080,0.006907
77.751,70.8862,0.006907
77.784,70.8646,0.006907
77.813,70.8439,0.006907
77.844,70.8243,0.006907
77.876,70.8046,0.006813
77.906,70.7870,0.006813
77.937,70.7690,0.006813
77.968,70.7519,0.006813
77.999,70.7353,0.006813
78.030,70.7198,0.006813
78.060,70.7054,0.006813
78.091,70.6911,0.006813
78.122,70.6777,0.006700
78.153,70.6647,0.006700
78.184,70.6529,0.006700
78.215,70.6415,0.006700
78.247,70.6307,0.006700
78.277,70.6213,0.006700
78.308,70.6120,0.006700
78.339,70.6036,0.006663
78.370,70.5958,0.006663
78.401,70.5889,0.006663
78.432,70.5827,0.006663
78.463,70.5771,0.006663
78.494,70.5724,0.006663
78.525,70.5683,0.006663
78.557,70.5651,0.006663
78.587,70.5625,0.006663
78.617,70.5608,0.006663
78.648,70.5595,0.006663
78.678,70.5592,0.006663
78.709,70.5592,0.006663
78.740,70.5592,0.006663
78.771,70.5592,0.006663
78.802,70.5592,0.006663
78.833,70.5598,0.006663
78.867,70.5614,0.006672
78.895,70.5631,0.006672
78.926,70.5661,0.006672
78.957,70.5695,0.006672
78.988,70.5738,0.006672
79.019,70.5788,0.006672
79.051,70.5845,0.006672
79.082,70.5912,0.006672
79.113,70.5981,0.006578
79.144,70.6060,0.006578
79.175,70.6146,0.006578
79.205,70.6238,0.006578
79.237,70.6340,0.006578
79.267,70.6446,0.006578
79.298,70.6560,0.006578
79.329,70.6684,0.006578
79.360,70.6815,0.006578
79.391,70.6950,0.006446
79.424,70.7105,0.006446
79.455,70.7254,0.006446
79.486,70.7415,0.006446
79.517,70.7582,0.006446
79.548,70.7755,0.006446
79.578,70.7928,0.006446
79.610,70.8123,0.006446
79.640,70.8313,0.006371
79.672,70.8521,0.006371
79.702,70.8727,0.006371
79.733,70.8942,0.006371
79.764,70.9168,0.006371
79.795,70.9402,0.006371
79.826,70.9639,0.006371
79.857,70.9883,0.006371
79.888,71.0135,0.006267
79.919,71.0396,0.006267
79.950,71.0665,0.006267
79.982,71.0954,0.006267
80.013,71.1233,0.006267
80.044,71.1517,0.006267
80.075,71.1816,0.006267
80.105,71.2118,0.006267
80.136,71.2420,0.006117
80.166,71.2725,0.006117
80.197,71.3031,0.006117
80.227,71.3339,0.006117
80.258,71.3645,0.006117
80.289,71.3958,0.006117
80.320,71.4263,0.006117
80.351,71.4580,0.006117
80.381,71.4876,0.005994
80.413,71.5201,0.005994
80.444,71.5502,0.005994
80.475,71.5815,0.005994
80.506,71.6124,0.005994
80.537,71.6440,0.005994
80.568,71.6743,0.005994
80.599,71.7058,0.005994
80.630,71.7365,0.005900
80.662,71.7688,0.005900
80.692,71.7987,0.005900
80.723,71.8298,0.005900
80.754,71.8609,0.005900
80.786,71.8928,0.005900
80.817,71.9237,0.005900
80.848,71.9541,0.005900
80.878,71.9852,0.005712
80.916,72.0223,0.005712
80.956,72.0623,0.005712
80.987,72.0933,0.005712
81.018,72.1241,0.005712
81.049,72.1555,0.005712
81.080,72.1865,0.005712
81.110,72.2164,0.005543
81.141,72.2476,0.005543
81.171,72.2769,0.005543
81.201,72.3079,0.005543
81.232,72.3384,0.005543
81.263,72.3695,0.005543
81.294,72.4014,0.005543
81.328,72.4348,0.005543
81.359,72.4659,0.005317
81.387,72.4929,0.005317
81.417,72.5244,0.005317
81.448,72.5545,0.005317
81.480,72.5863,0.005317
81.510,72.6166,0.005317
81.541,72.6477,0.005317
81.573,72.6791,0.005317
81.603,72.7095,0.005082
81.634,72.7412,0.005082
81.665,72.7717,0.005082
81.697,72.8035,0.005082
81.728,72.8345,0.005082
81.759,72.8660,0.005082
81.791,72.8980,0.005082
81.821,72.9270,0.005082
81.852,72.9588,0.005082
81.884,72.9903,0.004875
81.914,73.0213,0.004875
81.945,73.0519,0.004875
81.976,73.0828,0.004875
82.007,73.1132,0.004875
82.038,73.1448,0.004875
82.069,73.1757,0.004875
82.100,73.2064,0.004602
82.131,73.2375,0.004602
82.162,73.2682,0.004602
82.194,73.3003,0.004602
82.224,73.3303,0.004602
82.255,73.3618,0.004602
82.286,73.3924,0.004602
82.316,73.4224,0.004602
82.347,73.4533,0.004319
82.378,73.4849,0.004319
82.409,73.5153,0.004319
82.440,73.5463,0.004319
82.472,73.5783,0.004319
82.503,73.6096,0.004319
82.534,73.6403,0.004319
82.565,73.6719,0.004319
82.596,73.7018,0.003981
82.626,73.7333,0.003981
82.658,73.7641,0.003981
82.689,73.7954,0.003981
82.720,73.8264,0.003981
82.751,73.8579,0.003981
82.782,73.8892,0.003981
82.813,73.9202,0.003981
82.845,73.9510,0.003331
82.876,73.9825,0.003331
82.908,74.0141,0.003331
82.939,74.0456,0.003331
82.970,74.0759,0.003331
83.001,74.1076,0.003331
83.032,74.1387,0.003331
83.064,74.1699,0.003331
83.095,74.2012,0.002164
83.125,74.2316,0.002164
83.157,74.2632,0.002164
83.187,74.2939,0.002164
83.217,74.3236,0.002164
83.250,74.3564,0.002164
83.280,74.3863,0.002164
83.312,74.4185,0.002164
83.343,74.4490,0.000132
83.375,74.4819,0.000132
83.404,74.5112,0.000132
83.435,74.5417,0.000132
83.467,74.5732,0.000132
83.498,74.6043,0.000132
83.529,74.6354,0.000132
83.562,74.6693,0.000132
83.590,74.6968,0.000132
83.621,74.7281,-0.003934
83.652,74.7595,-0.003934
83.682,74.7894,-0.003934
83.713,74.8191,-0.003934
83.743,74.8506,-0.003934
83.774,74.8801,-0.003934
83.805,74.9114,-0.003934
83.837,74.9420,-0.012064
83.867,74.9714,-0.012064
83.899,75.0012,-0.012064
83.930,75.0296,-0.012064
83.961,75.0566,-0.012064
83.992,75.0834,-0.012064
84.023,75.1096,-0.012064
84.054,75.1345,-0.012064
84.085,75.1591,-0.012064
84.116,75.1830,-0.025577
84.147,75.2061,-0.025577
84.178,75.2284,-0.025577
84.209,75.2494,-0.025577
84.240,75.2704,-0.025577
84.271,75.2905,-0.025577
84.301,75.3094,-0.025577
84.332,75.3281,-0.042309
84.363,75.3463,-0.042309
84.394,75.3633,-0.042309
84.425,75.3797,-0.042309
84.455,75.3952,-0.042309
84.486,75.4103,-0.042309
84.517,75.4246,-0.042309
84.548,75.4386,-0.042309
84.579,75.4513,-0.042309
84.610,75.4634,-0.058034
84.641,75.4747,-0.058034
84.672,75.4856,-0.058034
84.703,75.4954,-0.058034
84.734,75.5048,-0.058034
84.766,75.5134,-0.058034
84.795,75.5210,-0.058034
84.827,75.5280,-0.058034
84.857,75.5342,-0.058034
84.888,75.5401,-0.069402
84.919,75.5449,-0.069402
84.950,75.5491,-0.069402
84.981,75.5525,-0.069402
85.012,75.5553,-0.069402
85.043,75.5573,-0.069402
85.074,75.5586,-0.069402
85.104,75.5592,-0.069402
85.135,75.5592,-0.069402
85.166,75.5592,-0.074267
85.197,75.5592,-0.074267
85.228,75.5592,-0.074267
85.259,75.5592,-0.074267
85.290,75.5592,-0.074267
85.321,75.5592,-0.074267
85.352,75.5592,-0.074267
85.383,75.5592,-0.072394
85.416,75.5592,-0.072394
85.447,75.5592,-0.072394
85.478,75.5592,-0.072394
85.508,75.5592,-0.072394
85.538,75.5592,-0.072394
85.570,75.5592,-0.072394
85.601,75.5592,-0.072394
85.632,75.5592,-0.067887
85.663,75.5592,-0.067887
85.694,75.5592,-0.067887
85.726,75.5592,-0.067887
85.756,75.5592,-0.067887
85.787,75.5592,-0.067887
85.818,75.5592,-0.067887
85.849,75.5592,-0.067887
85.881,75.5592,-0.064471
85.912,75.5592,-0.064471
85.943,75.5592,-0.064471
85.975,75.5592,-0.064471
86.006,75.5592,-0.064471
86.038,75.5592,-0.064471
86.069,75.5592,-0.064471
86.100,75.5592,-0.064471
86.132,75.5592,-0.062005
86.162,75.5592,-0.062005
86.194,75.5592,-0.062005
86.225,75.5592,-0.062005
86.257,75.5592,-0.062005
86.288,75.5592,-0.062005
86.320,75.5592,-0.062005
86.351,75.5592,-0.062005
86.382,75.5592,-0.060019
86.414,75.5592,-0.060019
86.445,75.5592,-0.060019
86.476,75.5592,-0.060019
86.508,75.5592,-0.060019
86.539,75.5592,-0.060019
86.569,75.5592,-0.060019
86.599,75.5592,-0.060019
86.630,75.5592,-0.058344
86.662,75.5592,-0.058344
86.693,75.5592,-0.058344
86.724,75.5592,-0.058344
86.755,75.5592,-0.058344
86.786,75.5592,-0.058344
86.817,75.5592,-0.058344
86.848,75.5592,-0.056970
86.880,75.5592,-0.056970
86.910,75.5592,-0.056970
86.941,75.5592,-0.056970
86.972,75.5592,-0.056970
87.004,75.5592,-0.056970
87.035,75.5592,-0.056970
87.065,75.5592,-0.056970
87.097,75.5592,-0.055785
87.129,75.5592,-0.055785
87.160,75.5592,-0.055785
87.191,75.5592,-0.055785
87.222,75.5592,-0.055785
87.254,75.5592,-0.055785
87.285,75.5592,-0.055785
87.316,75.5592,-0.055785
87.348,75.5592,-0.054693
87.378,75.5592,-0.054693
87.410,75.5592,-0.054693
87.441,75.5592,-0.054693
87.471,75.5592,-0.054693
87.502,75.5592,-0.054693
87.533,75.5592,-0.054693
87.564,75.5592,-0.054693
87.594,75.5592,-0.053771
87.625,75.5592,-0.053771
87.656,75.5592,-0.053771
87.686,75.5592,-0.053771
87.717,75.5592,-0.053771
87.748,75.5592,-0.053771
87.779,75.5592,-0.053771
87.810,75.5592,-0.053771
87.839,75.5592,-0.053771
87.872,75.5592,-0.052943
87.903,75.5592,-0.052943
87.935,75.5592,-0.052943
87.966,75.5592,-0.052943
87.997,75.5592,-0.052943
88.027,75.5592,-0.052943
88.058,75.5592,-0.052943
88.090,75.5592,-0.052943
88.120,75.5592,-0.052152
88.151,75.5592,-0.052152
88.182,75.5592,-0.052152
88.213,75.5592,-0.052152
88.244,75.5592,-0.052152
88.275,75.5592,-0.052152
88.307,75.5592,-0.052152
88.338,75.5592,-0.052152
88.365,75.5592,-0.052152
88.400,75.5592,-0.051418
88.431,75.5592,-0.051418
88.462,75.5592,-0.051418
88.493,75.5592,-0.051418
88.524,75.5592,-0.051418
88.556,75.5592,-0.051418
88.589,75.5592,-0.051418
88.619,75.5592,-0.051418
88.648,75.5592,-0.051418
88.679,75.5592,-0.050741
88.710,75.5592,-0.050741
88.741,75.5592,-0.050741
88.772,75.5592,-0.050741
88.803,75.5592,-0.050741
88.833,75.5592,-0.050741
88.865,75.5592,-0.050741
88.896,75.5592,-0.050157
88.926,75.5592,-0.050157
88.957,75.5592,-0.050157
88.988,75.5592,-0.050157
89.019,75.5592,-0.050157
89.051,75.5592,-0.050157
89.081,75.5592,-0.050157
89.112,75.5592,-0.049546
89.144,75.5592,-0.049546
89.173,75.5592,-0.049546
89.205,75.5592,-0.049546
89.236,75.5592,-0.049546
89.267,75.5592,-0.049546
89.298,75.5592,-0.049546
89.328,75.5592,-0.049546
89.360,75.5586,-0.048934
89.391,75.5571,-0.048934
89.422,75.5550,-0.048934
89.452,75.5523,-0.048934
89.484,75.5488,-0.048934
89.516,75.5443,-0.048934
89.547,75.5392,-0.048934
89.578,75.5335,-0.048934
89.609,75.5270,-0.047635
89.640,75.5199,-0.047635
89.671,75.5119,-0.047635
89.702,75.5032,-0.047635
89.732,75.4944,-0.047635
89.763,75.4840,-0.047635
89.793,75.4735,-0.047635
89.824,75.4619,-0.047635
89.855,75.4497,-0.040116
89.887,75.4365,-0.040116
89.919,75.4221,-0.040116
89.950,75.4075,-0.040116
89.982,75.3924,-0.040116
90.012,75.3769,-0.040116
90.043,75.3602,-0.040116
90.074,75.3426,-0.040116
90.105,75.3243,-0.024966
90.136,75.3054,-0.024966
90.168,75.2858,-0.024966
90.198,75.2654,-0.024966
90.229,75.2445,-0.024966
90.261,75.2218,-0.024966
90.292,75.1999,-0.024966
90.323,75.1761,-0.024966
90.354,75.1526,-0.024966
90.385,75.1273,-0.007547
90.416,75.1020,-0.007547
90.449,75.0751,-0.007547
90.479,75.0493,-0.007547
90.509,75.0214,-0.007547
90.535,74.9978,-0.007547
90.571,74.9646,-0.007547
90.602,74.9355,-0.007547
90.633,74.9046,0.008196
90.663,74.8742,0.008196
90.694,74.8438,0.008196
90.725,74.8127,0.008196
90.756,74.7814,0.008196
90.787,74.7503,0.008196
90.822,74.7152,0.008196
90.849,74.6887,0.008196
90.880,74.6574,0.019065
90.910,74.6275,0.019065
90.942,74.5958,0.019065
90.972,74.5654,0.019065
91.003,74.5341,0.019065
91.034,74.5039,0.019065
91.064,74.4726,0.019065
91.095,74.4425,0.024862
91.126,74.4122,0.024862
91.156,74.3813,0.024862
91.188,74.3501,0.024862
91.219,74.3179,0.024862
91.250,74.2873,0.024862
91.280,74.2574,0.024862
91.311,74.2259,0.024862
91.342,74.1954,0.028655
91.373,74.1643,0.028655
91.404,74.1328,0.028655
91.435,74.1023,0.028655
91.466,74.0708,0.028655
91.497,74.0400,0.028655
91.529,74.0080,0.028655
91.561,73.9766,0.028655
91.592,73.9451,0.028655
91.623,73.9146,0.032024
91.654,73.8839,0.032024
91.685,73.8519,0.032024
91.716,73.8207,0.032024
91.748,73.7890,0.032024
91.778,73.7592,0.032024
91.809,73.7288,0.032024
91.841,73.6968,0.034226
91.871,73.6663,0.034226
91.902,73.6353,0.034226
91.932,73.6053,0.034226
91.964,73.5738,0.034226
91.995,73.5428,0.034226
92.026,73.5115,0.034226
92.057,73.4810,0.034226
92.088,73.4497,0.034226
92.119,73.4180,0.034997
92.150,73.3871,0.034997
92.181,73.3566,0.034997
92.212,73.3256,0.034997
92.243,73.2944,0.034997
92.275,73.2630,0.034997
92.310,73.2277,0.034997
92.336,73.2014,0.034668
92.369,73.1691,0.034668
92.398,73.1401,0.034668
92.433,73.1038,0.034668
92.459,73.0776,0.034668
92.490,73.0470,0.034668
92.521,73.0158,0.034668
92.552,72.9856,0.034668
92.582,72.9547,0.034668
92.612,72.9250,0.023375
92.644,72.8925,0.023375
92.675,72.8627,0.023375
92.706,72.8315,0.023375
92.737,72.8005,0.023375
92.768,72.7696,0.023375
92.799,72.7388,0.023375
92.830,72.7075,0.023375
92.862,72.6754,0.010060
92.892,72.6454,0.010060
92.923,72.6140,0.010060
92.953,72.5841,0.010060
92.984,72.5543,0.010060
93.015,72.5225,0.010060
93.047,72.4908,0.010060
93.078,72.4587,0.010060
93.109,72.4286,0.010060
93.140,72.3972,0.007472
93.171,72.3668,0.007472
93.201,72.3356,0.007472
93.233,72.3047,0.007472
93.263,72.2745,0.007472
93.294,72.2440,0.007472
93.325,72.2131,0.007472
93.355,72.1823,0.007472
93.386,72.1519,0.007199
93.421,72.1163,0.007199
93.449,72.0892,0.007199
93.480,72.0576,0.007199
93.511,72.0267,0.007199
93.545,71.9919,0.007199
93.575,71.9631,0.007199
93.606,71.9315,0.007199
93.637,71.9009,0.007067
93.668,71.8690,0.007067
93.699,71.8381,0.007067
93.730,71.8076,0.007067
93.761,71.7771,0.007067
93.792,71.7457,0.007067
93.823,71.7147,0.007067
93.854,71.6838,0.007067
93.885,71.6524,0.007039
93.916,71.6208,0.007039
93.947,71.5902,0.007039
93.978,71.5588,0.007039
94.010,71.5282,0.007039
94.041,71.4969,0.007039
94.072,71.4655,0.007039
94.103,71.4338,0.006992
94.134,71.4034,0.006992
94.166,71.3709,0.006992
94.198,71.3395,0.006992
94.229,71.3083,0.006992
94.260,71.2783,0.006992
94.291,71.2470,0.006992
94.321,71.2165,0.006992
94.352,71.1851,0.006926
94.384,71.1536,0.006926
94.414,71.1247,0.006926
94.445,71.0948,0.006926
94.477,71.0653,0.006926
94.508,71.0369,0.006926
94.539,71.0092,0.006926
94.570,70.9831,0.006926
94.602,70.9564,0.006926
94.632,70.9321,0.006917
94.663,70.9075,0.006917
94.694,70.8837,0.006917
94.724,70.8612,0.006917
94.756,70.8385,0.006917
94.788,70.8164,0.006917
94.818,70.7959,0.006917
94.849,70.7761,0.006917
94.880,70.7567,0.006917
94.912,70.7374,0.006860
94.943,70.7195,0.006860
94.974,70.7027,0.006860
95.006,70.6858,0.006860
95.036,70.6704,0.006860
95.067,70.6555,0.006860
95.098,70.6413,0.006860
95.129,70.6281,0.006813
95.160,70.6147,0.006813
95.191,70.6031,0.006813
95.222,70.5914,0.006813
95.253,70.5811,0.006813
95.284,70.5712,0.006813
95.316,70.5620,0.006813
95.347,70.5532,0.006813
95.378,70.5459,0.006813
95.410,70.5387,0.006700
95.440,70.5326,0.006700
95.471,70.5272,0.006700
95.502,70.5225,0.006700
95.533,70.5185,0.006700
95.564,70.5150,0.006700
95.595,70.5125,0.006700
95.627,70.5107,0.006587
95.658,70.5096,0.006587
95.689,70.5092,0.006587
95.720,70.5092,0.006587
95.751,70.5092,0.006587
95.783,70.5092,0.006587
95.814,70.5092,0.006587
95.844,70.5092,0.006587
95.876,70.5092,0.006634
95.907,70.5092,0.006634
95.939,70.5092,0.006634
95.969,70.5092,0.006634
96.001,70.5092,0.006634
96.031,70.5092,0.006634
96.063,70.5092,0.006634
96.094,70.5092,0.006663
96.124,70.5092,0.006663
96.155,70.5092,0.006663
96.186,70.5092,0.006663
96.217,70.5092,0.006663
96.248,70.5092,0.006663
96.278,70.5097,0.006663
96.310,70.5109,0.006663
96.339,70.5127,0.006672
96.370,70.5153,0.006672
96.401,70.5186,0.006672
96.432,70.5227,0.006672
96.463,70.5275,0.006672
96.494,70.5330,0.006672
96.524,70.5390,0.006672
96.555,70.5461,0.006672
96.586,70.5538,0.006568
96.617,70.5621,0.006568
96.648,70.5711,0.006568
96.679,70.5814,0.006568
96.709,70.5914,0.006568
96.740,70.6026,0.006568
96.771,70.6146,0.006568
96.804,70.6280,0.006568
96.833,70.6410,0.006371
96.864,70.6548,0.006371
96.895,70.6697,0.006371
96.926,70.6859,0.006371
96.957,70.7022,0.006371
96.987,70.7182,0.006371
97.018,70.7366,0.006371
97.050,70.7557,0.006371
97.081,70.7750,0.006296
97.113,70.7951,0.006296
97.144,70.8163,0.006296
97.175,70.8376,0.006296
97.207,70.8603,0.006296
97.236,70.8825,0.006296
97.267,70.9059,0.006296
97.298,70.9297,0.006296
97.330,70.9559,0.006296
97.360,70.9813,0.006230
97.391,71.0080,0.006230
97.422,71.0352,0.006230
97.454,71.0643,0.006230
97.486,71.0930,0.006230
97.517,71.1233,0.006230
97.548,71.1531,0.006230
97.579,71.1844,0.006230
97.609,71.2143,0.006041
97.640,71.2460,0.006041
97.671,71.2763,0.006041
97.703,71.3089,0.006041
97.735,71.3403,0.006041
97.766,71.3713,0.006041
97.797,71.4020,0.006041
97.828,71.4334,0.006041
97.859,71.4642,0.005910
97.889,71.4941,0.005910
97.921,71.5270,0.005910
97.951,71.5566,0.005910
97.983,71.5889,0.005910
98.013,71.6189,0.005910
98.045,71.6504,0.005910
98.075,71.6805,0.005910
98.106,71.7110,0.005910
98.137,71.7423,0.005863
98.168,71.7736,0.005863
98.199,71.8042,0.005863
98.231,71.8366,0.005863
98.261,71.8670,0.005863
98.293,71.8978,0.005863
98.324,71.9293,0.005863
98.362,71.9673,0.005863
98.402,72.0071,0.005712
98.432,72.0375,0.005712
98.465,72.0701,0.005712
98.493,72.0980,0.005712
98.533,72.1381,0.005712
98.572,72.1766,0.005712
98.603,72.2082,0.005712
98.634,72.2393,0.005496
98.665,72.2702,0.005496
98.696,72.3007,0.005496
98.728,72.3332,0.005496
98.759,72.3640,0.005496
98.792,72.3973,0.005496
98.822,72.4270,0.005496
98.854,72.4595,0.005496
98.885,72.4897,0.005289
98.915,72.5197,0.005289
98.945,72.5502,0.005289
98.977,72.5817,0.005289
99.007,72.6131,0.005289
99.039,72.6445,0.005289
99.070,72.6759,0.005289
99.101,72.7060,0.005289
99.132,72.7370,0.005289
99.163,72.7679,0.005110
99.194,72.7988,0.005110
99.224,72.8290,0.005110
99.255,72.8602,0.005110
99.286,72.8913,0.005110
99.317,72.9223,0.005110
99.348,72.9529,0.005110
99.379,72.9841,0.004865
99.411,73.0158,0.004865
99.442,73.0474,0.004865
99.475,73.0797,0.004865
99.505,73.1105,0.004865
99.537,73.1425,0.004865
99.567,73.1721,0.004865
99.598,73.2033,0.004865
99.628,73.2331,0.004555
99.659,73.2645,0.004555
99.690,73.2949,0.004555
99.721,73.3260,0.004555
99.751,73.3569,0.004555
99.782,73.3875,0.004555
99.814,73.4196,0.004555
99.845,73.4497,0.004555
99.875,73.4810,0.004235
99.907,73.5124,0.004235
99.938,73.5437,0.004235
99.970,73.5748,0.004235
100.001,73.6070,0.004235
100.032,73.6378,0.004235
100.063,73.6682,0.004235
100.094,73.6996,0.003783
100.125,73.7307,0.003783
100.156,73.7622,0.003783
100.188,73.7931,0.003783
100.219,73.8250,0.003783
100.250,73.8550,0.003783
100.281,73.8862,0.003783
100.315,73.9204,0.003783
100.344,73.9490,0.003783
100.376,73.9810,0.003058
100.407,74.0120,0.003058
100.439,74.0435,0.003058
100.468,74.0729,0.003058
100.499,74.1044,0.003058
100.530,74.1353,0.003058
100.561,74.1669,0.003058
100.592,74.1973,0.001844
100.624,74.2299,0.001844
100.655,74.2597,0.001844
100.685,74.2903,0.001844
100.717,74.3217,0.001844
100.747,74.3529,0.001844
100.779,74.3843,0.001844
100.809,74.4141,0.001844
100.841,74.4459,-0.000518
100.872,74.4771,-0.000518
100.902,74.5065,-0.000518
100.932,74.5375,-0.000518
100.963,74.5685,-0.000518
100.994,74.5989,-0.000518
101.023,74.6283,-0.000518
101.056,74.6614,-0.000518
101.086,74.6909,-0.005270
101.118,74.7236,-0.005270
101.149,74.7545,-0.005270
101.180,74.7846,-0.005270
101.211,74.8160,-0.005270
101.243,74.8479,-0.005270
101.274,74.8793,-0.005270
101.305,74.9084,-0.005270
101.335,74.9368,-0.014530
101.366,74.9655,-0.014530
101.397,74.9930,-0.014530
101.427,75.0202,-0.014530
101.458,75.0463,-0.014530
101.490,75.0726,-0.014530
101.520,75.0968,-0.014530
101.551,75.1211,-0.014530
101.583,75.1449,-0.014530
101.613,75.1669,-0.029191
101.644,75.1886,-0.029191
101.676,75.2104,-0.029191
101.707,75.2310,-0.029191
101.738,75.2506,-0.029191
101.769,75.2696,-0.029191
101.800,75.2877,-0.029191
101.831,75.3054,-0.029191
101.863,75.3229,-0.029191
101.893,75.3385,-0.046252
101.923,75.3533,-0.046252
101.954,75.3681,-0.046252
101.985,75.3821,-0.046252
102.016,75.3953,-0.046252
102.047,75.4079,-0.046252
102.077,75.4193,-0.046252
102.108,75.4303,-0.046252
102.138,75.4405,-0.061450
102.169,75.4502,-0.061450
102.200,75.4588,-0.061450
102.230,75.4670,-0.061450
102.261,75.4745,-0.061450
102.293,75.4813,-0.061450
102.324,75.4874,-0.061450
102.354,75.4923,-0.071745
102.386,75.4972,-0.071745
102.417,75.5009,-0.071745
102.448,75.5040,-0.071745
102.479,75.5063,-0.071745
102.509,75.5081,-0.071745
102.540,75.5089,-0.071745
102.571,75.5092,-0.071745
102.602,75.5092,-0.071745
102.634,75.5092,-0.075151
102.665,75.5092,-0.075151
102.696,75.5092,-0.075151
