Elapsed Time (s),Position (mm),Force (N)
-0.024,66.1593,-0.377855
0.009,66.1593,-0.377855
0.039,66.1593,-0.377855
0.070,66.1593,-0.377855
0.102,66.1593,-0.377855
0.132,66.1593,-0.310449
0.164,66.1593,-0.310449
0.194,66.1593,-0.310449
0.225,66.1593,-0.310449
0.258,66.1593,-0.310449
0.289,66.1593,-0.310449
0.320,66.1593,-0.310449
0.351,66.1593,-0.277672
0.383,66.1593,-0.277672
0.414,66.1593,-0.277672
0.445,66.1593,-0.277672
0.477,66.1593,-0.277672
0.508,66.1593,-0.277672
0.539,66.1593,-0.277672
0.570,66.1593,-0.277672
0.601,66.1593,-0.258579
0.633,66.1593,-0.258579
0.664,66.1593,-0.258579
0.696,66.1593,-0.258579
0.726,66.1593,-0.258579
0.757,66.1593,-0.258579
0.788,66.1593,-0.258579
0.820,66.1593,-0.258579
0.851,66.1593,-0.245056
0.882,66.1593,-0.245056
0.913,66.1593,-0.245056
0.944,66.1593,-0.245056
0.974,66.1593,-0.245056
1.005,66.1593,-0.245056
1.037,66.1593,-0.245056
1.069,66.1593,-0.245056
1.099,66.1593,-0.235467
1.130,66.1593,-0.235467
1.162,66.1593,-0.235467
1.193,66.1593,-0.235467
1.224,66.1593,-0.235467
1.254,66.1593,-0.235467
1.285,66.1593,-0.235467
1.316,66.1593,-0.235467
1.347,66.1593,-0.235467
1.378,66.1593,-0.228249
1.409,66.1593,-0.228249
1.440,66.1593,-0.228249
1.472,66.1593,-0.228249
1.502,66.1593,-0.228249
1.534,66.1593,-0.228249
1.566,66.1593,-0.228249
1.597,66.1593,-0.228249
1.628,66.1593,-0.222047
1.660,66.1593,-0.222047
1.691,66.1593,-0.222047
1.722,66.1593,-0.222047
1.752,66.1593,-0.222047
1.784,66.1593,-0.222047
1.813,66.1593,-0.222047
1.845,66.1593,-0.217135
1.875,66.1593,-0.217135
1.907,66.1593,-0.217135
1.938,66.1593,-0.217135
1.969,66.1593,-0.217135
2.000,66.1593,-0.217135
2.032,66.1593,-0.217135
2.062,66.1593,-0.217135
2.093,66.1593,-0.213145
2.124,66.1593,-0.213145
2.155,66.1593,-0.213145
2.186,66.1593,-0.213145
2.217,66.1593,-0.213145
2.249,66.1593,-0.213145
2.280,66.1593,-0.213145
2.311,66.1593,-0.213145
2.342,66.1593,-0.213145
2.374,66.1593,-0.208995
2.405,66.1593,-0.208995
2.439,66.1593,-0.208995
2.468,66.1593,-0.208995
2.499,66.1593,-0.208995
2.530,66.1593,-0.208995
2.560,66.1593,-0.208995
2.591,66.1593,-0.208995
2.622,66.1593,-0.207019
2.653,66.1593,-0.207019
2.685,66.1593,-0.207019
2.716,66.1593,-0.207019
2.748,66.1593,-0.207019
2.779,66.1593,-0.207019
2.811,66.1593,-0.207019
2.841,66.1593,-0.204271
2.871,66.1593,-0.204271
2.903,66.1593,-0.204271
2.933,66.1593,-0.204271
2.965,66.1593,-0.204271
2.996,66.1593,-0.204271
3.027,66.1593,-0.204271
3.057,66.1593,-0.204271
3.089,66.1593,-0.204271
3.121,66.1593,-0.201599
3.152,66.1593,-0.201599
3.183,66.1593,-0.201599
3.214,66.1593,-0.201599
3.246,66.1593,-0.201599
3.276,66.1593,-0.201599
3.307,66.1593,-0.201599
3.332,66.1593,-0.201599
3.369,66.1593,-0.200262
3.400,66.1593,-0.200262
3.430,66.1593,-0.200262
3.462,66.1593,-0.200262
3.493,66.1593,-0.200262
3.523,66.1593,-0.200262
3.555,66.1593,-0.200262
3.585,66.1593,-0.197402
3.616,66.1593,-0.197402
3.646,66.1593,-0.197402
3.677,66.1593,-0.197402
3.708,66.1593,-0.197402
3.738,66.1593,-0.197402
3.768,66.1593,-0.197402
3.799,66.1593,-0.197402
3.830,66.1593,-0.197402
3.861,66.1593,-0.193675
3.891,66.1593,-0.193675
3.922,66.1593,-0.193675
3.954,66.1593,-0.193675
3.985,66.1593,-0.193675
4.017,66.1593,-0.193675
4.048,66.1593,-0.193675
4.079,66.1586,-0.189403
4.108,66.1573,-0.189403
4.139,66.1552,-0.189403
4.170,66.1525,-0.189403
4.201,66.1489,-0.189403
4.232,66.1447,-0.189403
4.262,66.1397,-0.189403
4.293,66.1340,-0.189403
4.324,66.1276,-0.036992
4.355,66.1204,-0.036992
4.386,66.1124,-0.036992
4.417,66.1041,-0.036992
4.448,66.0947,-0.036992
4.479,66.0848,-0.036992
4.510,66.0739,-0.036992
4.542,66.0618,-0.036992
4.579,66.0476,-0.036992
4.619,66.0305,0.148279
4.651,66.0159,0.148279
4.681,66.0012,0.148279
4.713,65.9856,0.148279
4.743,65.9694,0.148279
4.775,65.9523,0.148279
4.808,65.9327,0.148279
4.838,65.9155,0.148279
4.868,65.8969,0.105820
4.899,65.8767,0.105820
4.929,65.8566,0.105820
4.961,65.8346,0.105820
4.992,65.8127,0.105820
5.023,65.7902,0.105820
5.054,65.7669,0.105820
5.085,65.7415,0.035807
5.117,65.7164,0.035807
5.148,65.6906,0.035807
5.178,65.6651,0.035807
5.210,65.6372,0.035807
5.241,65.6090,0.035807
5.272,65.5797,0.035807
5.304,65.5500,0.035807
5.335,65.5193,0.035807
5.366,65.4891,0.053404
5.398,65.4565,0.053404
5.429,65.4243,0.053404
5.459,65.3916,0.053404
5.491,65.3565,0.053404
5.522,65.3230,0.053404
5.553,65.2877,0.053404
5.584,65.2510,0.069439
5.615,65.2143,0.069439
5.647,65.1758,0.069439
5.678,65.1371,0.069439
5.708,65.0998,0.069439
5.739,65.0600,0.069439
5.770,65.0198,0.069439
5.802,64.9776,0.069439
5.832,64.9366,0.077862
5.865,64.8912,0.077862
5.894,64.8516,0.077862
5.924,64.8087,0.077862
5.955,64.7631,0.077862
5.987,64.7175,0.077862
6.017,64.6723,0.077862
6.048,64.6248,0.077862
6.079,64.5771,0.080826
6.110,64.5291,0.080826
6.141,64.4805,0.080826
6.172,64.4313,0.080826
6.203,64.3807,0.080826
6.235,64.3266,0.080826
6.265,64.2765,0.080826
6.297,64.2219,0.080826
6.327,64.1716,0.080826
6.359,64.1154,0.082124
6.389,64.0622,0.082124
6.420,64.0061,0.082124
6.451,63.9505,0.082124
6.483,63.8907,0.082124
6.513,63.8365,0.082124
6.544,63.7773,0.082124
6.576,63.7164,0.089098
6.607,63.6570,0.089098
6.637,63.5964,0.089098
6.668,63.5377,0.089098
6.699,63.4773,0.089098
6.730,63.4194,0.089098
6.761,63.3620,0.089098
6.793,63.3034,0.089098
6.823,63.2500,0.089098
6.853,63.1948,0.106130
6.884,63.1410,0.106130
6.915,63.0869,0.106130
6.946,63.0334,0.106130
6.976,62.9825,0.106130
7.008,62.9286,0.106130
7.039,62.8780,0.106130
7.070,62.8268,0.106130
7.102,62.7771,0.126146
7.132,62.7286,0.126146
7.164,62.6798,0.126146
7.195,62.6316,0.126146
7.227,62.5841,0.126146
7.258,62.5367,0.126146
7.289,62.4924,0.126146
7.320,62.4475,0.129741
7.350,62.4056,0.129741
7.382,62.3611,0.129741
7.412,62.3204,0.129741
7.443,62.2781,0.129741
7.475,62.2361,0.129741
7.505,62.1976,0.129741
7.536,62.1577,0.129741
7.567,62.1194,0.129741
7.598,62.0813,0.073138
7.629,62.0446,0.073138
7.660,62.0079,0.073138
7.690,61.9733,0.073138
7.722,61.9372,0.073138
7.753,61.9034,0.073138
7.783,61.8697,0.073138
7.814,61.8377,0.073138
7.846,61.8036,0.019884
7.875,61.7741,0.019884
7.907,61.7433,0.019884
7.940,61.7097,0.019884
7.970,61.6834,0.019884
8.000,61.6549,0.019884
8.030,61.6276,0.019884
8.061,61.6007,0.019884
8.092,61.5743,0.019884
8.123,61.5492,0.016807
8.154,61.5246,0.016807
8.185,61.5005,0.016807
8.216,61.4762,0.016807
8.247,61.4535,0.016807
8.279,61.4309,0.016807
8.310,61.4101,0.016807
8.340,61.3896,0.015744
8.371,61.3694,0.015744
8.403,61.3503,0.015744
8.434,61.3319,0.015744
8.465,61.3141,0.015744
8.496,61.2972,0.015744
8.527,61.2810,0.015744
8.558,61.2660,0.015744
8.589,61.2507,0.015744
8.620,61.2369,0.015019
8.652,61.2233,0.015019
8.683,61.2110,0.015019
8.714,61.1991,0.015019
8.745,61.1878,0.015019
8.777,61.1774,0.015019
8.808,61.1679,0.015019
8.839,61.1587,0.014577
8.870,61.1507,0.014577
8.900,61.1434,0.014577
8.931,61.1370,0.014577
8.962,61.1309,0.014577
8.994,61.1256,0.014577
9.024,61.1212,0.014577
9.055,61.1173,0.014577
9.086,61.1143,0.014577
9.118,61.1119,0.014257
9.147,61.1104,0.014257
9.180,61.1094,0.014257
9.210,61.1093,0.014257
9.242,61.1093,0.014257
9.273,61.1093,0.014257
9.304,61.1093,0.014257
9.336,61.1093,0.013984
9.366,61.1093,0.013984
9.398,61.1093,0.013984
9.429,61.1093,0.013984
9.459,61.1093,0.013984
9.489,61.1093,0.013984
9.520,61.1093,0.013984
9.551,61.1093,0.013984
9.582,61.1093,0.014003
9.617,61.1093,0.014003
9.644,61.1093,0.014003
9.676,61.1093,0.014003
9.706,61.1093,0.014003
9.737,61.1093,0.014003
9.768,61.1093,0.014003
9.799,61.1093,0.014003
9.830,61.1093,0.014012
9.862,61.1093,0.014012
9.892,61.1093,0.014012
9.922,61.1096,0.014012
9.953,61.1106,0.014012
9.984,61.1123,0.014012
10.015,61.1147,0.014012
10.045,61.1176,0.014012
10.076,61.1215,0.013937
10.105,61.1259,0.013937
10.137,61.1313,0.013937
10.168,61.1374,0.013937
10.199,61.1442,0.013937
10.230,61.1514,0.013937
10.261,61.1597,0.013937
10.292,61.1685,0.013937
10.323,61.1783,0.013937
10.354,61.1888,0.013730
10.385,61.1996,0.013730
10.416,61.2114,0.013730
10.447,61.2240,0.013730
10.478,61.2376,0.013730
10.509,61.2516,0.013730
10.541,61.2665,0.013730
10.573,61.2823,0.013494
10.605,61.2992,0.013494
10.635,61.3161,0.013494
10.667,61.3339,0.013494
10.698,61.3524,0.013494
10.728,61.3716,0.013494
10.759,61.3912,0.013494
10.790,61.4117,0.013494
10.821,61.4331,0.013494
10.852,61.4549,0.013287
10.885,61.4793,0.013287
10.917,61.5033,0.013287
10.945,61.5255,0.013287
10.976,61.5508,0.013287
11.008,61.5769,0.013287
11.039,61.6034,0.013287
11.070,61.6311,0.013287
11.102,61.6596,0.013287
11.133,61.6878,0.012911
11.163,61.7165,0.012911
11.194,61.7471,0.012911
11.225,61.7772,0.012911
11.256,61.8094,0.012911
11.287,61.8422,0.012911
11.318,61.8743,0.012911
11.349,61.9084,0.012911
11.378,61.9404,0.012393
11.412,61.9785,0.012393
11.442,62.0147,0.012393
11.474,62.0517,0.012393
11.505,62.0881,0.012393
11.536,62.1267,0.012393
11.567,62.1650,0.012393
11.598,62.2058,0.011547
11.628,62.2443,0.011547
11.659,62.2859,0.011547
11.689,62.3260,0.011547
11.720,62.3694,0.011547
11.751,62.4118,0.011547
11.784,62.4576,0.011547
11.814,62.5011,0.011547
11.845,62.5476,0.011547
11.877,62.5946,0.010182
11.909,62.6430,0.010182
11.940,62.6895,0.010182
11.971,62.7395,0.010182
12.003,62.7897,0.010182
12.035,62.8398,0.010182
12.065,62.8887,0.010182
12.097,62.9418,0.008121
12.127,62.9927,0.008121
12.158,63.0453,0.008121
12.188,63.0979,0.008121
12.219,63.1510,0.008121
12.250,63.2074,0.008121
12.281,63.2615,0.008121
12.312,63.3182,0.008121
12.343,63.3757,0.004875
12.374,63.4332,0.004875
12.406,63.4922,0.004875
12.436,63.5517,0.004875
12.468,63.6124,0.004875
12.498,63.6715,0.004875
12.529,63.7292,0.004875
12.561,63.7901,0.004875
12.591,63.8454,-0.000790
12.622,63.9036,-0.000790
12.653,63.9607,-0.000790
12.686,64.0192,-0.000790
12.715,64.0690,-0.000790
12.746,64.1247,-0.000790
12.779,64.1803,-0.000790
12.808,64.2312,-0.000790
12.839,64.2820,-0.009984
12.870,64.3333,-0.009984
12.897,64.3768,-0.009984
12.932,64.4345,-0.009984
12.964,64.4834,-0.009984
12.994,64.5310,-0.009984
13.025,64.5775,-0.009984
13.057,64.6263,-0.009984
13.086,64.6694,-0.009984
13.117,64.7149,-0.023404
13.148,64.7592,-0.023404
13.179,64.8025,-0.023404
13.214,64.8533,-0.023404
13.240,64.8879,-0.023404
13.271,64.9291,-0.023404
13.301,64.9694,-0.023404
13.332,65.0094,-0.023404
13.363,65.0488,-0.042554
13.395,65.0887,-0.042554
13.425,65.1269,-0.042554
13.458,65.1655,-0.042554
13.488,65.2015,-0.042554
13.519,65.2379,-0.042554
13.550,65.2733,-0.042554
13.582,65.3090,-0.042554
13.612,65.3411,-0.069420
13.643,65.3751,-0.069420
13.674,65.4069,-0.069420
13.705,65.4387,-0.069420
13.737,65.4697,-0.069420
13.768,65.5010,-0.069420
13.799,65.5294,-0.069420
13.831,65.5605,-0.069420
13.862,65.5873,-0.106093
13.892,65.6140,-0.106093
13.924,65.6410,-0.106093
13.956,65.6669,-0.106093
13.987,65.6927,-0.106093
14.018,65.7174,-0.106093
14.049,65.7401,-0.106093
14.080,65.7629,-0.161294
14.113,65.7872,-0.161294
14.141,65.8060,-0.161294
14.172,65.8266,-0.161294
14.203,65.8460,-0.161294
14.233,65.8653,-0.161294
14.264,65.8840,-0.161294
14.296,65.9021,-0.161294
14.327,65.9190,-0.268017
14.358,65.9353,-0.268017
14.390,65.9511,-0.268017
14.421,65.9663,-0.268017
14.452,65.9803,-0.268017
14.483,65.9935,-0.268017
14.514,66.0061,-0.268017
14.546,66.0182,-0.268017
14.577,66.0296,-0.268017
14.610,66.0407,-0.445921
14.639,66.0497,-0.445921
14.670,66.0587,-0.445921
14.702,66.0670,-0.445921
14.733,66.0745,-0.445921
14.764,66.0814,-0.445921
14.796,66.0874,-0.445921
14.827,66.0927,-0.445921
14.858,66.0972,-0.680474
14.889,66.1011,-0.680474
14.920,66.1042,-0.680474
14.951,66.1066,-0.680474
14.982,66.1082,-0.680474
15.013,66.1091,-0.680474
15.044,66.1093,-0.680474
15.074,66.1093,-0.680474
15.105,66.1093,-0.821583
15.137,66.1093,-0.821583
15.168,66.1093,-0.821583
15.199,66.1093,-0.821583
15.229,66.1093,-0.821583
15.261,66.1093,-0.821583
15.293,66.1093,-0.821583
15.322,66.1093,-0.821583
15.353,66.1093,-0.673454
15.383,66.1093,-0.673454
15.414,66.1093,-0.673454
15.445,66.1093,-0.673454
15.476,66.1093,-0.673454
15.506,66.1093,-0.673454
15.538,66.1093,-0.673454
15.568,66.1093,-0.442505
15.599,66.1093,-0.442505
15.631,66.1093,-0.442505
15.662,66.1093,-0.442505
15.693,66.1093,-0.442505
15.723,66.1093,-0.442505
15.755,66.1093,-0.442505
15.786,66.1093,-0.442505
15.816,66.1093,-0.442505
15.847,66.1093,-0.338727
15.878,66.1093,-0.338727
15.909,66.1093,-0.338727
15.940,66.1093,-0.338727
15.971,66.1093,-0.338727
16.003,66.1093,-0.338727
16.034,66.1093,-0.338727
16.066,66.1093,-0.288880
16.097,66.1093,-0.288880
16.129,66.1093,-0.288880
16.159,66.1093,-0.288880
16.190,66.1093,-0.288880
16.221,66.1093,-0.288880
16.252,66.1093,-0.288880
16.283,66.1093,-0.288880
16.314,66.1093,-0.288880
16.345,66.1093,-0.262352
16.377,66.1093,-0.262352
16.410,66.1093,-0.262352
16.438,66.1093,-0.262352
16.472,66.1093,-0.262352
16.499,66.1093,-0.262352
16.531,66.1093,-0.262352
16.562,66.1093,-0.262352
16.601,66.1093,-0.247041
16.640,66.1093,-0.247041
16.672,66.1093,-0.247041
16.702,66.1093,-0.247041
16.733,66.1093,-0.247041
16.764,66.1093,-0.247041
16.796,66.1093,-0.247041
16.826,66.1093,-0.235890
16.856,66.1093,-0.235890
16.887,66.1093,-0.235890
16.919,66.1093,-0.235890
16.949,66.1093,-0.235890
16.981,66.1093,-0.235890
17.011,66.1093,-0.235890
17.044,66.1093,-0.235890
17.073,66.1093,-0.235890
17.107,66.1093,-0.227167
17.136,66.1093,-0.227167
17.167,66.1093,-0.227167
17.202,66.1093,-0.227167
17.230,66.1093,-0.227167
17.261,66.1093,-0.227167
17.292,66.1093,-0.227167
17.323,66.1093,-0.221822
17.355,66.1093,-0.221822
17.386,66.1093,-0.221822
17.416,66.1093,-0.221822
17.450,66.1093,-0.221822
17.483,66.1093,-0.221822
17.510,66.1093,-0.221822
17.542,66.1093,-0.221822
17.575,66.1093,-0.221822
17.604,66.1093,-0.221822
17.642,66.1093,-0.216354
17.682,66.1093,-0.216354
17.713,66.1093,-0.216354
17.744,66.1093,-0.216354
17.775,66.1093,-0.216354
17.806,66.1093,-0.216354
17.838,66.1093,-0.216354
17.867,66.1093,-0.211658
17.898,66.1093,-0.211658
17.929,66.1093,-0.211658
17.961,66.1093,-0.211658
17.992,66.1093,-0.211658
18.024,66.1093,-0.211658
18.055,66.1093,-0.211658
18.086,66.1093,-0.211658
18.116,66.1093,-0.208892
18.147,66.1093,-0.208892
18.178,66.1093,-0.208892
18.210,66.1093,-0.208892
18.241,66.1093,-0.208892
18.272,66.1093,-0.208892
18.303,66.1093,-0.208892
18.334,66.1093,-0.208892
18.365,66.1093,-0.204535
18.397,66.1093,-0.204535
18.427,66.1093,-0.204535
18.458,66.1093,-0.204535
18.490,66.1093,-0.204535
18.521,66.1093,-0.204535
18.552,66.1093,-0.204535
18.583,66.1093,-0.204535
18.614,66.1093,-0.201542
18.647,66.1093,-0.201542
18.677,66.1093,-0.201542
18.709,66.1093,-0.201542
18.740,66.1093,-0.201542
18.772,66.1093,-0.201542
18.802,66.1093,-0.201542
18.833,66.1093,-0.199971
18.865,66.1093,-0.199971
18.897,66.1093,-0.199971
18.928,66.1093,-0.199971
18.959,66.1093,-0.199971
18.991,66.1093,-0.199971
19.022,66.1093,-0.199971
19.053,66.1093,-0.199971
19.084,66.1093,-0.197157
19.115,66.1093,-0.197157
19.146,66.1093,-0.197157
19.176,66.1093,-0.197157
19.207,66.1093,-0.197157
19.239,66.1093,-0.197157
19.269,66.1093,-0.197157
19.301,66.1093,-0.197157
19.330,66.1093,-0.195002
19.360,66.1093,-0.195002
19.391,66.1093,-0.195002
19.421,66.1093,-0.195002
19.452,66.1093,-0.195002
19.483,66.1093,-0.195002
19.515,66.1093,-0.195002
19.552,66.1093,-0.195002
19.592,66.1093,-0.192687
19.622,66.1093,-0.192687
19.653,66.1093,-0.192687
19.684,66.1093,-0.192687
19.716,66.1093,-0.192687
19.747,66.1093,-0.192687
19.778,66.1093,-0.192687
19.808,66.1093,-0.192687
19.840,66.1093,-0.190156
19.871,66.1093,-0.190156
19.902,66.1093,-0.190156
19.933,66.1093,-0.190156
19.967,66.1093,-0.190156
19.995,66.1093,-0.190156
20.027,66.1093,-0.190156
20.059,66.1093,-0.190156
20.089,66.1092,-0.186166
20.121,66.1085,-0.186166
20.153,66.1070,-0.186166
20.183,66.1049,-0.186166
20.214,66.1020,-0.186166
20.244,66.0985,-0.186166
20.275,66.0941,-0.186166
20.306,66.0890,-0.186166
20.337,66.0832,-0.186166
20.368,66.0766,-0.120029
20.401,66.0688,-0.120029
20.431,66.0610,-0.120029
20.462,66.0523,-0.120029
20.492,66.0433,-0.120029
20.523,66.0333,-0.120029
20.553,66.0224,-0.120029
20.584,66.0112,0.222302
20.615,65.9986,0.222302
20.646,65.9858,0.222302
20.678,65.9714,0.222302
20.708,65.9575,0.222302
20.740,65.9415,0.222302
20.770,65.9258,0.222302
20.802,65.9090,0.222302
20.832,65.8924,0.264724
20.862,65.8744,0.264724
20.894,65.8550,0.264724
20.925,65.8354,0.264724
20.955,65.8151,0.264724
20.987,65.7943,0.264724
21.017,65.7730,0.264724
21.048,65.7508,0.264724
21.083,65.7244,0.264724
21.110,65.7036,0.034179
21.141,65.6787,0.034179
21.172,65.6532,0.034179
21.204,65.6269,0.034179
21.236,65.5977,0.034179
21.265,65.5728,0.034179
21.296,65.5442,0.034179
21.327,65.5154,0.050534
21.359,65.4841,0.050534
21.390,65.4545,0.050534
21.423,65.4208,0.050534
21.453,65.3901,0.050534
21.484,65.3570,0.050534
21.515,65.3230,0.050534
21.548,65.2863,0.050534
21.577,65.2543,0.050534
21.608,65.2196,0.050534
21.639,65.1826,0.067284
21.671,65.1449,0.067284
21.702,65.1062,0.067284
21.733,65.0683,0.067284
21.763,65.0290,0.067284
21.795,64.9893,0.067284
21.826,64.9475,0.067284
21.857,64.9072,0.076704
21.889,64.8639,0.076704
21.919,64.8216,0.076704
21.950,64.7768,0.076704
21.981,64.7320,0.076704
22.012,64.6879,0.076704
22.043,64.6425,0.076704
22.075,64.5939,0.076704
22.106,64.5479,0.080431
22.136,64.4990,0.080431
22.167,64.4524,0.080431
22.197,64.4031,0.080431
22.228,64.3532,0.080431
22.259,64.3033,0.080431
22.290,64.2516,0.080431
22.320,64.2001,0.081795
22.351,64.1473,0.081795
22.383,64.0913,0.081795
22.414,64.0383,0.081795
22.445,63.9813,0.081795
22.475,63.9260,0.081795
22.507,63.8695,0.081795
22.538,63.8127,0.081795
22.569,63.7531,0.087441
22.603,63.6879,0.087441
22.631,63.6339,0.087441
22.663,63.5744,0.087441
22.694,63.5131,0.087441
22.725,63.4530,0.087441
22.756,63.3946,0.087441
22.788,63.3348,0.087441
22.818,63.2794,0.087441
22.849,63.2224,0.102808
22.880,63.1672,0.102808
22.913,63.1091,0.102808
22.942,63.0576,0.102808
22.973,63.0040,0.102808
23.004,62.9526,0.102808
23.034,62.9007,0.102808
23.065,62.8495,0.102808
23.096,62.7980,0.122881
23.127,62.7500,0.122881
23.158,62.6998,0.122881
23.189,62.6516,0.122881
23.221,62.6027,0.122881
23.251,62.5572,0.122881
23.283,62.5089,0.122881
23.314,62.4647,0.122881
23.345,62.4183,0.131915
23.376,62.3751,0.131915
23.407,62.3312,0.131915
23.437,62.2899,0.131915
23.469,62.2462,0.131915
23.499,62.2064,0.131915
23.531,62.1654,0.131915
23.561,62.1258,0.131915
23.593,62.0856,0.077805
23.624,62.0479,0.077805
23.655,62.0096,0.077805
23.686,61.9736,0.077805
23.718,61.9361,0.077805
23.749,61.9010,0.077805
23.781,61.8649,0.077805
23.811,61.8324,0.077805
23.842,61.7993,0.021239
23.873,61.7666,0.021239
23.904,61.7347,0.021239
23.935,61.7043,0.021239
23.965,61.6744,0.021239
23.996,61.6452,0.021239
24.028,61.6157,0.021239
24.059,61.5874,0.021239
24.091,61.5594,0.017165
24.122,61.5329,0.017165
24.154,61.5061,0.017165
24.184,61.4809,0.017165
24.216,61.4566,0.017165
24.247,61.4322,0.017165
24.280,61.4083,0.017165
24.309,61.3874,0.017165
24.341,61.3652,0.017165
24.373,61.3439,0.015904
24.403,61.3245,0.015904
24.434,61.3052,0.015904
24.464,61.2874,0.015904
24.495,61.2693,0.015904
24.526,61.2523,0.015904
24.557,61.2356,0.015904
24.589,61.2200,0.015904
24.619,61.2049,0.015122
24.650,61.1909,0.015122
24.682,61.1772,0.015122
24.711,61.1653,0.015122
24.742,61.1529,0.015122
24.774,61.1416,0.015122
24.806,61.1305,0.015122
24.836,61.1211,0.015122
24.869,61.1116,0.014652
24.898,61.1039,0.014652
24.929,61.0959,0.014652
24.960,61.0889,0.014652
24.991,61.0828,0.014652
25.023,61.0772,0.014652
25.054,61.0725,0.014652
25.086,61.0684,0.014652
25.117,61.0650,0.014323
25.149,61.0624,0.014323
25.179,61.0607,0.014323
25.211,61.0597,0.014323
25.242,61.0593,0.014323
25.274,61.0593,0.014323
25.304,61.0593,0.014323
25.335,61.0593,0.014087
25.366,61.0593,0.014087
25.397,61.0597,0.014087
25.427,61.0607,0.014087
25.460,61.0626,0.014087
25.490,61.0650,0.014087
25.521,61.0684,0.014087
25.553,61.0724,0.014087
25.584,61.0771,0.013984
25.614,61.0825,0.013984
25.645,61.0885,0.013984
25.676,61.0954,0.013984
25.702,61.1016,0.013984
25.739,61.1116,0.013984
25.769,61.1204,0.013984
25.800,61.1304,0.013984
25.831,61.1408,0.013824
25.862,61.1521,0.013824
25.894,61.1641,0.013824
25.925,61.1770,0.013824
25.956,61.1906,0.013824
25.986,61.2041,0.013824
26.018,61.2196,0.013824
26.048,61.2347,0.013824
26.079,61.2515,0.013579
26.111,61.2682,0.013579
26.141,61.2861,0.013579
26.173,61.3049,0.013579
26.204,61.3240,0.013579
26.234,61.3437,0.013579
26.265,61.3647,0.013579
26.296,61.3858,0.013579
26.327,61.4081,0.013429
26.358,61.4305,0.013429
26.389,61.4546,0.013429
26.419,61.4780,0.013429
26.451,61.5032,0.013429
26.481,61.5294,0.013429
26.512,61.5562,0.013429
26.542,61.5819,0.013429
26.576,61.6117,0.013062
26.607,61.6415,0.013062
26.638,61.6709,0.013062
26.669,61.7010,0.013062
26.700,61.7314,0.013062
26.732,61.7635,0.013062
26.761,61.7947,0.013062
26.793,61.8288,0.013062
26.823,61.8621,0.013062
26.855,61.8971,0.012450
26.885,61.9314,0.012450
26.917,61.9687,0.012450
26.947,62.0040,0.012450
26.978,62.0421,0.012450
27.010,62.0797,0.012450
27.041,62.1202,0.012450
27.073,62.1601,0.012450
27.104,62.2009,0.011603
27.135,62.2428,0.011603
27.167,62.2846,0.011603
27.196,62.3250,0.011603
27.227,62.3687,0.011603
27.259,62.4137,0.011603
27.290,62.4581,0.011603
27.322,62.5055,0.010173
27.353,62.5513,0.010173
27.384,62.5991,0.010173
27.415,62.6460,0.010173
27.446,62.6955,0.010173
27.476,62.7438,0.010173
27.507,62.7932,0.010173
27.538,62.8426,0.010173
27.569,62.8943,0.010173
27.600,62.9464,0.007933
27.631,62.9991,0.007933
27.662,63.0526,0.007933
27.692,63.1044,0.007933
27.723,63.1586,0.007933
27.754,63.2141,0.007933
27.785,63.2730,0.007933
27.816,63.3300,0.004479
27.848,63.3890,0.004479
27.878,63.4447,0.004479
27.910,63.5056,0.004479
27.941,63.5664,0.004479
27.972,63.6264,0.004479
28.003,63.6848,0.004479
28.034,63.7447,0.004479
28.065,63.8006,0.004479
28.100,63.8670,-0.001553
28.126,63.9140,-0.001553
28.157,63.9681,-0.001553
28.187,64.0211,-0.001553
28.220,64.0786,-0.001553
28.251,64.1324,-0.001553
28.283,64.1868,-0.001553
28.312,64.2348,-0.001553
28.344,64.2869,-0.001553
28.374,64.3364,-0.011123
28.404,64.3844,-0.011123
28.435,64.4348,-0.011123
28.472,64.4922,-0.011123
28.513,64.5535,-0.011123
28.543,64.5991,-0.011123
28.574,64.6439,-0.011123
28.604,64.6881,-0.024890
28.635,64.7322,-0.024890
28.666,64.7763,-0.024890
28.697,64.8189,-0.024890
28.729,64.8617,-0.024890
28.759,64.9032,-0.024890
28.790,64.9443,-0.024890
28.822,64.9834,-0.044643
28.853,65.0226,-0.044643
28.884,65.0617,-0.044643
28.914,65.0988,-0.044643
28.945,65.1354,-0.044643
28.977,65.1730,-0.044643
29.007,65.2076,-0.044643
29.039,65.2438,-0.044643
29.070,65.2773,-0.044643
29.102,65.3117,-0.044643
29.133,65.3444,-0.072413
29.163,65.3757,-0.072413
29.195,65.4066,-0.072413
29.226,65.4386,-0.072413
29.253,65.4634,-0.072413
29.290,65.4978,-0.072413
29.320,65.5259,-0.072413
29.351,65.5532,-0.110478
29.383,65.5804,-0.110478
29.413,65.6059,-0.110478
29.444,65.6315,-0.110478
29.475,65.6554,-0.110478
29.505,65.6788,-0.110478
29.536,65.7022,-0.110478
29.567,65.7245,-0.110478
29.598,65.7462,-0.169641
29.629,65.7671,-0.169641
29.659,65.7866,-0.169641
29.689,65.8063,-0.169641
29.720,65.8247,-0.169641
29.751,65.8426,-0.169641
29.782,65.8600,-0.169641
29.813,65.8767,-0.169641
29.843,65.8922,-0.282895
29.874,65.9075,-0.282895
29.906,65.9221,-0.282895
29.942,65.9384,-0.282895
29.984,65.9555,-0.282895
30.014,65.9671,-0.282895
30.046,65.9790,-0.282895
30.076,65.9889,-0.282895
30.107,65.9986,-0.465729
30.139,66.0078,-0.465729
30.171,66.0163,-0.465729
30.202,66.0241,-0.465729
30.232,66.0307,-0.465729
30.265,66.0371,-0.465729
30.294,66.0420,-0.465729
30.324,66.0467,-0.465729
30.356,66.0507,-0.695936
30.387,66.0539,-0.695936
30.418,66.0564,-0.695936
30.449,66.0581,-0.695936
30.480,66.0591,-0.695936
30.511,66.0593,-0.695936
30.542,66.0593,-0.695936
30.574,66.0593,-0.805322
30.606,66.0593,-0.805322
30.637,66.0593,-0.805322
30.668,66.0593,-0.805322
30.699,66.0593,-0.805322
30.730,66.0593,-0.805322
30.760,66.0593,-0.805322
30.791,66.0593,-0.805322
30.822,66.0593,-0.805322
30.855,66.0593,-0.805322
30.884,66.0593,-0.637921
30.916,66.0593,-0.637921
30.947,66.0593,-0.637921
30.978,66.0593,-0.637921
31.009,66.0593,-0.637921
31.040,66.0593,-0.637921
31.072,66.0593,-0.637921
31.103,66.0593,-0.419195
31.134,66.0593,-0.419195
31.166,66.0593,-0.419195
31.197,66.0593,-0.419195
31.229,66.0593,-0.419195
31.259,66.0593,-0.419195
31.295,66.0593,-0.419195
31.321,66.0593,-0.323557
31.353,66.0593,-0.323557
31.387,66.0593,-0.323557
31.414,66.0593,-0.323557
31.446,66.0593,-0.323557
31.477,66.0593,-0.323557
31.508,66.0593,-0.323557
31.540,66.0593,-0.323557
31.571,66.0593,-0.323557
31.602,66.0593,-0.323557
31.633,66.0593,-0.278218
31.663,66.0593,-0.278218
31.694,66.0593,-0.278218
31.727,66.0593,-0.278218
31.757,66.0593,-0.278218
31.788,66.0593,-0.278218
31.819,66.0593,-0.278218
31.850,66.0593,-0.278218
31.880,66.0593,-0.254720
31.911,66.0593,-0.254720
31.942,66.0593,-0.254720
31.973,66.0593,-0.254720
32.003,66.0593,-0.254720
32.036,66.0593,-0.254720
32.066,66.0593,-0.254720
32.097,66.0593,-0.240388
32.127,66.0593,-0.240388
32.158,66.0593,-0.240388
32.188,66.0593,-0.240388
32.218,66.0593,-0.240388
32.249,66.0593,-0.240388
32.279,66.0593,-0.240388
32.310,66.0593,-0.240388
32.341,66.0593,-0.240388
32.372,66.0593,-0.230300
32.403,66.0593,-0.230300
32.433,66.0593,-0.230300
32.465,66.0593,-0.230300
32.496,66.0593,-0.230300
32.527,66.0593,-0.230300
32.558,66.0593,-0.230300
32.590,66.0593,-0.230300
32.619,66.0593,-0.222800
32.651,66.0593,-0.222800
32.682,66.0593,-0.222800
32.716,66.0593,-0.222800
32.744,66.0593,-0.222800
32.777,66.0593,-0.222800
32.807,66.0593,-0.222800
32.839,66.0593,-0.222800
32.870,66.0593,-0.216834
32.900,66.0593,-0.216834
32.932,66.0593,-0.216834
32.963,66.0593,-0.216834
32.994,66.0593,-0.216834
33.025,66.0593,-0.216834
33.055,66.0593,-0.216834
33.087,66.0593,-0.216834
33.117,66.0593,-0.212016
33.147,66.0593,-0.212016
33.178,66.0593,-0.212016
33.208,66.0593,-0.212016
33.239,66.0593,-0.212016
33.271,66.0593,-0.212016
33.309,66.0593,-0.212016
33.348,66.0593,-0.207452
33.379,66.0593,-0.207452
33.410,66.0593,-0.207452
33.440,66.0593,-0.207452
33.471,66.0593,-0.207452
33.502,66.0593,-0.207452
33.533,66.0593,-0.207452
33.565,66.0593,-0.207452
33.596,66.0593,-0.207452
33.626,66.0593,-0.203998
33.659,66.0593,-0.203998
33.691,66.0593,-0.203998
33.722,66.0593,-0.203998
33.753,66.0593,-0.203998
33.785,66.0593,-0.203998
33.816,66.0593,-0.203998
33.846,66.0593,-0.201251
33.878,66.0593,-0.201251
33.908,66.0593,-0.201251
33.939,66.0593,-0.201251
33.970,66.0593,-0.201251
34.002,66.0593,-0.201251
34.033,66.0593,-0.201251
34.065,66.0593,-0.201251
34.097,66.0593,-0.198522
34.128,66.0593,-0.198522
34.158,66.0593,-0.198522
34.189,66.0593,-0.198522
34.221,66.0593,-0.198522
34.252,66.0593,-0.198522
34.282,66.0593,-0.198522
34.314,66.0593,-0.198522
34.345,66.0593,-0.195934
34.376,66.0593,-0.195934
34.406,66.0593,-0.195934
34.438,66.0593,-0.195934
34.468,66.0593,-0.195934
34.501,66.0593,-0.195934
34.530,66.0593,-0.195934
34.561,66.0593,-0.195934
34.593,66.0593,-0.193892
34.624,66.0593,-0.193892
34.655,66.0593,-0.193892
34.686,66.0593,-0.193892
34.716,66.0593,-0.193892
34.747,66.0593,-0.193892
34.778,66.0593,-0.193892
34.808,66.0593,-0.193892
34.840,66.0593,-0.193892
34.870,66.0593,-0.192301
34.902,66.0593,-0.192301
34.932,66.0593,-0.192301
34.963,66.0593,-0.192301
34.998,66.0593,-0.192301
35.026,66.0593,-0.192301
35.060,66.0593,-0.192301
35.088,66.0593,-0.192301
35.120,66.0593,-0.190080
35.152,66.0593,-0.190080
35.183,66.0593,-0.190080
35.214,66.0593,-0.190080
35.244,66.0593,-0.190080
35.274,66.0593,-0.190080
35.306,66.0593,-0.190080
35.337,66.0593,-0.186928
35.368,66.0593,-0.186928
35.400,66.0593,-0.186928
35.430,66.0593,-0.186928
35.463,66.0593,-0.186928
35.493,66.0593,-0.186928
35.524,66.0593,-0.186928
35.556,66.0593,-0.186928
35.586,66.0593,-0.186928
35.617,66.0593,-0.182872
35.647,66.0587,-0.182872
35.677,66.0574,-0.182872
35.708,66.0554,-0.182872
35.739,66.0527,-0.182872
35.770,66.0491,-0.182872
35.799,66.0452,-0.182872
35.833,66.0398,-0.147348
35.864,66.0340,-0.147348
35.895,66.0276,-0.147348
35.926,66.0204,-0.147348
35.958,66.0125,-0.147348
35.989,66.0038,-0.147348
36.021,65.9940,-0.147348
36.052,65.9842,-0.147348
36.082,65.9735,0.328366
36.113,65.9620,0.328366
36.143,65.9501,0.328366
36.174,65.9371,0.328366
36.204,65.9238,0.328366
36.235,65.9094,0.328366
36.266,65.8946,0.328366
36.296,65.8789,0.328366
36.329,65.8615,0.328366
36.361,65.8438,0.400722
36.390,65.8268,0.400722
36.422,65.8075,0.400722
36.452,65.7879,0.400722
36.483,65.7679,0.400722
36.515,65.7464,0.400722
36.545,65.7254,0.400722
36.576,65.7027,0.400722
36.607,65.6796,0.034555
36.638,65.6554,0.034555
36.669,65.6315,0.034555
36.700,65.6060,0.034555
36.730,65.5807,0.034555
36.762,65.5526,0.034555
36.794,65.5254,0.034555
36.824,65.4978,0.048529
36.854,65.4695,0.048529
36.884,65.4407,0.048529
36.915,65.4105,0.048529
36.945,65.3809,0.048529
36.975,65.3496,0.048529
37.006,65.3172,0.048529
37.036,65.2849,0.048529
37.067,65.2512,0.048529
37.098,65.2169,0.066023
37.129,65.1811,0.066023
37.160,65.1453,0.066023
37.192,65.1075,0.066023
37.223,65.0695,0.066023
37.253,65.0319,0.066023
37.284,64.9936,0.066023
37.316,64.9526,0.076337
37.346,64.9115,0.076337
37.378,64.8708,0.076337
37.408,64.8300,0.076337
37.440,64.7865,0.076337
37.470,64.7427,0.076337
37.501,64.6991,0.076337
37.532,64.6542,0.076337
37.563,64.6098,0.076337
37.594,64.5633,0.076337
37.625,64.5158,0.080393
37.657,64.4665,0.080393
37.688,64.4185,0.080393
37.719,64.3689,0.080393
37.750,64.3179,0.080393
37.782,64.2676,0.080393
37.813,64.2160,0.080393
37.843,64.1648,0.080393
37.875,64.1117,0.081739
37.905,64.0567,0.081739
37.936,64.0030,0.081739
37.967,63.9475,0.081739
37.998,63.8928,0.081739
38.030,63.8340,0.081739
38.060,63.7792,0.081739
38.092,63.7191,0.081739
38.123,63.6620,0.086190
38.153,63.6026,0.086190
38.184,63.5438,0.086190
38.214,63.4834,0.086190
38.246,63.4242,0.086190
38.278,63.3617,0.086190
38.309,63.3047,0.086190
38.341,63.2453,0.086190
38.371,63.1901,0.100258
38.403,63.1328,0.100258
38.433,63.0775,0.100258
38.465,63.0237,0.100258
38.496,62.9702,0.100258
38.526,62.9183,0.100258
38.557,62.8665,0.100258
38.588,62.8120,0.100258
38.619,62.7628,0.120566
38.650,62.7123,0.120566
38.681,62.6637,0.120566
38.711,62.6156,0.120566
38.742,62.5680,0.120566
38.773,62.5202,0.120566
38.805,62.4738,0.120566
38.835,62.4284,0.120566
38.867,62.3829,0.132715
38.899,62.3360,0.132715
38.929,62.2940,0.132715
38.961,62.2495,0.132715
38.991,62.2090,0.132715
39.023,62.1660,0.132715
39.054,62.1250,0.132715
39.085,62.0856,0.132715
39.117,62.0456,0.081193
39.148,62.0071,0.081193
39.179,61.9692,0.081193
39.210,61.9322,0.081193
39.242,61.8954,0.081193
39.273,61.8593,0.081193
39.304,61.8243,0.081193
39.335,61.7907,0.081193
39.366,61.7573,0.023008
39.398,61.7241,0.023008
39.428,61.6926,0.023008
39.460,61.6602,0.023008
39.490,61.6303,0.023008
39.521,61.6010,0.023008
39.553,61.5713,0.023008
39.583,61.5438,0.017353
39.614,61.5166,0.017353
39.644,61.4901,0.017353
39.675,61.4642,0.017353
39.705,61.4401,0.017353
39.736,61.4149,0.017353
39.767,61.3917,0.017353
39.798,61.3677,0.017353
39.830,61.3447,0.016035
39.861,61.3229,0.016035
39.891,61.3027,0.016035
39.922,61.2822,0.016035
39.954,61.2621,0.016035
39.984,61.2440,0.016035
40.016,61.2253,0.016035
40.048,61.2076,0.016035
40.080,61.1904,0.015273
40.111,61.1748,0.015273
40.142,61.1596,0.015273
40.173,61.1448,0.015273
40.205,61.1304,0.015273
40.235,61.1180,0.015273
40.266,61.1060,0.015273
40.297,61.0944,0.015273
40.332,61.0823,0.015273
40.359,61.0737,0.015273
40.391,61.0643,0.014774
40.425,61.0549,0.014774
40.453,61.0479,0.014774
40.483,61.0409,0.014774
40.515,61.0343,0.014774
40.546,61.0286,0.014774
40.577,61.0236,0.014398
40.608,61.0194,0.014398
40.639,61.0159,0.014398
40.669,61.0133,0.014398
40.701,61.0112,0.014398
40.732,61.0100,0.014398
40.763,61.0094,0.014398
40.793,61.0094,0.014398
40.825,61.0094,0.014125
40.856,61.0094,0.014125
40.887,61.0094,0.014125
40.917,61.0099,0.014125
40.949,61.0110,0.014125
40.980,61.0130,0.014125
41.011,61.0156,0.014125
41.041,61.0189,0.014125
41.073,61.0230,0.014021
41.105,61.0281,0.014021
41.136,61.0337,0.014021
41.167,61.0399,0.014021
41.198,61.0469,0.014021
41.229,61.0549,0.014021
41.259,61.0632,0.014021
41.290,61.0721,0.014021
41.324,61.0833,0.014021
41.352,61.0927,0.014021
41.384,61.1044,0.013880
41.415,61.1164,0.013880
41.447,61.1300,0.013880
41.476,61.1426,0.013880
41.509,61.1576,0.013880
41.539,61.1722,0.013880
41.571,61.1893,0.013880
41.600,61.2037,0.013532
41.631,61.2213,0.013532
41.663,61.2394,0.013532
41.694,61.2585,0.013532
41.724,61.2774,0.013532
41.754,61.2967,0.013532
41.786,61.3177,0.013532
41.816,61.3393,0.013532
41.848,61.3615,0.013353
41.879,61.3852,0.013353
41.910,61.4086,0.013353
41.942,61.4336,0.013353
41.972,61.4582,0.013353
42.003,61.4850,0.013353
42.034,61.5110,0.013353
42.065,61.5391,0.013353
42.097,61.5667,0.013137
42.131,61.5998,0.013137
42.158,61.6245,0.013137
42.189,61.6555,0.013137
42.220,61.6855,0.013137
42.254,61.7229,0.013137
42.282,61.7500,0.013137
42.313,61.7836,0.013137
42.345,61.8179,0.012553
42.376,61.8530,0.012553
42.410,61.8924,0.012553
42.437,61.9239,0.012553
42.468,61.9610,0.012553
42.498,61.9971,0.012553
42.529,62.0358,0.012553
42.560,62.0739,0.012553
42.591,62.1144,0.011744
42.622,62.1546,0.011744
42.654,62.1975,0.011744
42.684,62.2384,0.011744
42.715,62.2796,0.011744
42.746,62.3238,0.011744
42.778,62.3680,0.011744
42.809,62.4143,0.011744
42.840,62.4597,0.010323
42.871,62.5046,0.010323
42.901,62.5507,0.010323
42.931,62.5976,0.010323
42.964,62.6490,0.010323
42.993,62.6950,0.010323
43.024,62.7451,0.010323
43.056,62.7963,0.010323
43.088,62.8495,0.010323
43.118,62.9006,0.008131
43.149,62.9526,0.008131
43.180,63.0071,0.008131
43.212,63.0632,0.008131
43.243,63.1168,0.008131
43.275,63.1752,0.008131
43.305,63.2305,0.008131
43.336,63.2863,0.008131
43.366,63.3452,0.004828
43.398,63.4039,0.004828
43.429,63.4630,0.004828
43.467,63.5367,0.004828
43.508,63.6157,0.004828
43.539,63.6739,0.004828
43.570,63.7319,0.004828
43.600,63.7871,0.004828
43.630,63.8437,-0.001082
43.661,63.8969,-0.001082
43.691,63.9514,-0.001082
43.723,64.0070,-0.001082
43.754,64.0603,-0.001082
43.785,64.1145,-0.001082
43.816,64.1655,-0.001082
43.847,64.2175,-0.010276
43.877,64.2665,-0.010276
43.908,64.3168,-0.010276
43.939,64.3662,-0.010276
43.974,64.4198,-0.010276
44.001,64.4623,-0.010276
44.033,64.5104,-0.010276
44.063,64.5557,-0.010276
44.094,64.6006,-0.010276
44.125,64.6461,-0.023629
44.156,64.6906,-0.023629
44.187,64.7330,-0.023629
44.219,64.7768,-0.023629
44.249,64.8187,-0.023629
44.279,64.8586,-0.023629
44.310,64.9001,-0.023629
44.342,64.9398,-0.042704
44.372,64.9781,-0.042704
44.404,65.0172,-0.042704
44.436,65.0560,-0.042704
44.467,65.0935,-0.042704
44.498,65.1297,-0.042704
44.529,65.1641,-0.042704
44.560,65.1990,-0.042704
44.590,65.2321,-0.069627
44.622,65.2657,-0.069627
44.653,65.2991,-0.069627
44.683,65.3302,-0.069627
44.715,65.3618,-0.069627
44.747,65.3926,-0.069627
44.777,65.4212,-0.069627
44.807,65.4501,-0.069627
44.838,65.4778,-0.106591
44.874,65.5102,-0.106591
44.901,65.5330,-0.106591
44.932,65.5584,-0.106591
44.963,65.5840,-0.106591
44.994,65.6086,-0.106591
45.025,65.6322,-0.106591
45.055,65.6548,-0.106591
45.085,65.6765,-0.163458
45.118,65.6991,-0.163458
45.148,65.7194,-0.163458
45.180,65.7406,-0.163458
45.211,65.7600,-0.163458
45.243,65.7794,-0.163458
45.274,65.7968,-0.163458
45.306,65.8150,-0.163458
45.336,65.8308,-0.272459
45.368,65.8470,-0.272459
45.399,65.8620,-0.272459
45.432,65.8772,-0.272459
45.461,65.8899,-0.272459
45.493,65.9030,-0.272459
45.524,65.9151,-0.272459
45.556,65.9266,-0.272459
45.586,65.9369,-0.272459
45.616,65.9467,-0.447953
45.646,65.9555,-0.447953
45.677,65.9642,-0.447953
45.708,65.9717,-0.447953
45.739,65.9789,-0.447953
45.770,65.9851,-0.447953
45.801,65.9908,-0.447953
45.832,65.9955,-0.676786
45.863,65.9997,-0.676786
45.894,66.0030,-0.676786
45.925,66.0058,-0.676786
45.956,66.0076,-0.676786
45.987,66.0089,-0.676786
46.018,66.0094,-0.676786
46.049,66.0094,-0.676786
46.079,66.0094,-0.797558
46.111,66.0094,-0.797558
46.141,66.0094,-0.797558
46.173,66.0094,-0.797558
46.203,66.0094,-0.797558
46.234,66.0094,-0.797558
46.265,66.0094,-0.797558
46.296,66.0094,-0.797558
46.327,66.0094,-0.640838
46.358,66.0094,-0.640838
46.389,66.0094,-0.640838
46.421,66.0094,-0.640838
46.452,66.0094,-0.640838
46.483,66.0094,-0.640838
46.514,66.0094,-0.640838
46.546,66.0094,-0.640838
46.576,66.0094,-0.426658
46.607,66.0094,-0.426658
46.638,66.0094,-0.426658
46.669,66.0094,-0.426658
46.700,66.0094,-0.426658
46.731,66.0094,-0.426658
46.761,66.0094,-0.426658
46.792,66.0094,-0.426658
46.822,66.0094,-0.426658
46.853,66.0094,-0.426658
46.885,66.0094,-0.333316
46.914,66.0094,-0.333316
46.945,66.0094,-0.333316
46.975,66.0094,-0.333316
47.007,66.0094,-0.333316
47.038,66.0094,-0.333316
47.069,66.0094,-0.333316
47.101,66.0094,-0.287064
47.133,66.0094,-0.287064
47.163,66.0094,-0.287064
47.194,66.0094,-0.287064
47.225,66.0094,-0.287064
47.256,66.0094,-0.287064
47.287,66.0094,-0.287064
47.319,66.0094,-0.287064
47.351,66.0094,-0.261072
47.382,66.0094,-0.261072
47.413,66.0094,-0.261072
47.445,66.0094,-0.261072
47.476,66.0094,-0.261072
47.507,66.0094,-0.261072
47.538,66.0094,-0.261072
47.569,66.0094,-0.261072
47.600,66.0094,-0.261072
47.630,66.0094,-0.244425
47.661,66.0094,-0.244425
47.692,66.0094,-0.244425
47.723,66.0094,-0.244425
47.754,66.0094,-0.244425
47.783,66.0094,-0.244425
47.817,66.0094,-0.244425
47.848,66.0094,-0.244425
47.879,66.0094,-0.232653
47.911,66.0094,-0.232653
47.941,66.0094,-0.232653
47.972,66.0094,-0.232653
48.004,66.0094,-0.232653
48.034,66.0094,-0.232653
48.065,66.0094,-0.232653
48.095,66.0094,-0.232653
48.126,66.0094,-0.223835
48.158,66.0094,-0.223835
48.187,66.0094,-0.223835
48.218,66.0094,-0.223835
48.249,66.0094,-0.223835
48.280,66.0094,-0.223835
48.308,66.0094,-0.223835
48.342,66.0094,-0.217672
48.373,66.0094,-0.217672
48.404,66.0094,-0.217672
48.435,66.0094,-0.217672
48.467,66.0094,-0.217672
48.497,66.0094,-0.217672
48.527,66.0094,-0.217672
48.560,66.0094,-0.217672
48.589,66.0094,-0.217672
48.620,66.0094,-0.212411
48.654,66.0094,-0.212411
48.681,66.0094,-0.212411
48.713,66.0094,-0.212411
48.744,66.0094,-0.212411
48.775,66.0094,-0.212411
48.810,66.0094,-0.212411
48.836,66.0094,-0.212411
48.869,66.0094,-0.207452
48.900,66.0094,-0.207452
48.931,66.0094,-0.207452
48.962,66.0094,-0.207452
48.993,66.0094,-0.207452
49.025,66.0094,-0.207452
49.057,66.0094,-0.207452
49.087,66.0094,-0.204394
49.118,66.0094,-0.204394
49.149,66.0094,-0.204394
49.179,66.0094,-0.204394
49.211,66.0094,-0.204394
49.241,66.0094,-0.204394
49.273,66.0094,-0.204394
49.303,66.0094,-0.204394
49.334,66.0094,-0.204394
49.366,66.0094,-0.201251
49.397,66.0094,-0.201251
49.428,66.0094,-0.201251
49.459,66.0094,-0.201251
49.489,66.0094,-0.201251
49.521,66.0094,-0.201251
49.552,66.0094,-0.201251
49.583,66.0094,-0.198493
49.615,66.0094,-0.198493
49.645,66.0094,-0.198493
49.676,66.0094,-0.198493
49.707,66.0094,-0.198493
49.738,66.0094,-0.198493
49.768,66.0094,-0.198493
49.799,66.0094,-0.198493
49.831,66.0094,-0.195633
49.862,66.0094,-0.195633
49.893,66.0094,-0.195633
49.925,66.0094,-0.195633
49.955,66.0094,-0.195633
49.985,66.0094,-0.195633
50.018,66.0094,-0.195633
50.048,66.0094,-0.195633
50.079,66.0094,-0.191511
50.109,66.0094,-0.191511
50.140,66.0094,-0.191511
50.171,66.0094,-0.191511
50.202,66.0094,-0.191511
50.233,66.0094,-0.191511
50.265,66.0094,-0.191511
50.295,66.0092,-0.191511
50.326,66.0086,-0.191511
50.357,66.0073,-0.187624
50.388,66.0050,-0.187624
50.420,66.0022,-0.187624
50.450,65.9986,-0.187624
50.480,65.9945,-0.187624
50.510,65.9896,-0.187624
50.541,65.9841,-0.187624
50.572,65.9774,-0.105462
50.603,65.9703,-0.105462
50.634,65.9624,-0.105462
50.666,65.9536,-0.105462
50.698,65.9440,-0.105462
50.728,65.9340,-0.105462
50.760,65.9229,-0.105462
50.790,65.9115,-0.105462
50.821,65.8992,-0.105462
50.852,65.8861,0.116576
50.886,65.8710,0.116576
50.915,65.8576,0.116576
50.947,65.8423,0.116576
50.977,65.8263,0.116576
51.007,65.8101,0.116576
51.039,65.7929,0.116576
51.070,65.7746,0.116576
51.101,65.7555,0.116576
51.131,65.7368,0.142454
51.161,65.7168,0.142454
51.191,65.6966,0.142454
51.222,65.6750,0.142454
51.257,65.6497,0.142454
51.285,65.6282,0.142454
51.318,65.6027,0.142454
51.347,65.5806,0.142454
51.377,65.5556,0.034254
51.408,65.5298,0.034254
51.439,65.5027,0.034254
51.471,65.4745,0.034254
51.501,65.4468,0.034254
51.532,65.4174,0.034254
51.564,65.3875,0.034254
51.595,65.3571,0.051992
51.627,65.3254,0.051992
51.658,65.2924,0.051992
51.688,65.2605,0.051992
51.719,65.2274,0.051992
51.750,65.1929,0.051992
51.781,65.1592,0.051992
51.812,65.1227,0.051992
51.842,65.0882,0.051992
51.874,65.0500,0.068291
51.905,65.0131,0.068291
51.935,64.9746,0.068291
51.967,64.9342,0.068291
51.997,64.8958,0.068291
52.025,64.8602,0.068291
52.060,64.8125,0.068291
52.092,64.7702,0.068291
52.123,64.7277,0.076986
52.153,64.6839,0.076986
52.184,64.6398,0.076986
52.214,64.5962,0.076986
52.245,64.5516,0.076986
52.276,64.5048,0.076986
52.306,64.4585,0.076986
52.338,64.4097,0.076986
52.368,64.3618,0.080214
52.400,64.3122,0.080214
52.430,64.2631,0.080214
52.461,64.2121,0.080214
52.491,64.1612,0.080214
52.524,64.1080,0.080214
52.553,64.0546,0.080214
52.584,64.0034,0.081682
52.615,63.9500,0.081682
52.647,63.8930,0.081682
52.678,63.8362,0.081682
52.710,63.7771,0.081682
52.740,63.7236,0.081682
52.771,63.6652,0.081682
52.802,63.6074,0.081682
52.833,63.5470,0.081682
52.865,63.4849,0.088514
52.894,63.4274,0.088514
52.927,63.3635,0.088514
52.956,63.3091,0.088514
52.987,63.2520,0.088514
53.018,63.1942,0.088514
53.049,63.1379,0.088514
53.080,63.0827,0.088514
53.111,63.0271,0.105312
53.142,62.9707,0.105312
53.172,62.9198,0.105312
53.204,62.8652,0.105312
53.236,62.8097,0.105312
53.265,62.7629,0.105312
53.296,62.7117,0.105312
53.328,62.6612,0.125318
53.359,62.6117,0.125318
53.390,62.5628,0.125318
53.423,62.5119,0.125318
53.452,62.4676,0.125318
53.483,62.4210,0.125318
53.513,62.3759,0.125318
53.546,62.3286,0.125318
53.575,62.2872,0.128480
53.606,62.2433,0.128480
53.637,62.2004,0.128480
53.669,62.1581,0.128480
53.700,62.1158,0.128480
53.734,62.0703,0.128480
53.762,62.0344,0.128480
53.794,61.9940,0.128480
53.825,61.9564,0.128480
53.856,61.9192,0.128480
53.886,61.8824,0.072121
53.918,61.8454,0.072121
53.948,61.8112,0.072121
53.979,61.7758,0.072121
54.011,61.7410,0.072121
54.041,61.7090,0.072121
54.071,61.6769,0.072121
54.103,61.6437,0.072121
54.134,61.6131,0.019818
54.165,61.5823,0.019818
54.193,61.5561,0.019818
54.227,61.5238,0.019818
54.258,61.4953,0.019818
54.291,61.4666,0.019818
54.320,61.4402,0.019818
54.352,61.4145,0.016892
54.382,61.3892,0.016892
54.414,61.3639,0.016892
54.445,61.3403,0.016892
54.476,61.3167,0.016892
54.507,61.2950,0.016892
54.538,61.2725,0.016892
54.569,61.2517,0.016892
54.601,61.2309,0.016892
54.631,61.2116,0.015791
54.662,61.1929,0.015791
54.693,61.1751,0.015791
54.724,61.1576,0.015791
54.756,61.1410,0.015791
54.787,61.1246,0.015791
54.818,61.1097,0.015791
54.850,61.0942,0.015151
54.881,61.0810,0.015151
54.913,61.0677,0.015151
54.944,61.0554,0.015151
54.975,61.0443,0.015151
55.005,61.0334,0.015151
55.036,61.0236,0.015151
55.068,61.0141,0.015151
55.097,61.0059,0.015151
55.128,60.9981,0.014680
55.162,60.9905,0.014680
55.190,60.9846,0.014680
55.221,60.9789,0.014680
55.253,60.9738,0.014680
55.284,60.9694,0.014680
55.316,60.9660,0.014680
55.348,60.9631,0.014351
55.378,60.9612,0.014351
55.409,60.9600,0.014351
55.439,60.9594,0.014351
55.470,60.9594,0.014351
55.501,60.9594,0.014351
55.532,60.9594,0.014351
55.563,60.9594,0.014351
55.593,60.9594,0.014351
55.624,60.9594,0.014116
55.655,60.9594,0.014116
55.686,60.9594,0.014116
55.718,60.9594,0.014116
55.748,60.9594,0.014116
55.779,60.9594,0.014116
55.811,60.9594,0.014116
55.842,60.9594,0.014116
55.873,60.9594,0.014087
55.904,60.9594,0.014087
55.935,60.9594,0.014087
55.966,60.9594,0.014087
55.997,60.9594,0.014087
56.029,60.9594,0.014087
56.061,60.9595,0.014087
56.093,60.9604,0.014050
56.124,60.9620,0.014050
56.154,60.9643,0.014050
56.186,60.9674,0.014050
56.217,60.9712,0.014050
56.247,60.9756,0.014050
56.278,60.9807,0.014050
56.308,60.9864,0.014050
56.339,60.9934,0.013843
56.371,61.0007,0.013843
56.402,61.0091,0.013843
56.433,61.0178,0.013843
56.466,61.0278,0.013843
56.495,61.0376,0.013843
56.528,61.0493,0.013843
56.557,61.0607,0.013843
56.589,61.0731,0.013843
56.619,61.0863,0.013683
56.650,61.0998,0.013683
56.681,61.1148,0.013683
56.712,61.1302,0.013683
56.743,61.1462,0.013683
56.774,61.1632,0.013683
56.805,61.1808,0.013683
56.836,61.1992,0.013683
56.867,61.2181,0.013485
56.897,61.2373,0.013485
56.928,61.2574,0.013485
56.960,61.2796,0.013485
56.991,61.3013,0.013485
57.023,61.3246,0.013485
57.053,61.3473,0.013485
57.085,61.3727,0.013269
57.115,61.3969,0.013269
57.146,61.4221,0.013269
57.177,61.4482,0.013269
57.209,61.4766,0.013269
57.239,61.5036,0.013269
57.270,61.5314,0.013269
57.301,61.5605,0.013269
57.333,61.5915,0.012911
57.363,61.6219,0.012911
57.394,61.6533,0.012911
57.425,61.6853,0.012911
57.457,61.7185,0.012911
57.488,61.7526,0.012911
57.518,61.7855,0.012911
57.549,61.8211,0.012911
57.580,61.8563,0.012911
57.614,61.8965,0.012262
57.642,61.9310,0.012262
57.676,61.9717,0.012262
57.704,62.0073,0.012262
57.735,62.0471,0.012262
57.765,62.0851,0.012262
57.796,62.1268,0.012262
57.827,62.1671,0.012262
57.858,62.2105,0.011227
57.889,62.2534,0.011227
57.920,62.2975,0.011227
57.951,62.3406,0.011227
57.981,62.3860,0.011227
58.012,62.4310,0.011227
58.043,62.4785,0.011227
58.074,62.5246,0.009561
58.107,62.5776,0.009561
58.137,62.6228,0.009561
58.168,62.6716,0.009561
58.198,62.7211,0.009561
58.229,62.7731,0.009561
58.260,62.8254,0.009561
58.292,62.8781,0.009561
58.323,62.9322,0.007077
58.355,62.9868,0.007077
58.385,63.0414,0.007077
58.416,63.0966,0.007077
58.447,63.1525,0.007077
58.478,63.2104,0.007077
58.509,63.2677,0.007077
58.541,63.3265,0.007077
58.573,63.3861,0.007077
58.604,63.4462,0.003068
58.635,63.5078,0.003068
58.666,63.5675,0.003068
58.697,63.6250,0.003068
58.729,63.6838,0.003068
58.758,63.7389,0.003068
58.790,63.7973,0.003068
58.822,63.8541,0.003068
58.851,63.9057,-0.003934
58.882,63.9604,-0.003934
58.914,64.0137,-0.003934
58.945,64.0686,-0.003934
58.975,64.1184,-0.003934
59.006,64.1702,-0.003934
59.038,64.2214,-0.003934
59.069,64.2724,-0.003934
59.101,64.3231,-0.014774
59.132,64.3713,-0.014774
59.164,64.4206,-0.014774
59.195,64.4670,-0.014774
59.227,64.5155,-0.014774
59.258,64.5598,-0.014774
59.289,64.6064,-0.014774
59.320,64.6506,-0.014774
59.351,64.6921,-0.030245
59.382,64.7356,-0.030245
59.413,64.7769,-0.030245
59.444,64.8180,-0.030245
59.475,64.8593,-0.030245
59.507,64.8991,-0.030245
59.538,64.9385,-0.030245
59.568,64.9755,-0.030245
59.599,65.0132,-0.052162
59.633,65.0529,-0.052162
59.661,65.0861,-0.052162
59.693,65.1220,-0.052162
59.723,65.1558,-0.052162
59.754,65.1897,-0.052162
59.784,65.2217,-0.052162
59.820,65.2587,-0.052162
59.846,65.2854,-0.082614
59.877,65.3173,-0.082614
59.909,65.3475,-0.082614
59.940,65.3768,-0.082614
59.970,65.4050,-0.082614
60.001,65.4327,-0.082614
60.032,65.4596,-0.082614
60.062,65.4864,-0.082614
60.093,65.5120,-0.124659
60.124,65.5365,-0.124659
60.154,65.5605,-0.124659
60.185,65.5845,-0.124659
60.216,65.6072,-0.124659
60.246,65.6289,-0.124659
60.277,65.6507,-0.124659
60.308,65.6714,-0.124659
60.339,65.6919,-0.196950
60.371,65.7113,-0.196950
60.402,65.7299,-0.196950
60.432,65.7476,-0.196950
60.463,65.7644,-0.196950
60.494,65.7814,-0.196950
60.525,65.7970,-0.196950
60.558,65.8128,-0.196950
60.587,65.8262,-0.196950
60.618,65.8396,-0.331189
60.648,65.8520,-0.331189
60.680,65.8646,-0.331189
60.711,65.8758,-0.331189
60.742,65.8867,-0.331189
60.773,65.8964,-0.331189
60.804,65.9058,-0.331189
60.835,65.9141,-0.530096
60.867,65.9222,-0.530096
60.897,65.9291,-0.530096
60.928,65.9352,-0.530096
60.959,65.9408,-0.530096
60.990,65.9456,-0.530096
61.021,65.9497,-0.530096
61.051,65.9531,-0.530096
61.082,65.9557,-0.749264
61.112,65.9576,-0.749264
61.143,65.9589,-0.749264
61.175,65.9594,-0.749264
61.204,65.9594,-0.749264
61.234,65.9594,-0.749264
61.265,65.9594,-0.749264
61.297,65.9594,-0.749264
61.328,65.9594,-0.759117
61.358,65.9594,-0.759117
61.389,65.9594,-0.759117
61.422,65.9594,-0.759117
61.451,65.9594,-0.759117
61.482,65.9594,-0.759117
61.513,65.9594,-0.759117
61.544,65.9594,-0.759117
61.575,65.9594,-0.544429
61.607,65.9594,-0.544429
61.637,65.9594,-0.544429
61.668,65.9594,-0.544429
61.698,65.9594,-0.544429
61.729,65.9594,-0.544429
61.760,65.9594,-0.544429
61.792,65.9594,-0.544429
61.823,65.9594,-0.376782
61.854,65.9594,-0.376782
61.884,65.9594,-0.376782
61.915,65.9594,-0.376782
61.946,65.9594,-0.376782
61.978,65.9594,-0.376782
62.009,65.9594,-0.376782
62.039,65.9594,-0.376782
62.071,65.9594,-0.303372
62.103,65.9594,-0.303372
62.133,65.9594,-0.303372
62.164,65.9594,-0.303372
62.195,65.9594,-0.303372
62.226,65.9594,-0.303372
62.257,65.9594,-0.303372
62.289,65.9594,-0.303372
62.319,65.9594,-0.303372
62.351,65.9594,-0.266888
62.382,65.9594,-0.266888
62.415,65.9594,-0.266888
62.445,65.9594,-0.266888
62.474,65.9594,-0.266888
62.505,65.9594,-0.266888
62.538,65.9594,-0.266888
62.568,65.9594,-0.266888
62.601,65.9594,-0.247220
62.631,65.9594,-0.247220
62.662,65.9594,-0.247220
62.693,65.9594,-0.247220
62.723,65.9594,-0.247220
62.754,65.9594,-0.247220
62.785,65.9594,-0.247220
62.818,65.9594,-0.247220
62.847,65.9594,-0.247220
62.881,65.9594,-0.234893
62.908,65.9594,-0.234893
62.939,65.9594,-0.234893
62.970,65.9594,-0.234893
63.000,65.9594,-0.234893
63.034,65.9594,-0.234893
63.064,65.9594,-0.234893
63.095,65.9594,-0.225567
63.125,65.9594,-0.225567
63.156,65.9594,-0.225567
63.188,65.9594,-0.225567
63.220,65.9594,-0.225567
63.251,65.9594,-0.225567
63.282,65.9594,-0.225567
63.313,65.9594,-0.225567
63.344,65.9594,-0.218679
63.377,65.9594,-0.218679
63.406,65.9594,-0.218679
63.437,65.9594,-0.218679
63.468,65.9594,-0.218679
63.499,65.9594,-0.218679
63.529,65.9594,-0.218679
63.560,65.9594,-0.218679
63.591,65.9594,-0.213117
63.622,65.9594,-0.213117
63.654,65.9594,-0.213117
63.683,65.9594,-0.213117
63.714,65.9594,-0.213117
63.745,65.9594,-0.213117
63.776,65.9594,-0.213117
63.811,65.9594,-0.213117
63.838,65.9594,-0.213117
63.869,65.9594,-0.208355
63.900,65.9594,-0.208355
63.931,65.9594,-0.208355
63.961,65.9594,-0.208355
63.992,65.9594,-0.208355
64.023,65.9594,-0.208355
64.054,65.9594,-0.208355
64.085,65.9594,-0.204281
64.121,65.9594,-0.204281
64.147,65.9594,-0.204281
64.179,65.9594,-0.204281
64.210,65.9594,-0.204281
64.241,65.9594,-0.204281
64.275,65.9594,-0.204281
64.302,65.9594,-0.204281
64.333,65.9594,-0.204281
64.364,65.9594,-0.201053
64.395,65.9594,-0.201053
64.426,65.9594,-0.201053
64.456,65.9594,-0.201053
64.487,65.9594,-0.201053
64.519,65.9594,-0.201053
64.550,65.9594,-0.201053
64.581,65.9594,-0.198286
64.613,65.9594,-0.198286
64.645,65.9594,-0.198286
64.676,65.9594,-0.198286
64.707,65.9594,-0.198286
64.739,65.9594,-0.198286
64.771,65.9594,-0.198286
64.803,65.9594,-0.198286
64.834,65.9594,-0.195623
64.864,65.9594,-0.195623
64.895,65.9594,-0.195623
64.927,65.9594,-0.195623
64.958,65.9594,-0.195623
64.990,65.9594,-0.195623
65.020,65.9594,-0.195623
65.051,65.9594,-0.195623
65.082,65.9594,-0.193336
65.115,65.9594,-0.193336
65.144,65.9594,-0.193336
65.174,65.9594,-0.193336
65.205,65.9594,-0.193336
65.236,65.9594,-0.193336
65.268,65.9594,-0.193336
65.299,65.9594,-0.193336
65.329,65.9594,-0.191351
65.360,65.9594,-0.191351
65.394,65.9594,-0.191351
65.422,65.9594,-0.191351
65.454,65.9594,-0.191351
65.485,65.9594,-0.191351
65.515,65.9594,-0.191351
65.546,65.9594,-0.191351
65.577,65.9594,-0.189375
65.610,65.9594,-0.189375
65.638,65.9594,-0.189375
65.668,65.9594,-0.189375
65.699,65.9594,-0.189375
65.730,65.9594,-0.189375
65.761,65.9594,-0.189375
65.792,65.9594,-0.189375
65.824,65.9594,-0.186900
65.854,65.9594,-0.186900
65.885,65.9594,-0.186900
65.917,65.9594,-0.186900
65.948,65.9594,-0.186900
65.978,65.9594,-0.186900
66.010,65.9594,-0.186900
66.041,65.9594,-0.186900
66.073,65.9594,-0.186900
66.105,65.9594,-0.183587
66.136,65.9594,-0.183587
66.168,65.9594,-0.183587
66.198,65.9594,-0.183587
66.229,65.9590,-0.183587
66.260,65.9580,-0.183587
66.291,65.9562,-0.183587
66.322,65.9537,-0.178374
66.355,65.9503,-0.178374
66.385,65.9464,-0.178374
66.416,65.9415,-0.178374
66.447,65.9362,-0.178374
66.478,65.9299,-0.178374
66.509,65.9229,-0.178374
66.540,65.9154,-0.178374
66.567,65.9084,-0.178374
66.603,65.8977,0.213051
66.634,65.8881,0.213051
66.666,65.8772,0.213051
66.696,65.8661,0.213051
66.727,65.8538,0.213051
66.757,65.8413,0.213051
66.789,65.8279,0.213051
66.820,65.8134,0.213051
66.851,65.7988,0.323746
66.882,65.7829,0.323746
66.913,65.7664,0.323746
66.944,65.7494,0.323746
66.976,65.7311,0.323746
67.007,65.7125,0.323746
67.038,65.6932,0.323746
67.069,65.6730,0.323746
67.101,65.6518,0.323746
67.132,65.6304,0.038733
67.163,65.6079,0.038733
67.193,65.5861,0.038733
67.224,65.5619,0.038733
67.256,65.5372,0.038733
67.286,65.5129,0.038733
67.317,65.4870,0.038733
67.347,65.4614,0.041123
67.377,65.4339,0.041123
67.408,65.4069,0.041123
67.439,65.3772,0.041123
67.471,65.3478,0.041123
67.501,65.3176,0.041123
67.533,65.2866,0.041123
67.564,65.2539,0.041123
67.596,65.2217,0.041123
67.627,65.1885,0.059812
67.657,65.1552,0.059812
67.689,65.1197,0.059812
67.719,65.0854,0.059812
67.749,65.0504,0.059812
67.780,65.0138,0.059812
67.812,64.9754,0.059812
67.842,64.9373,0.073081
67.874,64.8975,0.073081
67.905,64.8582,0.073081
67.936,64.8177,0.073081
67.967,64.7772,0.073081
67.999,64.7337,0.073081
68.029,64.6925,0.073081
68.060,64.6501,0.073081
68.090,64.6065,0.079273
68.121,64.5619,0.079273
68.153,64.5160,0.079273
68.184,64.4694,0.079273
68.215,64.4216,0.079273
68.245,64.3746,0.079273
68.277,64.3264,0.079273
68.308,64.2763,0.079273
68.339,64.2274,0.081419
68.369,64.1785,0.081419
68.399,64.1271,0.081419
68.431,64.0752,0.081419
68.462,64.0211,0.081419
68.493,63.9682,0.081419
68.524,63.9134,0.081419
68.555,63.8581,0.081419
68.586,63.8020,0.083527
68.618,63.7457,0.083527
68.650,63.6862,0.083527
68.681,63.6286,0.083527
68.712,63.5708,0.083527
68.741,63.5135,0.083527
68.772,63.4544,0.083527
68.804,63.3922,0.083527
68.834,63.3353,0.093295
68.866,63.2738,0.093295
68.896,63.2169,0.093295
68.928,63.1589,0.093295
68.959,63.1008,0.093295
68.991,63.0435,0.093295
69.021,62.9880,0.093295
69.052,62.9359,0.093295
69.082,62.8826,0.112605
69.114,62.8269,0.112605
69.145,62.7763,0.112605
69.176,62.7240,0.112605
69.206,62.6741,0.112605
69.238,62.6223,0.112605
69.269,62.5737,0.112605
69.299,62.5249,0.112605
69.331,62.4766,0.130437
69.361,62.4296,0.130437
69.393,62.3828,0.130437
69.423,62.3362,0.130437
69.454,62.2925,0.130437
69.485,62.2477,0.130437
69.515,62.2049,0.130437
69.546,62.1615,0.130437
69.577,62.1191,0.104502
69.609,62.0772,0.104502
69.640,62.0359,0.104502
69.671,61.9952,0.104502
69.703,61.9550,0.104502
69.733,61.9186,0.104502
69.763,61.8790,0.104502
69.795,61.8428,0.104502
69.826,61.8061,0.045763
69.856,61.7716,0.045763
69.887,61.7366,0.045763
69.918,61.7025,0.045763
69.949,61.6684,0.045763
69.982,61.6342,0.045763
70.012,61.6023,0.045763
70.045,61.5691,0.045763
70.073,61.5417,0.018397
70.104,61.5119,0.018397
70.135,61.4824,0.018397
70.167,61.4529,0.018397
70.198,61.4247,0.018397
70.229,61.3981,0.018397
70.260,61.3718,0.018397
70.291,61.3462,0.018397
70.322,61.3215,0.018397
70.353,61.2976,0.016525
70.383,61.2748,0.016525
70.414,61.2524,0.016525
70.444,61.2307,0.016525
70.476,61.2089,0.016525
70.507,61.1877,0.016525
70.539,61.1682,0.016525
70.570,61.1488,0.015612
70.601,61.1308,0.015612
70.633,61.1124,0.015612
70.662,61.0962,0.015612
70.693,61.0803,0.015612
70.725,61.0646,0.015612
70.755,61.0502,0.015612
70.786,61.0365,0.015612
70.817,61.0229,0.015000
70.848,61.0106,0.015000
70.884,60.9972,0.015000
70.910,60.9877,0.015000
70.941,60.9774,0.015000
70.971,60.9683,0.015000
71.003,60.9590,0.015000
71.034,60.9509,0.015000
71.065,60.9434,0.015000
71.095,60.9371,0.014643
71.126,60.9311,0.014643
71.157,60.9259,0.014643
71.188,60.9213,0.014643
71.219,60.9173,0.014643
71.251,60.9144,0.014643
71.282,60.9120,0.014643
71.313,60.9104,0.014643
71.344,60.9095,0.014323
71.376,60.9094,0.014323
71.406,60.9094,0.014323
71.437,60.9094,0.014323
71.469,60.9094,0.014323
71.500,60.9094,0.014323
71.531,60.9099,0.014323
71.563,60.9110,0.014323
71.594,60.9129,0.014323
71.625,60.9156,0.014247
71.655,60.9188,0.014247
71.686,60.9229,0.014247
71.718,60.9280,0.014247
71.749,60.9335,0.014247
71.782,60.9400,0.014247
71.812,60.9471,0.014247
71.843,60.9547,0.014247
71.874,60.9631,0.014087
71.904,60.9722,0.014087
71.935,60.9817,0.014087
71.965,60.9924,0.014087
71.995,61.0030,0.014087
72.025,61.0149,0.014087
72.056,61.0278,0.014087
72.087,61.0411,0.013796
72.118,61.0552,0.013796
72.148,61.0703,0.013796
72.179,61.0853,0.013796
72.212,61.1028,0.013796
72.242,61.1196,0.013796
72.273,61.1375,0.013796
72.305,61.1568,0.013796
72.336,61.1759,0.013796
72.367,61.1956,0.013645
72.398,61.2164,0.013645
72.428,61.2374,0.013645
72.460,61.2603,0.013645
72.491,61.2835,0.013645
72.523,61.3076,0.013645
72.554,61.3321,0.013645
72.586,61.3581,0.013645
72.617,61.3837,0.013335
72.647,61.4093,0.013335
72.676,61.4359,0.013335
72.708,61.4645,0.013335
72.739,61.4931,0.013335
72.770,61.5229,0.013335
72.801,61.5530,0.013335
72.844,61.5961,0.013335
72.879,61.6315,0.012883
72.910,61.6654,0.012883
72.941,61.6983,0.012883
72.972,61.7322,0.012883
73.004,61.7689,0.012883
73.036,61.8056,0.012883
73.071,61.8469,0.012883
73.099,61.8799,0.012224
73.129,61.9185,0.012224
73.160,61.9562,0.012224
73.193,61.9975,0.012224
73.222,62.0366,0.012224
73.254,62.0784,0.012224
73.286,62.1200,0.012224
73.315,62.1612,0.012224
73.346,62.2025,0.011161
73.377,62.2481,0.011161
73.409,62.2924,0.011161
73.439,62.3367,0.011161
73.470,62.3829,0.011161
73.500,62.4277,0.011161
73.532,62.4778,0.011161
73.563,62.5247,0.011161
73.598,62.5799,0.011161
73.624,62.6227,0.009392
73.655,62.6724,0.009392
73.686,62.7240,0.009392
73.717,62.7738,0.009392
73.747,62.8258,0.009392
73.778,62.8774,0.009392
73.809,62.9323,0.009392
73.841,62.9893,0.006663
73.872,63.0441,0.006663
73.904,63.1013,0.006663
73.934,63.1577,0.006663
73.965,63.2141,0.006663
73.996,63.2728,0.006663
74.027,63.3329,0.006663
74.058,63.3915,0.006663
74.089,63.4530,0.006663
74.121,63.5129,0.002136
74.151,63.5717,0.002136
74.182,63.6275,0.002136
74.212,63.6852,0.002136
74.246,63.7447,0.002136
74.274,63.7969,0.002136
74.305,63.8502,0.002136
74.336,63.9069,-0.005477
74.368,63.9606,-0.005477
74.398,64.0111,-0.005477
74.429,64.0631,-0.005477
74.461,64.1184,-0.005477
74.491,64.1666,-0.005477
74.529,64.2274,-0.005477
74.569,64.2910,-0.016910
74.600,64.3380,-0.016910
74.630,64.3864,-0.016910
74.662,64.4329,-0.016910
74.693,64.4794,-0.016910
74.723,64.5224,-0.016910
74.754,64.5672,-0.016910
74.786,64.6116,-0.016910
74.816,64.6544,-0.016910
74.847,64.6957,-0.033030
74.877,64.7358,-0.033030
74.907,64.7773,-0.033030
74.939,64.8179,-0.033030
74.969,64.8566,-0.033030
75.001,64.8961,-0.033030
75.032,64.9343,-0.033030
75.063,64.9715,-0.033030
75.094,65.0080,-0.055869
75.124,65.0430,-0.055869
75.159,65.0824,-0.055869
75.191,65.1185,-0.055869
75.233,65.1627,-0.055869
75.262,65.1940,-0.055869
75.293,65.2257,-0.055869
75.324,65.2572,-0.055869
75.354,65.2862,-0.087789
75.386,65.3163,-0.087789
75.417,65.3460,-0.087789
75.448,65.3744,-0.087789
75.479,65.4020,-0.087789
75.510,65.4288,-0.087789
75.543,65.4558,-0.087789
75.573,65.4805,-0.132658
75.606,65.5078,-0.132658
75.634,65.5284,-0.132658
75.665,65.5515,-0.132658
75.696,65.5740,-0.132658
75.727,65.5959,-0.132658
75.758,65.6170,-0.132658
75.793,65.6399,-0.132658
75.821,65.6570,-0.132658
75.852,65.6759,-0.213672
75.883,65.6943,-0.213672
75.915,65.7117,-0.213672
75.946,65.7286,-0.213672
75.977,65.7442,-0.213672
76.007,65.7591,-0.213672
76.039,65.7738,-0.213672
76.071,65.7877,-0.358686
76.102,65.8008,-0.358686
76.134,65.8135,-0.358686
76.164,65.8244,-0.358686
76.194,65.8350,-0.358686
76.225,65.8450,-0.358686
76.257,65.8545,-0.358686
76.288,65.8631,-0.358686
76.319,65.8711,-0.358686
76.349,65.8780,-0.565320
76.380,65.8844,-0.565320
76.412,65.8899,-0.565320
76.444,65.8953,-0.565320
76.473,65.8991,-0.565320
76.504,65.9026,-0.565320
76.536,65.9054,-0.565320
76.567,65.9074,-0.565320
76.597,65.9087,-0.766881
76.628,65.9093,-0.766881
76.659,65.9093,-0.766881
76.691,65.9093,-0.766881
76.722,65.9093,-0.766881
76.753,65.9093,-0.766881
76.783,65.9093,-0.766881
76.815,65.9093,-0.766881
76.846,65.9093,-0.723734
76.876,65.9093,-0.723734
76.908,65.9093,-0.723734
76.939,65.9093,-0.723734
76.970,65.9093,-0.723734
77.004,65.9093,-0.723734
77.032,65.9093,-0.723734
77.064,65.9093,-0.723734
77.096,65.9093,-0.496953
77.126,65.9093,-0.496953
77.158,65.9093,-0.496953
77.190,65.9093,-0.496953
77.220,65.9093,-0.496953
77.251,65.9093,-0.496953
77.281,65.9093,-0.496953
77.312,65.9093,-0.496953
77.343,65.9093,-0.358338
77.374,65.9093,-0.358338
77.404,65.9093,-0.358338
77.435,65.9093,-0.358338
77.466,65.9093,-0.358338
77.497,65.9093,-0.358338
77.528,65.9093,-0.358338
77.558,65.9093,-0.358338
77.590,65.9093,-0.297284
77.620,65.9093,-0.297284
77.652,65.9093,-0.297284
77.683,65.9093,-0.297284
77.714,65.9093,-0.297284
77.744,65.9093,-0.297284
77.775,65.9093,-0.297284
77.807,65.9093,-0.297284
77.837,65.9093,-0.297284
77.868,65.9093,-0.297284
77.900,65.9093,-0.265749
77.930,65.9093,-0.265749
77.961,65.9093,-0.265749
77.992,65.9093,-0.265749
78.023,65.9093,-0.265749
78.053,65.9093,-0.265749
78.083,65.9093,-0.265749
78.115,65.9093,-0.246929
78.146,65.9093,-0.246929
78.177,65.9093,-0.246929
78.208,65.9093,-0.246929
78.240,65.9093,-0.246929
78.272,65.9093,-0.246929
78.304,65.9093,-0.246929
78.335,65.9093,-0.246929
78.366,65.9093,-0.233603
78.397,65.9093,-0.233603
78.428,65.9093,-0.233603
78.458,65.9093,-0.233603
78.489,65.9093,-0.233603
78.520,65.9093,-0.233603
78.551,65.9093,-0.233603
78.583,65.9093,-0.233603
78.613,65.9093,-0.224325
78.644,65.9093,-0.224325
78.674,65.9093,-0.224325
78.706,65.9093,-0.224325
78.739,65.9093,-0.224325
78.768,65.9093,-0.224325
78.800,65.9093,-0.224325
78.831,65.9093,-0.217455
78.861,65.9093,-0.217455
78.892,65.9093,-0.217455
78.923,65.9093,-0.217455
78.954,65.9093,-0.217455
78.990,65.9093,-0.217455
79.016,65.9093,-0.217455
79.047,65.9093,-0.217455
79.078,65.9093,-0.217455
79.109,65.9093,-0.211743
79.141,65.9093,-0.211743
79.173,65.9093,-0.211743
79.202,65.9093,-0.211743
79.233,65.9093,-0.211743
79.265,65.9093,-0.211743
79.294,65.9093,-0.211743
79.326,65.9093,-0.211743
79.357,65.9093,-0.206916
79.388,65.9093,-0.206916
79.419,65.9093,-0.206916
79.451,65.9093,-0.206916
79.482,65.9093,-0.206916
79.514,65.9093,-0.206916
79.544,65.9093,-0.206916
79.575,65.9093,-0.206916
79.606,65.9093,-0.203170
79.637,65.9093,-0.203170
79.668,65.9093,-0.203170
79.699,65.9093,-0.203170
79.729,65.9093,-0.203170
79.762,65.9093,-0.203170
79.791,65.9093,-0.203170
79.823,65.9093,-0.203170
79.854,65.9093,-0.199792
79.884,65.9093,-0.199792
79.915,65.9093,-0.199792
79.947,65.9093,-0.199792
79.977,65.9093,-0.199792
80.007,65.9093,-0.199792
80.039,65.9093,-0.199792
80.070,65.9093,-0.199792
80.101,65.9093,-0.196922
80.132,65.9093,-0.196922
80.163,65.9093,-0.196922
80.194,65.9093,-0.196922
80.225,65.9093,-0.196922
80.257,65.9093,-0.196922
80.289,65.9093,-0.196922
80.319,65.9093,-0.196922
80.351,65.9093,-0.194268
80.382,65.9093,-0.194268
80.412,65.9093,-0.194268
80.444,65.9093,-0.194268
80.475,65.9093,-0.194268
80.507,65.9093,-0.194268
80.537,65.9093,-0.194268
80.568,65.9093,-0.194268
80.598,65.9093,-0.194268
80.629,65.9093,-0.191097
80.661,65.9093,-0.191097
80.693,65.9093,-0.191097
80.723,65.9093,-0.191097
80.754,65.9093,-0.191097
80.784,65.9093,-0.191097
80.817,65.9093,-0.191097
80.847,65.9093,-0.187380
80.879,65.9093,-0.187380
80.909,65.9093,-0.187380
80.939,65.9093,-0.187380
80.970,65.9093,-0.187380
81.001,65.9088,-0.187380
81.035,65.9074,-0.187380
81.063,65.9056,-0.187380
81.094,65.9030,-0.182966
81.125,65.8995,-0.182966
81.155,65.8954,-0.182966
81.186,65.8906,-0.182966
81.218,65.8850,-0.182966
81.249,65.8784,-0.182966
81.280,65.8716,-0.182966
81.312,65.8634,-0.182966
81.342,65.8552,-0.182966
81.373,65.8458,0.098263
81.403,65.8361,0.098263
81.434,65.8258,0.098263
81.465,65.8143,0.098263
81.498,65.8010,0.098263
81.528,65.7891,0.098263
81.558,65.7756,0.098263
81.589,65.7614,0.098263
81.619,65.7469,0.217098
81.650,65.7311,0.217098
81.681,65.7147,0.217098
81.712,65.6974,0.217098
81.743,65.6797,0.217098
81.774,65.6609,0.217098
81.805,65.6415,0.217098
81.835,65.6217,0.043100
81.867,65.6012,0.043100
81.898,65.5794,0.043100
81.929,65.5563,0.043100
81.960,65.5337,0.043100
81.992,65.5092,0.043100
82.022,65.4856,0.043100
82.053,65.4604,0.043100
82.085,65.4338,0.038724
82.115,65.4079,0.038724
82.146,65.3803,0.038724
82.177,65.3523,0.038724
82.215,65.3171,0.038724
82.255,65.2792,0.038724
82.285,65.2486,0.038724
82.319,65.2143,0.038724
82.347,65.1857,0.038724
82.380,65.1496,0.057686
82.408,65.1192,0.057686
82.440,65.0851,0.057686
82.472,65.0493,0.057686
82.503,65.0133,0.057686
82.535,64.9759,0.057686
82.566,64.9378,0.057686
82.596,64.9007,0.071886
82.627,64.8625,0.071886
82.660,64.8215,0.071886
82.690,64.7814,0.071886
82.721,64.7412,0.071886
82.752,64.6996,0.071886
82.783,64.6574,0.071886
82.814,64.6150,0.071886
82.845,64.5709,0.078680
82.876,64.5259,0.078680
82.907,64.4809,0.078680
82.938,64.4350,0.078680
82.968,64.3889,0.078680
83.000,64.3414,0.078680
83.031,64.2921,0.078680
83.062,64.2438,0.078680
83.094,64.1937,0.078680
83.124,64.1447,0.080958
83.155,64.0931,0.080958
83.186,64.0415,0.080958
83.217,63.9880,0.080958
83.248,63.9345,0.080958
83.279,63.8810,0.080958
83.309,63.8248,0.080958
83.340,63.7724,0.082727
83.371,63.7162,0.082727
83.405,63.6538,0.082727
83.433,63.6021,0.082727
83.465,63.5423,0.082727
83.496,63.4839,0.082727
83.528,63.4215,0.082727
83.559,63.3618,0.082727
83.589,63.3029,0.091958
83.620,63.2440,0.091958
83.650,63.1863,0.091958
83.682,63.1277,0.091958
83.713,63.0700,0.091958
83.743,63.0141,0.091958
83.774,62.9595,0.091958
83.805,62.9046,0.091958
83.837,62.8500,0.110845
83.868,62.7965,0.110845
83.898,62.7447,0.110845
83.929,62.6920,0.110845
83.960,62.6418,0.110845
83.991,62.5912,0.110845
84.021,62.5422,0.110845
84.054,62.4898,0.110845
84.085,62.4422,0.129637
84.117,62.3930,0.129637
84.147,62.3468,0.129637
84.177,62.3022,0.129637
84.209,62.2562,0.129637
84.240,62.2118,0.129637
84.271,62.1679,0.129637
84.302,62.1228,0.129637
84.333,62.0818,0.111250
84.365,62.0384,0.111250
84.395,61.9991,0.111250
84.426,61.9574,0.111250
84.457,61.9186,0.111250
84.488,61.8794,0.111250
84.519,61.8417,0.111250
84.550,61.8042,0.111250
84.581,61.7674,0.052604
84.614,61.7292,0.052604
84.644,61.6958,0.052604
84.674,61.6612,0.052604
84.705,61.6272,0.052604
84.736,61.5940,0.052604
84.767,61.5626,0.052604
84.798,61.5300,0.052604
84.830,61.4986,0.018698
84.861,61.4684,0.018698
84.892,61.4395,0.018698
84.923,61.4109,0.018698
84.954,61.3832,0.018698
84.985,61.3558,0.018698
85.015,61.3298,0.018698
85.046,61.3035,0.018698
85.078,61.2782,0.016656
85.110,61.2528,0.016656
85.141,61.2295,0.016656
85.172,61.2062,0.016656
85.203,61.1845,0.016656
85.234,61.1629,0.016656
85.264,61.1432,0.016656
85.296,61.1225,0.016656
85.327,61.1031,0.015697
85.358,61.0846,0.015697
85.389,61.0672,0.015697
85.420,61.0503,0.015697
85.451,61.0339,0.015697
85.482,61.0179,0.015697
85.513,61.0037,0.015697
85.544,60.9893,0.015697
85.575,60.9761,0.015113
85.606,60.9630,0.015113
85.637,60.9513,0.015113
85.669,60.9395,0.015113
85.700,60.9294,0.015113
85.734,60.9186,0.015113
85.761,60.9106,0.015113
85.794,60.9022,0.015113
85.824,60.8948,0.014727
85.854,60.8882,0.014727
85.885,60.8820,0.014727
85.917,60.8765,0.014727
85.947,60.8719,0.014727
85.978,60.8680,0.014727
86.010,60.8647,0.014727
86.040,60.8623,0.014727
86.072,60.8605,0.014727
86.102,60.8595,0.014464
86.133,60.8593,0.014464
86.164,60.8593,0.014464
86.195,60.8593,0.014464
86.226,60.8593,0.014464
86.257,60.8597,0.014464
86.289,60.8608,0.014464
86.320,60.8626,0.014464
86.351,60.8651,0.014323
86.381,60.8685,0.014323
86.412,60.8723,0.014323
86.442,60.8770,0.014323
86.473,60.8825,0.014323
86.506,60.8889,0.014323
86.536,60.8958,0.014323
86.567,60.9033,0.014323
86.597,60.9115,0.014323
86.629,60.9208,0.014050
86.660,60.9306,0.014050
86.691,60.9415,0.014050
86.723,60.9527,0.014050
86.756,60.9658,0.014050
86.784,60.9772,0.014050
86.815,60.9909,0.014050
86.845,61.0046,0.013824
86.876,61.0195,0.013824
86.906,61.0343,0.013824
86.937,61.0507,0.013824
86.967,61.0673,0.013824
87.003,61.0884,0.013824
87.029,61.1039,0.013824
87.061,61.1237,0.013824
87.092,61.1436,0.013664
87.123,61.1643,0.013664
87.154,61.1852,0.013664
87.185,61.2078,0.013664
87.216,61.2301,0.013664
87.247,61.2546,0.013664
87.278,61.2785,0.013664
87.309,61.3038,0.013664
87.339,61.3283,0.013438
87.371,61.3556,0.013438
87.401,61.3822,0.013438
87.433,61.4124,0.013438
87.463,61.4389,0.013438
87.496,61.4695,0.013438
87.526,61.4990,0.013438
87.556,61.5295,0.013438
87.587,61.5609,0.013024
87.619,61.5940,0.013024
87.649,61.6267,0.013024
87.680,61.6599,0.013024
87.711,61.6942,0.013024
87.742,61.7297,0.013024
87.773,61.7654,0.013024
87.805,61.8036,0.013024
87.835,61.8396,0.012243
87.867,61.8791,0.012243
87.897,61.9163,0.012243
87.928,61.9574,0.012243
87.960,61.9978,0.012243
87.991,62.0395,0.012243
88.022,62.0806,0.012243
88.053,62.1231,0.012243
88.084,62.1661,0.011085
88.116,62.2126,0.011085
88.147,62.2559,0.011085
88.178,62.3032,0.011085
88.209,62.3477,0.011085
88.240,62.3945,0.011085
88.270,62.4405,0.011085
88.302,62.4902,0.011085
88.333,62.5408,0.009241
88.364,62.5913,0.009241
88.395,62.6418,0.009241
88.426,62.6917,0.009241
88.458,62.7456,0.009241
88.491,62.8011,0.009241
88.520,62.8531,0.009241
88.551,62.9064,0.009241
88.582,62.9611,0.006446
88.613,63.0172,0.006446
88.645,63.0756,0.006446
88.676,63.1329,0.006446
88.707,63.1914,0.006446
88.738,63.2482,0.006446
88.769,63.3074,0.006446
88.800,63.3670,0.006446
88.831,63.4263,0.001760
88.862,63.4873,0.001760
88.893,63.5444,0.001760
88.925,63.6034,0.001760
88.955,63.6609,0.001760
88.987,63.7170,0.001760
89.018,63.7736,0.001760
89.049,63.8282,0.001760
89.079,63.8803,0.001760
89.110,63.9338,-0.006154
89.141,63.9856,-0.006154
89.172,64.0369,-0.006154
89.203,64.0895,-0.006154
89.234,64.1397,-0.006154
89.266,64.1912,-0.006154
89.296,64.2381,-0.006154
89.325,64.2822,-0.006154
89.359,64.3346,-0.018002
89.391,64.3828,-0.018002
89.421,64.4277,-0.018002
89.452,64.4741,-0.018002
89.486,64.5222,-0.018002
89.514,64.5605,-0.018002
89.545,64.6044,-0.018002
89.576,64.6478,-0.034724
89.611,64.6937,-0.034724
89.639,64.7319,-0.034724
89.671,64.7720,-0.034724
89.701,64.8104,-0.034724
89.735,64.8525,-0.034724
89.764,64.8879,-0.034724
89.794,64.9248,-0.034724
89.825,64.9614,-0.034724
89.856,64.9957,-0.058457
89.888,65.0324,-0.058457
89.918,65.0660,-0.058457
89.949,65.0989,-0.058457
89.980,65.1329,-0.058457
90.012,65.1651,-0.058457
90.043,65.1978,-0.058457
90.074,65.2276,-0.058457
90.105,65.2578,-0.091328
90.136,65.2864,-0.091328
90.166,65.3145,-0.091328
90.198,65.3430,-0.091328
90.228,65.3698,-0.091328
90.263,65.3997,-0.091328
90.291,65.4225,-0.091328
90.324,65.4483,-0.091328
90.355,65.4718,-0.138041
90.392,65.5002,-0.138041
90.433,65.5298,-0.138041
90.463,65.5510,-0.138041
90.495,65.5722,-0.138041
90.525,65.5914,-0.138041
90.557,65.6121,-0.138041
90.587,65.6302,-0.224155
90.619,65.6481,-0.224155
90.650,65.6654,-0.224155
90.681,65.6819,-0.224155
90.711,65.6970,-0.224155
90.743,65.7121,-0.224155
90.773,65.7263,-0.224155
90.805,65.7404,-0.224155
90.836,65.7529,-0.224155
90.867,65.7652,-0.375747
90.898,65.7763,-0.375747
90.930,65.7872,-0.375747
90.959,65.7968,-0.375747
90.991,65.8062,-0.375747
91.022,65.8145,-0.375747
91.055,65.8227,-0.375747
91.085,65.8293,-0.587679
91.115,65.8355,-0.587679
91.146,65.8408,-0.587679
91.176,65.8457,-0.587679
91.208,65.8499,-0.587679
91.240,65.8532,-0.587679
91.271,65.8559,-0.587679
91.301,65.8577,-0.587679
91.333,65.8589,-0.778587
91.363,65.8593,-0.778587
91.394,65.8593,-0.778587
91.424,65.8593,-0.778587
91.455,65.8593,-0.778587
91.486,65.8593,-0.778587
