Elapsed Time (s),Position (mm),Force (N)
-0.012,66.6000,-0.026586
0.019,66.6000,-0.024169
0.049,66.6000,-0.027794
0.081,66.6000,-0.027794
0.112,66.6000,-0.025377
0.143,66.6000,-0.024169
0.175,66.6000,-0.029003
0.205,66.6000,-0.030211
0.237,66.6000,-0.030211
0.268,66.6000,-0.031420
0.298,66.6000,-0.026586
0.318,66.6000,-0.026586
0.344,66.6000,-0.029003
0.377,66.6000,-0.029003
0.407,66.6000,-0.027794
0.439,66.6000,-0.026586
0.470,66.6000,-0.022961
0.502,66.6000,-0.025377
0.532,66.6000,-0.027794
0.564,66.6000,-0.021752
0.595,66.6000,-0.022961
0.627,66.6000,-0.022961
0.660,66.6000,-0.020544
0.689,66.6000,-0.021752
0.721,66.6000,-0.025377
0.751,66.6000,-0.024169
0.782,66.6000,-0.022961
0.814,66.6000,-0.026586
0.845,66.6000,-0.025377
0.876,66.6000,-0.025377
0.907,66.6000,-0.024169
0.938,66.6000,-0.021752
0.958,66.6000,-0.021752
0.984,66.6000,-0.026586
1.016,66.6000,-0.029003
1.045,66.6000,-0.026586
1.077,66.6000,-0.022961
1.107,66.6000,-0.022961
1.139,66.6000,-0.024169
1.171,66.6000,-0.022961
1.202,66.6000,-0.025377
1.233,66.6000,-0.027794
1.264,66.6000,-0.021752
1.295,66.6000,-0.021752
1.326,66.6000,-0.025377
1.358,66.6000,-0.024169
1.389,66.6000,-0.026586
1.422,66.6000,-0.022961
1.452,66.6000,-0.025377
1.483,66.6000,-0.019335
1.514,66.6000,-0.018127
1.535,66.6000,-0.024169
1.560,66.6000,-0.024169
1.590,66.6000,-0.022961
1.621,66.6000,-0.021752
1.652,66.6000,-0.021752
1.683,66.6000,-0.021752
1.714,66.6000,-0.020544
1.745,66.6000,-0.024169
1.778,66.6000,-0.021752
1.809,66.6000,-0.024169
1.830,66.6000,-0.024169
1.854,66.6000,-0.021752
1.886,66.6000,-0.014501
1.916,66.6000,-0.024169
1.949,66.6000,-0.025377
1.978,66.6000,-0.018127
2.010,66.6000,-0.020544
2.041,66.6000,-0.024169
2.072,66.6000,-0.026586
2.103,66.6000,-0.025377
2.134,66.6000,-0.024169
2.165,66.6000,-0.019335
2.197,66.6000,-0.020544
2.229,66.6000,-0.021752
2.259,66.6000,-0.019335
2.281,66.6000,-0.020544
2.305,66.6000,-0.018127
2.328,66.6000,-0.021752
2.353,66.6000,-0.022961
2.382,66.6000,-0.020544
2.413,66.6000,-0.024169
2.444,66.6000,-0.024169
2.465,66.6000,-0.021752
2.490,66.6000,-0.025377
2.521,66.6000,-0.020544
2.551,66.6000,-0.024169
2.581,66.6000,-0.022961
2.612,66.6000,-0.022961
2.643,66.6000,-0.021752
2.673,66.6000,-0.021752
2.706,66.6000,-0.020544
2.735,66.6000,-0.020544
2.766,66.6000,-0.022961
2.798,66.6000,-0.022961
2.829,66.6000,-0.026586
2.860,66.6000,-0.021752
2.881,66.6000,-0.021752
2.908,66.6000,-0.021752
2.929,66.6000,-0.021752
2.953,66.6000,-0.024169
2.984,66.6000,-0.019335
3.015,66.6000,-0.020544
3.050,66.6000,-0.020544
3.077,66.6000,-0.021752
3.108,66.6000,-0.024169
3.138,66.6000,-0.024169
3.169,66.6000,-0.020544
3.201,66.6000,-0.022961
3.232,66.6000,-0.025377
3.263,66.6000,-0.022961
3.295,66.6000,-0.024169
3.327,66.6000,-0.018127
3.358,66.6000,-0.021752
3.389,66.6000,-0.020544
3.421,66.6000,-0.019335
3.453,66.6000,-0.021752
3.484,66.6000,-0.020544
3.504,66.6000,-0.020544
3.531,66.6000,-0.020544
3.561,66.6000,-0.019335
3.591,66.6000,-0.021752
3.622,66.6000,-0.019335
3.653,66.6000,-0.022961
3.683,66.6000,-0.024169
3.715,66.6000,-0.022961
3.746,66.6000,-0.020544
3.781,66.6000,-0.020544
3.808,66.6000,-0.022961
3.840,66.6000,-0.021752
3.871,66.6000,-0.021752
3.902,66.6000,-0.024169
3.933,66.6000,-0.024169
3.967,66.6000,-0.024169
3.994,66.6000,-0.025377
4.015,66.6000,-0.025377
4.040,66.6000,-0.021752
4.071,66.6000,-0.022961
4.102,66.6000,-0.019335
4.133,66.6000,-0.019335
4.164,66.6000,-0.016918
4.195,66.6000,-0.022961
4.226,66.6000,-0.021752
4.257,66.6000,-0.024169
4.289,66.6000,-0.020544
4.319,66.6000,-0.019335
4.351,66.6000,-0.022961
4.382,66.6000,-0.024169
4.413,66.6000,-0.014501
4.444,66.6000,-0.018127
4.474,66.6000,-0.021752
4.495,66.6000,-0.022961
4.521,66.6000,-0.019335
4.551,66.6000,-0.020544
4.582,66.6000,-0.022961
4.612,66.6000,-0.020544
4.644,66.6000,-0.019335
4.674,66.6000,-0.019335
4.706,66.6000,-0.020544
4.737,66.6000,-0.021752
4.768,66.6000,-0.022961
4.800,66.6000,-0.022961
4.831,66.6000,-0.020544
4.863,66.6000,-0.025377
4.894,66.6000,-0.020544
4.925,66.6000,-0.021752
4.956,66.6000,-0.021752
4.988,66.6000,-0.020544
5.019,66.6000,-0.020544
5.049,66.6000,-0.019335
5.070,66.6000,-0.020544
5.098,66.6000,-0.020544
5.119,66.6000,-0.019335
5.144,66.6000,-0.021752
5.177,66.6000,-0.024169
5.199,66.6000,-0.021752
5.224,66.6000,-0.019335
5.253,66.6000,-0.018127
5.284,66.6000,-0.019335
5.316,66.6000,-0.021752
5.347,66.6000,-0.020544
5.378,66.6000,-0.018127
5.408,66.6000,-0.021752
5.439,66.6000,-0.025377
5.470,66.6000,-0.019335
5.501,66.6000,-0.021752
5.521,66.6000,-0.021752
5.547,66.6000,-0.021752
5.578,66.6000,-0.018127
5.609,66.6000,-0.019335
5.630,66.6000,-0.024169
5.655,66.6000,-0.024169
5.686,66.6000,-0.021752
5.717,66.6000,-0.020544
5.749,66.6000,-0.019335
5.780,66.6000,-0.021752
5.811,66.6000,-0.021752
5.841,66.6000,-0.021752
5.872,66.6000,-0.021752
5.903,66.6000,-0.020544
5.934,66.6000,-0.019335
5.966,66.6000,-0.018127
5.996,66.6000,-0.019335
6.028,66.6000,-0.016918
6.060,66.6000,-0.016918
6.090,66.6000,-0.019335
6.110,66.6000,-0.019335
6.136,66.6000,-0.019335
6.168,66.6000,-0.019335
6.190,66.6000,-0.019335
6.214,66.6000,-0.020544
6.246,66.6000,-0.019335
6.277,66.6000,-0.015710
6.308,66.6000,-0.021752
6.339,66.6000,-0.021752
6.370,66.6000,-0.022961
6.401,66.6000,-0.019335
6.433,66.6000,-0.019335
6.463,66.6000,-0.020544
6.494,66.6000,-0.016918
6.526,66.6000,-0.019335
6.557,66.6000,-0.020544
6.588,66.6000,-0.016918
6.620,66.6000,-0.016918
6.650,66.6000,-0.020544
6.681,66.6000,-0.019335
6.702,66.6000,-0.020544
6.728,66.6000,-0.021752
6.758,66.6000,-0.018127
6.788,66.6000,-0.025377
6.820,66.6000,-0.019335
6.851,66.6000,-0.014501
6.883,66.6000,-0.019335
6.914,66.6000,-0.022961
6.946,66.6000,-0.019335
6.977,66.6000,-0.015710
7.009,66.6000,-0.020544
7.041,66.6000,-0.019335
7.072,66.6000,-0.016918
7.103,66.6000,-0.013293
7.133,66.6000,-0.021752
7.165,66.6000,-0.019335
7.196,66.6000,-0.020544
7.226,66.6000,-0.021752
7.258,66.6000,-0.024169
7.278,66.6000,-0.025377
7.304,66.6000,-0.020544
7.336,66.6000,-0.021752
7.358,66.6000,-0.021752
7.381,66.6000,-0.020544
7.413,66.6000,-0.018127
7.443,66.6000,-0.021752
7.474,66.6000,-0.024169
7.508,66.6000,-0.025377
7.536,66.6000,-0.022961
7.567,66.6000,-0.018127
7.598,66.6000,-0.018127
7.630,66.6000,-0.021752
7.660,66.6000,-0.016918
7.692,66.6000,-0.021752
7.723,66.6000,-0.025377
7.754,66.6000,-0.016918
7.786,66.6000,-0.024169
7.818,66.6000,-0.024169
7.852,66.6000,-0.019335
7.880,66.6000,-0.019335
7.912,66.6000,-0.018127
7.943,66.6000,-0.020544
7.974,66.6000,-0.016918
8.005,66.6000,-0.015710
8.036,66.6000,-0.018127
8.067,66.6000,-0.021752
8.097,66.6000,-0.016918
8.129,66.6000,-0.019335
8.159,66.6000,-0.019335
8.190,66.6000,-0.019335
8.221,66.6000,-0.015710
8.253,66.6000,-0.022961
8.283,66.6000,-0.022961
8.315,66.6000,-0.018127
8.346,66.6000,-0.018127
8.377,66.6000,-0.018127
8.409,66.6000,-0.019335
8.441,66.6000,-0.015710
8.471,66.6000,-0.021752
8.502,66.6000,-0.021752
8.533,66.6000,-0.016918
8.555,66.6000,-0.018127
8.579,66.6000,-0.018127
8.611,66.6000,-0.019335
8.641,66.6000,-0.019335
8.672,66.6000,-0.020544
8.703,66.6000,-0.013293
8.736,66.6000,-0.018127
8.766,66.6000,-0.020544
8.797,66.6000,-0.015710
8.829,66.6000,-0.019335
8.861,66.6000,-0.019335
8.895,66.6000,-0.021752
8.923,66.6000,-0.021752
8.958,66.6000,-0.016918
8.987,66.6000,-0.020544
9.018,66.6000,-0.020544
9.049,66.6000,-0.022961
9.081,66.6000,-0.019335
9.111,66.6000,-0.020544
9.143,66.6000,-0.020544
9.175,66.6000,-0.020544
9.205,66.6000,-0.020544
9.226,66.6000,-0.020544
9.251,66.6000,-0.020544
9.283,66.6000,-0.016918
9.315,66.6000,-0.021752
9.345,66.6000,-0.018127
9.379,66.6000,-0.014501
9.406,66.6000,-0.020544
9.438,66.6000,-0.022961
9.470,66.6000,-0.020544
9.501,66.6000,-0.016918
9.532,66.6000,-0.019335
9.562,66.6000,-0.019335
9.582,66.6000,-0.019335
9.609,66.6000,-0.016918
9.641,66.6000,-0.020544
9.670,66.6000,-0.022961
9.701,66.6000,-0.019335
9.722,66.6000,-0.016918
9.748,66.6000,-0.016918
9.779,66.6000,-0.022961
9.809,66.6000,-0.020544
9.840,66.6000,-0.018127
9.871,66.6000,-0.018127
9.903,66.6000,-0.016918
9.933,66.6000,-0.018127
9.965,66.6000,-0.019335
9.997,66.6000,-0.018127
10.028,66.6000,-0.018127
10.060,66.6000,-0.016918
10.092,66.6000,-0.014501
10.123,66.6000,-0.019335
10.156,66.6000,-0.022961
10.187,66.6000,-0.019335
10.218,66.6000,-0.019335
10.249,66.6000,-0.021752
10.281,66.6000,-0.020544
10.311,66.6000,-0.014501
10.342,66.6000,-0.015710
10.374,66.6000,-0.019335
10.404,66.6000,-0.020544
10.435,66.6000,-0.018127
10.465,66.6000,-0.018127
10.497,66.6000,-0.020544
10.518,66.6000,-0.020544
10.544,66.6000,-0.013293
10.565,66.6000,-0.013293
10.590,66.6000,-0.018127
10.622,66.6000,-0.016918
10.653,66.6000,-0.018127
10.684,66.6000,-0.021752
10.716,66.6000,-0.022961
10.746,66.6000,-0.020544
10.777,66.6000,-0.020544
10.809,66.6000,-0.016918
10.842,66.6000,-0.019335
10.871,66.6000,-0.021752
10.902,66.6000,-0.020544
10.933,66.6000,-0.021752
10.964,66.6000,-0.019335
10.996,66.6000,-0.019335
11.026,66.6000,-0.016918
11.059,66.6000,-0.020544
11.083,66.6000,-0.019335
11.119,66.6000,-0.014501
11.150,66.5785,-0.018127
11.181,66.5340,-0.010876
11.212,66.4892,-0.012084
11.244,66.4448,-0.010876
11.274,66.4005,-0.007251
11.305,66.3564,-0.002417
11.336,66.3116,0.001208
11.368,66.2656,0.010876
11.398,66.2228,0.018127
11.420,66.1923,0.021752
11.445,66.1548,0.021752
11.467,66.1247,0.021752
11.491,66.0904,0.024169
11.522,66.0458,0.031420
11.553,66.0007,0.037462
11.584,65.9558,0.041087
11.615,65.9116,0.044713
11.637,65.8809,0.044713
11.661,65.8458,0.054380
11.693,65.7999,0.055589
11.723,65.7576,0.055589
11.754,65.7115,0.061631
11.786,65.6673,0.066465
11.817,65.6213,0.071298
11.848,65.5776,0.066465
11.879,65.5324,0.066465
11.910,65.4891,0.079758
11.942,65.4434,0.082174
11.972,65.3994,0.085800
12.003,65.3546,0.088217
12.034,65.3100,0.091842
12.065,65.2670,0.088217
12.095,65.2236,0.088217
12.126,65.1784,0.088217
12.156,65.1357,0.089425
12.189,65.0871,0.088217
12.219,65.0452,0.085800
12.250,65.0007,0.088217
12.283,64.9536,0.087008
12.313,64.9101,0.078549
12.345,64.8656,0.070090
12.376,64.8197,0.067673
12.408,64.7745,0.010876
12.439,64.7296,0.010876
12.471,64.6844,0.003625
12.502,64.6400,0.001208
12.534,64.5945,0.001208
12.566,64.5477,0.000000
12.596,64.5057,0.000000
12.619,64.4711,0.003625
12.641,64.4392,-0.002417
12.672,64.3959,-0.002417
12.692,64.3668,0.002417
12.718,64.3270,0.000000
12.740,64.2981,0.000000
12.764,64.2637,0.000000
12.795,64.2195,-0.002417
12.826,64.1754,-0.001208
12.857,64.1308,0.003625
12.887,64.0874,0.001208
12.918,64.0422,0.003625
12.949,63.9983,-0.004834
12.980,63.9531,-0.004834
13.012,63.9085,0.000000
13.043,63.8634,0.002417
13.066,63.8313,0.004834
13.090,63.7957,0.003625
13.121,63.7520,0.002417
13.152,63.7084,0.001208
13.173,63.6771,0.000000
13.199,63.6397,0.000000
13.220,63.6099,-0.001208
13.244,63.5749,-0.001208
13.275,63.5298,-0.003625
13.298,63.4963,-0.002417
13.322,63.4635,-0.001208
13.353,63.4186,0.004834
13.385,63.3723,0.003625
13.416,63.3286,0.000000
13.446,63.2851,0.000000
13.476,63.2418,0.002417
13.507,63.1991,-0.001208
13.538,63.1540,-0.001208
13.569,63.1092,-0.001208
13.599,63.0646,0.000000
13.631,63.0188,-0.003625
13.662,62.9758,-0.001208
13.682,62.9477,-0.001208
13.708,62.9094,-0.001208
13.740,62.8635,0.001208
13.762,62.8331,0.000000
13.787,62.7964,-0.001208
13.820,62.7487,-0.001208
13.849,62.7077,0.002417
13.880,62.6637,-0.001208
13.911,62.6192,-0.001208
13.942,62.5750,-0.001208
13.974,62.5289,-0.004834
14.005,62.4835,0.000000
14.038,62.4372,0.000000
14.067,62.3948,-0.001208
14.099,62.3488,-0.003625
14.129,62.3059,0.006042
14.160,62.2621,0.006042
14.191,62.2169,-0.001208
14.222,62.1733,0.000000
14.242,62.1442,0.000000
14.269,62.1047,-0.001208
14.289,62.0757,0.000000
14.314,62.0404,0.000000
14.344,61.9960,-0.001208
14.376,61.9524,-0.003625
14.397,61.9225,-0.002417
14.421,61.8865,-0.002417
14.453,61.8414,0.000000
14.483,61.7979,0.004834
14.514,61.7536,0.002417
14.545,61.7090,0.002417
14.577,61.6636,0.001208
14.608,61.6194,0.000000
14.639,61.5732,0.000000
14.671,61.5285,0.002417
14.703,61.4834,0.000000
14.734,61.4390,0.000000
14.764,61.3946,-0.001208
14.795,61.3513,-0.001208
14.826,61.3063,0.000000
14.857,61.2622,-0.002417
14.888,61.2167,0.002417
14.908,61.1887,0.002417
14.938,61.1454,-0.002417
14.965,61.1059,0.001208
14.986,61.0768,0.001208
15.011,61.0395,0.000000
15.042,60.9962,-0.002417
15.074,60.9502,-0.006042
15.105,60.9064,0.000000
15.137,60.8602,-0.001208
15.168,60.8160,0.002417
15.200,60.7694,-0.002417
15.231,60.7262,-0.003625
15.262,60.6806,0.002417
15.293,60.6362,-0.003625
15.322,60.5950,-0.002417
15.354,60.5501,0.000000
15.386,60.5500,-0.008459
15.417,60.5500,-0.002417
15.440,60.5500,0.000000
15.464,60.5500,0.000000
15.495,60.5500,-0.004834
15.526,60.5500,-0.002417
15.557,60.5500,0.000000
15.577,60.5500,0.001208
15.605,60.5500,-0.002417
15.635,60.5500,-0.001208
15.666,60.5500,0.000000
15.687,60.5500,0.000000
15.716,60.5500,-0.004834
15.743,60.5500,0.000000
15.774,60.5641,0.003625
15.804,60.6078,-0.008459
15.837,60.6548,-0.007251
15.867,60.6982,-0.002417
15.899,60.7441,-0.001208
15.929,60.7872,-0.001208
15.961,60.8325,0.000000
15.992,60.8779,-0.003625
16.013,60.9077,-0.003625
16.038,60.9438,-0.003625
16.069,60.9885,-0.002417
16.099,61.0306,-0.001208
16.129,61.0752,0.002417
16.161,61.1191,0.000000
16.191,61.1644,-0.004834
16.222,61.2076,-0.003625
16.254,61.2532,-0.003625
16.284,61.2966,0.000000
16.315,61.3404,0.000000
16.346,61.3859,0.000000
16.377,61.4296,-0.002417
16.399,61.4618,-0.002417
16.422,61.4955,-0.003625
16.444,61.5264,-0.002417
16.471,61.5637,-0.002417
16.502,61.6084,-0.002417
16.533,61.6532,0.000000
16.563,61.6957,-0.003625
16.583,61.7255,0.000000
16.610,61.7640,-0.001208
16.631,61.7946,0.000000
16.655,61.8285,0.000000
16.687,61.8736,0.000000
16.718,61.9182,0.001208
16.750,61.9648,-0.001208
16.781,62.0082,0.000000
16.812,62.0530,0.003625
16.844,62.0992,-0.003625
16.876,62.1447,0.000000
16.907,62.1888,-0.001208
16.937,62.2325,-0.001208
16.968,62.2763,-0.003625
16.999,62.3226,-0.001208
17.030,62.3669,-0.002417
17.062,62.4119,0.001208
17.094,62.4585,0.002417
17.125,62.5021,0.000000
17.156,62.5479,-0.003625
17.187,62.5912,0.001208
17.218,62.6357,0.001208
17.249,62.6793,0.004834
17.279,62.7236,-0.003625
17.310,62.7680,-0.003625
17.342,62.8128,-0.002417
17.373,62.8583,-0.003625
17.404,62.9017,-0.003625
17.435,62.9466,0.000000
17.466,62.9921,0.002417
17.497,63.0354,0.001208
17.528,63.0803,0.000000
17.558,63.1245,-0.003625
17.589,63.1682,-0.002417
17.621,63.2134,-0.002417
17.651,63.2577,-0.001208
17.682,63.3014,-0.004834
17.711,63.3452,-0.004834
17.743,63.3892,-0.002417
17.775,63.4353,-0.004834
17.805,63.4780,-0.004834
17.836,63.5231,-0.004834
17.867,63.5675,-0.004834
17.898,63.6112,-0.001208
17.930,63.6570,-0.002417
17.960,63.7009,-0.006042
17.991,63.7436,-0.003625
18.021,63.7879,-0.003625
18.051,63.8310,-0.002417
18.071,63.8593,-0.001208
18.097,63.8961,-0.001208
18.128,63.9412,-0.001208
18.159,63.9858,-0.003625
18.190,64.0307,-0.004834
18.221,64.0755,-0.004834
18.244,64.1076,0.002417
18.268,64.1417,0.002417
18.299,64.1875,0.002417
18.330,64.2309,-0.004834
18.360,64.2755,-0.003625
18.390,64.3178,-0.002417
18.422,64.3621,0.000000
18.453,64.4074,0.000000
18.489,64.4608,-0.001208
18.519,64.5012,-0.001208
18.547,64.5418,-0.006042
18.578,64.5863,-0.006042
18.609,64.6303,-0.004834
18.641,64.6765,-0.007251
18.672,64.7206,-0.008459
18.692,64.7502,-0.002417
18.718,64.7876,0.001208
18.741,64.8201,0.001208
18.764,64.8526,-0.001208
18.795,64.8974,-0.003625
18.827,64.9429,-0.006042
18.856,64.9859,-0.006042
18.887,65.0298,-0.003625
18.918,65.0748,-0.003625
18.950,65.1196,-0.004834
18.981,65.1654,-0.003625
19.013,65.2102,-0.007251
19.045,65.2572,-0.008459
19.077,65.3016,-0.004834
19.107,65.3450,-0.002417
19.138,65.3900,-0.007251
19.170,65.4365,-0.007251
19.202,65.4816,-0.006042
19.232,65.5248,-0.007251
19.263,65.5692,-0.007251
19.284,65.5984,-0.007251
19.311,65.6380,-0.007251
19.331,65.6667,-0.009668
19.357,65.7044,-0.009668
19.395,65.7592,-0.009668
19.418,65.7911,-0.009668
19.451,65.8388,-0.010876
19.481,65.8812,-0.010876
19.511,65.9242,-0.012084
19.542,65.9693,-0.010876
19.574,66.0143,-0.014501
19.604,66.0586,-0.016918
19.635,66.1028,-0.015710
19.666,66.1467,-0.014501
19.698,66.1927,-0.016918
19.728,66.2357,-0.016918
19.760,66.2820,-0.024169
19.792,66.3279,-0.024169
19.823,66.3719,-0.024169
19.843,66.4010,-0.026586
19.869,66.4391,-0.031420
19.891,66.4701,-0.030211
19.915,66.5041,-0.030211
19.946,66.5487,-0.033837
19.977,66.5500,-0.038670
20.008,66.5500,-0.032628
20.039,66.5500,-0.032628
20.070,66.5500,-0.041087
20.101,66.5500,-0.037462
20.133,66.5500,-0.035045
20.164,66.5500,-0.031420
20.195,66.5500,-0.032628
20.227,66.5500,-0.033837
20.257,66.5500,-0.035045
20.288,66.5500,-0.036253
20.319,66.5500,-0.037462
20.351,66.5500,-0.031420
20.371,66.5500,-0.031420
20.398,66.5500,-0.031420
20.419,66.5500,-0.029003
20.444,66.5500,-0.026586
20.475,66.5500,-0.026586
20.507,66.5500,-0.030211
20.538,66.5500,-0.030211
20.569,66.5500,-0.029003
20.599,66.5500,-0.025377
20.631,66.5500,-0.027794
20.662,66.5500,-0.027794
20.693,66.5500,-0.030211
20.723,66.5500,-0.029003
20.755,66.5500,-0.030211
20.786,66.5500,-0.026586
20.809,66.5500,-0.026586
20.831,66.5500,-0.025377
20.862,66.5500,-0.024169
20.883,66.5500,-0.024169
20.910,66.5500,-0.025377
20.931,66.5500,-0.026586
20.955,66.5500,-0.026586
20.986,66.5500,-0.025377
21.017,66.5500,-0.029003
21.049,66.5500,-0.026586
21.079,66.5500,-0.029003
21.110,66.5500,-0.022961
21.141,66.5500,-0.027794
21.171,66.5500,-0.031420
21.202,66.5500,-0.024169
21.233,66.5500,-0.024169
21.263,66.5500,-0.024169
21.294,66.5500,-0.025377
21.326,66.5500,-0.026586
21.350,66.5500,-0.026586
21.372,66.5500,-0.026586
21.401,66.5500,-0.026586
21.432,66.5500,-0.021752
21.463,66.5500,-0.030211
21.494,66.5500,-0.027794
21.524,66.5500,-0.026586
21.555,66.5500,-0.024169
21.586,66.5500,-0.024169
21.617,66.5500,-0.024169
21.648,66.5500,-0.020544
21.669,66.5500,-0.020544
21.693,66.5500,-0.026586
21.715,66.5500,-0.024169
21.741,66.5500,-0.024169
21.770,66.5500,-0.021752
21.801,66.5500,-0.022961
21.832,66.5500,-0.022961
21.864,66.5500,-0.025377
21.894,66.5500,-0.025377
21.925,66.5500,-0.027794
21.955,66.5500,-0.026586
21.986,66.5500,-0.022961
22.016,66.5500,-0.022961
22.047,66.5500,-0.025377
22.079,66.5500,-0.025377
22.110,66.5500,-0.021752
22.141,66.5500,-0.020544
22.162,66.5500,-0.022961
22.187,66.5500,-0.022961
22.217,66.5500,-0.029003
22.248,66.5500,-0.021752
22.279,66.5500,-0.020544
22.310,66.5500,-0.024169
22.341,66.5500,-0.024169
22.371,66.5500,-0.022961
22.403,66.5500,-0.024169
22.433,66.5500,-0.026586
22.465,66.5500,-0.021752
22.496,66.5500,-0.024169
22.517,66.5500,-0.024169
22.543,66.5500,-0.022961
22.573,66.5500,-0.024169
22.594,66.5500,-0.026586
22.619,66.5500,-0.025377
22.642,66.5500,-0.027794
22.665,66.5500,-0.027794
22.696,66.5500,-0.021752
22.727,66.5500,-0.025377
22.759,66.5500,-0.025377
22.790,66.5500,-0.026586
22.822,66.5500,-0.018127
22.852,66.5500,-0.018127
22.885,66.5500,-0.022961
22.915,66.5500,-0.019335
22.947,66.5500,-0.021752
22.978,66.5500,-0.019335
23.009,66.5500,-0.024169
23.040,66.5500,-0.020544
23.071,66.5500,-0.021752
23.104,66.5500,-0.021752
23.135,66.5500,-0.024169
23.165,66.5500,-0.019335
23.196,66.5500,-0.019335
23.227,66.5500,-0.022961
23.258,66.5500,-0.024169
23.289,66.5500,-0.022961
23.320,66.5500,-0.019335
23.352,66.5500,-0.019335
23.383,66.5500,-0.021752
23.414,66.5500,-0.019335
23.445,66.5500,-0.021752
23.476,66.5500,-0.025377
23.508,66.5500,-0.024169
23.539,66.5500,-0.024169
23.569,66.5500,-0.019335
23.600,66.5500,-0.022961
23.631,66.5500,-0.019335
23.663,66.5500,-0.021752
23.694,66.5500,-0.021752
23.725,66.5500,-0.019335
23.746,66.5500,-0.019335
23.771,66.5500,-0.018127
23.802,66.5500,-0.025377
23.833,66.5500,-0.021752
23.865,66.5500,-0.024169
23.895,66.5500,-0.024169
23.927,66.5500,-0.021752
23.957,66.5500,-0.018127
23.988,66.5500,-0.018127
24.020,66.5500,-0.018127
24.051,66.5500,-0.022961
24.082,66.5500,-0.019335
24.115,66.5500,-0.025377
24.145,66.5500,-0.024169
24.177,66.5500,-0.021752
24.208,66.5500,-0.018127
24.239,66.5500,-0.018127
24.270,66.5500,-0.022961
24.302,66.5500,-0.021752
24.333,66.5500,-0.020544
24.353,66.5500,-0.021752
24.379,66.5500,-0.021752
24.410,66.5500,-0.021752
24.440,66.5500,-0.024169
24.472,66.5500,-0.021752
24.503,66.5500,-0.019335
24.537,66.5500,-0.021752
24.564,66.5500,-0.022961
24.596,66.5500,-0.019335
24.627,66.5500,-0.022961
24.659,66.5500,-0.022961
24.691,66.5500,-0.021752
24.721,66.5500,-0.018127
24.752,66.5500,-0.024169
24.784,66.5500,-0.024169
24.814,66.5500,-0.021752
24.845,66.5500,-0.024169
24.877,66.5500,-0.024169
24.908,66.5500,-0.022961
24.928,66.5500,-0.022961
24.957,66.5500,-0.020544
24.985,66.5500,-0.021752
25.016,66.5500,-0.021752
25.046,66.5500,-0.018127
25.077,66.5500,-0.019335
25.108,66.5500,-0.022961
25.140,66.5500,-0.022961
25.171,66.5500,-0.021752
25.202,66.5500,-0.021752
25.232,66.5500,-0.022961
25.263,66.5500,-0.022961
25.294,66.5500,-0.018127
25.325,66.5500,-0.021752
25.356,66.5500,-0.022961
25.387,66.5500,-0.019335
25.408,66.5500,-0.019335
25.434,66.5500,-0.021752
25.464,66.5500,-0.022961
25.494,66.5500,-0.018127
25.526,66.5500,-0.020544
25.557,66.5500,-0.022961
25.587,66.5500,-0.019335
25.618,66.5500,-0.019335
25.649,66.5500,-0.024169
25.680,66.5500,-0.024169
25.711,66.5500,-0.019335
25.742,66.5500,-0.018127
25.773,66.5500,-0.024169
25.804,66.5500,-0.020544
25.835,66.5500,-0.019335
25.856,66.5500,-0.020544
25.882,66.5500,-0.019335
25.913,66.5500,-0.018127
25.944,66.5500,-0.019335
25.974,66.5500,-0.021752
26.005,66.5500,-0.016918
26.036,66.5500,-0.015710
26.068,66.5500,-0.018127
26.098,66.5500,-0.018127
26.129,66.5500,-0.018127
26.160,66.5500,-0.019335
26.190,66.5500,-0.018127
26.222,66.5500,-0.020544
26.253,66.5500,-0.020544
26.285,66.5500,-0.020544
26.316,66.5500,-0.020544
26.336,66.5500,-0.020544
26.362,66.5500,-0.016918
26.395,66.5500,-0.019335
26.417,66.5500,-0.016918
26.442,66.5500,-0.022961
26.464,66.5500,-0.019335
26.486,66.5500,-0.019335
26.517,66.5500,-0.022961
26.548,66.5500,-0.022961
26.578,66.5500,-0.022961
26.610,66.5500,-0.020544
26.641,66.5500,-0.022961
26.671,66.5500,-0.018127
26.704,66.5500,-0.020544
26.735,66.5500,-0.022961
26.766,66.5500,-0.018127
26.797,66.5500,-0.020544
26.828,66.5500,-0.020544
26.848,66.5500,-0.020544
26.875,66.5500,-0.021752
26.905,66.5500,-0.019335
26.937,66.5500,-0.022961
26.968,66.5500,-0.024169
26.999,66.5500,-0.016918
27.021,66.5500,-0.016918
27.045,66.5500,-0.024169
27.077,66.5500,-0.024169
27.109,66.5500,-0.022961
27.139,66.5500,-0.019335
27.170,66.5500,-0.016918
27.201,66.5500,-0.024169
27.231,66.5500,-0.022961
27.263,66.5500,-0.019335
27.293,66.5500,-0.021752
27.325,66.5500,-0.020544
27.356,66.5500,-0.020544
27.389,66.5500,-0.021752
27.418,66.5500,-0.019335
27.450,66.5500,-0.019335
27.481,66.5500,-0.019335
27.512,66.5500,-0.022961
27.533,66.5500,-0.018127
27.557,66.5500,-0.018127
27.588,66.5500,-0.019335
27.620,66.5500,-0.019335
27.651,66.5500,-0.020544
27.682,66.5500,-0.020544
27.714,66.5500,-0.018127
27.745,66.5500,-0.024169
27.777,66.5500,-0.018127
27.807,66.5500,-0.020544
27.839,66.5500,-0.020544
27.869,66.5500,-0.021752
27.901,66.5500,-0.019335
27.931,66.5500,-0.021752
27.962,66.5500,-0.019335
27.992,66.5500,-0.020544
28.013,66.5500,-0.018127
28.039,66.5500,-0.018127
28.060,66.5500,-0.016918
28.085,66.5500,-0.020544
28.116,66.5500,-0.025377
28.140,66.5500,-0.024169
28.163,66.5500,-0.018127
28.195,66.5500,-0.018127
28.225,66.5500,-0.016918
28.256,66.5500,-0.018127
28.286,66.5500,-0.015710
28.317,66.5500,-0.018127
28.348,66.5500,-0.021752
28.380,66.5500,-0.020544
28.410,66.5500,-0.016918
28.441,66.5500,-0.020544
28.472,66.5500,-0.018127
28.504,66.5500,-0.021752
28.535,66.5500,-0.021752
28.555,66.5500,-0.022961
28.581,66.5500,-0.019335
28.612,66.5500,-0.016918
28.642,66.5500,-0.018127
28.673,66.5500,-0.019335
28.703,66.5500,-0.021752
28.737,66.5500,-0.021752
28.766,66.5500,-0.016918
28.798,66.5500,-0.016918
28.828,66.5500,-0.015710
28.858,66.5500,-0.018127
28.890,66.5500,-0.018127
28.921,66.5500,-0.018127
28.953,66.5500,-0.014501
28.985,66.5500,-0.020544
29.017,66.5500,-0.020544
29.048,66.5500,-0.021752
29.079,66.5500,-0.015710
29.100,66.5500,-0.015710
29.125,66.5500,-0.020544
29.156,66.5500,-0.018127
29.187,66.5500,-0.015710
29.218,66.5500,-0.020544
29.249,66.5500,-0.022961
29.279,66.5500,-0.022961
29.310,66.5500,-0.018127
29.342,66.5500,-0.016918
29.374,66.5500,-0.018127
29.405,66.5500,-0.021752
29.436,66.5500,-0.013293
29.467,66.5500,-0.020544
29.498,66.5500,-0.020544
29.529,66.5500,-0.020544
29.560,66.5500,-0.019335
29.592,66.5500,-0.014501
29.623,66.5500,-0.015710
29.647,66.5500,-0.013293
29.669,66.5500,-0.016918
29.690,66.5500,-0.021752
29.716,66.5500,-0.021752
29.747,66.5500,-0.016918
29.771,66.5500,-0.016918
29.798,66.5500,-0.019335
29.820,66.5500,-0.016918
29.841,66.5500,-0.020544
29.873,66.5500,-0.022961
29.905,66.5500,-0.019335
29.935,66.5500,-0.018127
29.965,66.5500,-0.024169
29.997,66.5500,-0.021752
30.029,66.5500,-0.020544
30.061,66.5500,-0.020544
30.084,66.5500,-0.020544
30.107,66.5500,-0.018127
30.138,66.5500,-0.018127
30.169,66.5500,-0.018127
30.200,66.5500,-0.015710
30.231,66.5500,-0.012084
30.263,66.5500,-0.020544
30.294,66.5500,-0.016918
30.315,66.5500,-0.016918
30.342,66.5500,-0.022961
30.372,66.5500,-0.024169
30.403,66.5500,-0.021752
30.434,66.5500,-0.019335
30.465,66.5500,-0.014501
30.496,66.5500,-0.018127
30.527,66.5500,-0.019335
30.559,66.5500,-0.021752
30.591,66.5500,-0.013293
30.621,66.5500,-0.010876
30.653,66.5500,-0.015710
30.683,66.5500,-0.020544
30.714,66.5500,-0.018127
30.745,66.5500,-0.016918
30.777,66.5500,-0.018127
30.808,66.5500,-0.014501
30.839,66.5500,-0.016918
30.870,66.5500,-0.019335
30.901,66.5500,-0.021752
30.922,66.5500,-0.016918
30.947,66.5500,-0.016918
30.978,66.5500,-0.018127
31.009,66.5500,-0.016918
31.040,66.5500,-0.019335
31.071,66.5500,-0.018127
31.101,66.5500,-0.021752
31.133,66.5500,-0.021752
31.165,66.5500,-0.015710
31.196,66.5500,-0.018127
31.227,66.5500,-0.019335
31.259,66.5500,-0.018127
31.290,66.5500,-0.022961
31.321,66.5500,-0.021752
31.353,66.5500,-0.020544
31.384,66.5500,-0.018127
31.416,66.5500,-0.015710
31.447,66.5500,-0.020544
31.479,66.5500,-0.020544
31.509,66.5500,-0.018127
31.530,66.5500,-0.020544
31.557,66.5500,-0.021752
31.578,66.5500,-0.022961
31.603,66.5500,-0.021752
31.634,66.5500,-0.015710
31.666,66.5500,-0.019335
31.696,66.5500,-0.018127
31.730,66.5500,-0.018127
31.759,66.5500,-0.012084
31.789,66.5500,-0.018127
31.820,66.5500,-0.019335
31.852,66.5500,-0.014501
31.882,66.5500,-0.021752
31.915,66.5500,-0.022961
31.945,66.5500,-0.014501
31.975,66.5500,-0.014501
32.007,66.5500,-0.020544
32.038,66.5500,-0.019335
32.068,66.5500,-0.020544
32.090,66.5500,-0.020544
32.115,66.5500,-0.019335
32.145,66.5500,-0.014501
32.176,66.5500,-0.016918
32.206,66.5249,-0.015710
32.238,66.4803,-0.014501
32.268,66.4350,-0.013293
32.300,66.3902,-0.009668
32.331,66.3465,-0.006042
32.361,66.3028,-0.006042
32.393,66.2573,0.007251
32.424,66.2128,0.010876
32.445,66.1811,0.010876
32.471,66.1454,0.015710
32.503,66.0994,0.019335
32.534,66.0546,0.026586
32.565,66.0097,0.032628
32.585,65.9818,0.032628
32.612,65.9438,0.032628
32.643,65.8977,0.045921
32.674,65.8538,0.043504
32.705,65.8092,0.044713
32.736,65.7659,0.049546
32.767,65.7214,0.053172
32.798,65.6760,0.054380
32.828,65.6327,0.065256
32.861,65.5863,0.064048
32.892,65.5408,0.073715
32.924,65.4950,0.079758
32.955,65.4504,0.077341
32.987,65.4043,0.080966
33.018,65.3599,0.087008
33.043,65.3246,0.087008
33.064,65.2944,0.082174
33.096,65.2471,0.083383
33.128,65.2032,0.091842
33.159,65.1581,0.087008
33.190,65.1135,0.090634
33.222,65.0679,0.084591
33.252,65.0249,0.083383
33.284,64.9791,0.084591
33.314,64.9364,0.084591
33.345,64.8922,0.073715
33.376,64.8470,0.073715
33.407,64.8031,0.039879
33.438,64.7586,0.020544
33.459,64.7271,0.020544
33.484,64.6926,0.006042
33.515,64.6468,0.002417
33.545,64.6044,0.000000
33.576,64.5597,0.003625
33.607,64.5162,0.004834
33.639,64.4695,0.003625
33.670,64.4257,0.001208
33.702,64.3797,0.001208
33.734,64.3333,0.004834
33.763,64.2919,0.004834
33.794,64.2481,0.003625
33.824,64.2041,0.001208
33.856,64.1578,0.001208
33.888,64.1132,-0.001208
33.918,64.0690,-0.001208
33.941,64.0363,-0.002417
33.965,64.0033,-0.003625
33.995,63.9583,0.001208
34.026,63.9151,0.004834
34.056,63.8705,0.002417
34.086,63.8266,-0.003625
34.109,63.7953,-0.003625
34.133,63.7622,-0.002417
34.163,63.7180,-0.001208
34.194,63.6743,-0.001208
34.225,63.6292,-0.001208
34.255,63.5861,0.001208
34.286,63.5417,-0.002417
34.317,63.4965,0.000000
34.347,63.4540,0.000000
34.380,63.4079,-0.003625
34.410,63.3644,-0.002417
34.441,63.3192,-0.003625
34.462,63.2898,-0.003625
34.486,63.2554,-0.001208
34.516,63.2116,-0.001208
34.547,63.1677,0.004834
34.578,63.1223,0.004834
34.609,63.0793,0.000000
34.640,63.0347,0.000000
34.671,62.9894,-0.001208
34.703,62.9444,0.001208
34.735,62.8976,0.003625
34.766,62.8527,0.002417
34.797,62.8096,-0.001208
34.827,62.7660,0.000000
34.859,62.7201,-0.001208
34.889,62.6755,0.001208
34.922,62.6297,0.000000
34.952,62.5872,0.001208
34.983,62.5430,-0.001208
35.014,62.4976,0.000000
35.045,62.4531,0.002417
35.076,62.4091,0.000000
35.106,62.3652,-0.002417
35.140,62.3153,-0.003625
35.168,62.2768,0.001208
35.199,62.2325,0.001208
35.230,62.1870,0.004834
35.261,62.1429,0.002417
35.292,62.0989,0.002417
35.323,62.0549,0.000000
35.354,62.0100,0.001208
35.386,61.9641,-0.001208
35.406,61.9358,-0.001208
35.431,61.8996,0.000000
35.463,61.8533,0.001208
35.494,61.8098,0.001208
35.526,61.7631,-0.004834
35.556,61.7201,0.000000
35.589,61.6731,0.000000
35.619,61.6297,0.002417
35.650,61.5861,0.000000
35.681,61.5413,-0.001208
35.711,61.4984,-0.001208
35.742,61.4536,-0.001208
35.774,61.4078,0.002417
35.805,61.3634,0.001208
35.836,61.3190,0.001208
35.867,61.2739,0.000000
35.898,61.2295,-0.001208
35.930,61.1836,0.001208
35.961,61.1397,0.002417
35.992,61.0953,0.002417
36.013,61.0655,0.001208
36.038,61.0291,0.001208
36.069,60.9831,-0.001208
36.100,60.9402,-0.003625
36.134,60.8905,-0.001208
36.162,60.8522,-0.001208
36.193,60.8062,0.006042
36.224,60.7627,-0.002417
36.255,60.7174,-0.003625
36.285,60.6745,-0.001208
36.317,60.6282,-0.001208
36.348,60.5837,-0.001208
36.379,60.5399,-0.001208
36.411,60.4999,-0.004834
36.442,60.4999,-0.004834
36.473,60.4999,-0.002417
36.505,60.4999,-0.002417
36.538,60.4999,0.000000
36.566,60.4999,0.000000
36.588,60.4999,0.000000
36.613,60.4999,-0.001208
36.644,60.4999,0.000000
36.676,60.4999,0.001208
36.706,60.4999,0.002417
36.728,60.4999,0.002417
36.754,60.4999,-0.002417
36.783,60.5060,-0.003625
36.814,60.5510,-0.002417
36.845,60.5946,-0.003625
36.876,60.6390,0.001208
36.907,60.6826,-0.001208
36.938,60.7288,-0.001208
36.970,60.7752,0.001208
37.000,60.8177,-0.001208
37.030,60.8615,-0.003625
37.061,60.9046,-0.001208
37.092,60.9481,-0.003625
37.112,60.9772,0.001208
37.137,61.0130,0.001208
37.168,61.0574,0.001208
37.198,61.1001,0.001208
37.229,61.1457,0.001208
37.260,61.1909,-0.001208
37.283,61.2226,-0.001208
37.306,61.2557,-0.001208
37.337,61.3012,0.001208
37.368,61.3446,-0.002417
37.399,61.3904,-0.004834
37.430,61.4338,0.000000
37.461,61.4794,-0.001208
37.492,61.5222,0.001208
37.522,61.5661,0.001208
37.553,61.6095,-0.002417
37.584,61.6550,-0.003625
37.606,61.6853,-0.001208
37.630,61.7206,0.003625
37.651,61.7508,0.003625
37.677,61.7884,0.000000
37.699,61.8191,-0.003625
37.723,61.8550,0.000000
37.754,61.8979,0.002417
37.785,61.9425,0.002417
37.816,61.9870,-0.002417
37.847,62.0321,0.003625
37.878,62.0767,0.002417
37.909,62.1211,-0.003625
37.941,62.1665,0.001208
37.972,62.2113,-0.002417
38.003,62.2568,-0.001208
38.034,62.2998,-0.004834
38.064,62.3427,-0.001208
38.095,62.3879,0.001208
38.126,62.4318,-0.001208
38.146,62.4612,-0.001208
38.173,62.4988,0.002417
38.204,62.5435,0.002417
38.235,62.5877,0.000000
38.265,62.6308,-0.008459
38.296,62.6761,-0.007251
38.326,62.7198,-0.002417
38.358,62.7644,0.001208
38.389,62.8082,-0.004834
38.420,62.8532,-0.002417
38.451,62.8985,0.002417
38.482,62.9436,-0.002417
38.512,62.9868,-0.002417
38.545,63.0329,0.003625
38.576,63.0776,-0.001208
38.607,63.1215,0.001208
38.638,63.1672,0.002417
38.658,63.1954,-0.002417
38.684,63.2325,-0.001208
38.716,63.2786,0.001208
38.748,63.3234,-0.002417
38.778,63.3670,0.001208
38.809,63.4112,-0.001208
38.840,63.4557,0.001208
38.871,63.5009,0.001208
38.902,63.5460,-0.003625
38.934,63.5904,-0.004834
38.965,63.6354,-0.001208
38.996,63.6798,-0.002417
39.028,63.7258,-0.006042
39.058,63.7689,-0.002417
39.090,63.8149,-0.002417
39.120,63.8586,0.000000
39.151,63.9016,-0.002417
39.182,63.9459,-0.001208
39.202,63.9751,0.000000
39.228,64.0130,-0.004834
39.250,64.0445,-0.004834
39.274,64.0783,-0.002417
39.305,64.1236,-0.002417
39.336,64.1676,-0.001208
39.367,64.2121,-0.002417
39.398,64.2570,-0.006042
39.430,64.3021,-0.003625
39.461,64.3465,-0.006042
39.491,64.3904,-0.002417
39.522,64.4340,0.000000
39.553,64.4803,-0.003625
39.585,64.5239,0.002417
39.616,64.5691,0.004834
39.647,64.6137,0.000000
39.681,64.6628,-0.001208
39.709,64.7027,-0.001208
39.730,64.7322,0.000000
39.755,64.7688,0.000000
39.786,64.8120,-0.002417
39.817,64.8578,-0.006042
39.848,64.9015,-0.001208
39.879,64.9467,0.000000
39.911,64.9914,-0.006042
39.941,65.0358,-0.002417
39.972,65.0801,-0.001208
40.004,65.1262,-0.004834
40.035,65.1702,-0.002417
40.066,65.2141,-0.004834
40.096,65.2573,-0.004834
40.127,65.3022,-0.003625
40.159,65.3473,-0.003625
40.190,65.3936,-0.007251
40.221,65.4367,-0.010876
40.242,65.4664,-0.010876
40.267,65.5040,-0.007251
40.290,65.5352,-0.007251
40.314,65.5692,-0.006042
40.346,65.6155,-0.010876
40.377,65.6596,-0.008459
40.406,65.7028,-0.007251
40.438,65.7483,-0.009668
40.469,65.7942,-0.009668
40.500,65.8376,-0.013293
40.532,65.8834,-0.010876
40.565,65.9292,-0.008459
40.595,65.9750,-0.013293
40.626,66.0172,-0.015710
40.657,66.0627,-0.014501
40.688,66.1062,-0.018127
40.719,66.1512,-0.016918
40.751,66.1971,-0.019335
40.783,66.2425,-0.021752
40.813,66.2863,-0.021752
40.836,66.3183,-0.025377
40.860,66.3544,-0.027794
40.882,66.3847,-0.027794
40.907,66.4211,-0.025377
40.936,66.4628,-0.030211
40.967,66.4999,-0.033837
40.998,66.4999,-0.031420
41.021,66.4999,-0.031420
41.044,66.4999,-0.038670
41.075,66.4999,-0.035045
41.105,66.4999,-0.035045
41.137,66.4999,-0.032628
41.168,66.4999,-0.032628
41.199,66.4999,-0.032628
41.231,66.4999,-0.032628
41.262,66.4999,-0.033837
41.292,66.4999,-0.033837
41.324,66.4999,-0.033837
41.346,66.4999,-0.030211
41.370,66.4999,-0.036253
41.401,66.4999,-0.035045
41.433,66.4999,-0.030211
41.453,66.4999,-0.031420
41.478,66.4999,-0.027794
41.500,66.4999,-0.030211
41.524,66.4999,-0.033837
41.555,66.4999,-0.027794
41.578,66.4999,-0.029003
41.602,66.4999,-0.031420
41.634,66.4999,-0.027794
41.664,66.4999,-0.031420
41.697,66.4999,-0.030211
41.726,66.4999,-0.031420
41.759,66.4999,-0.027794
41.788,66.4999,-0.025377
41.819,66.4999,-0.025377
41.850,66.4999,-0.027794
41.881,66.4999,-0.030211
41.912,66.4999,-0.027794
41.946,66.4999,-0.019335
41.975,66.4999,-0.024169
42.006,66.4999,-0.026586
42.037,66.4999,-0.027794
42.068,66.4999,-0.026586
42.089,66.4999,-0.026586
42.114,66.4999,-0.029003
42.135,66.4999,-0.029003
42.160,66.4999,-0.027794
42.191,66.4999,-0.025377
42.224,66.4999,-0.026586
42.254,66.4999,-0.027794
42.285,66.4999,-0.024169
42.316,66.4999,-0.024169
42.347,66.4999,-0.030211
42.378,66.4999,-0.027794
42.409,66.4999,-0.025377
42.441,66.4999,-0.022961
42.472,66.4999,-0.027794
42.504,66.4999,-0.026586
42.535,66.4999,-0.020544
42.566,66.4999,-0.021752
42.597,66.4999,-0.025377
42.628,66.4999,-0.026586
42.659,66.4999,-0.024169
42.689,66.4999,-0.024169
42.721,66.4999,-0.024169
42.743,66.4999,-0.024169
42.766,66.4999,-0.024169
42.798,66.4999,-0.024169
42.828,66.4999,-0.022961
42.860,66.4999,-0.024169
42.891,66.4999,-0.024169
42.922,66.4999,-0.024169
42.953,66.4999,-0.022961
42.983,66.4999,-0.025377
43.014,66.4999,-0.024169
43.046,66.4999,-0.024169
43.076,66.4999,-0.026586
43.109,66.4999,-0.025377
43.138,66.4999,-0.024169
43.159,66.4999,-0.022961
43.185,66.4999,-0.021752
43.206,66.4999,-0.024169
43.236,66.4999,-0.024169
43.263,66.4999,-0.026586
43.283,66.4999,-0.029003
43.309,66.4999,-0.021752
43.340,66.4999,-0.019335
43.370,66.4999,-0.022961
43.401,66.4999,-0.021752
43.431,66.4999,-0.018127
43.462,66.4999,-0.021752
43.492,66.4999,-0.020544
43.523,66.4999,-0.020544
43.554,66.4999,-0.021752
43.586,66.4999,-0.026586
43.618,66.4999,-0.027794
43.649,66.4999,-0.020544
43.680,66.4999,-0.019335
43.711,66.4999,-0.020544
43.732,66.4999,-0.021752
43.756,66.4999,-0.021752
43.787,66.4999,-0.025377
43.819,66.4999,-0.024169
43.848,66.4999,-0.025377
43.879,66.4999,-0.024169
43.910,66.4999,-0.020544
43.941,66.4999,-0.018127
43.974,66.4999,-0.020544
44.003,66.4999,-0.018127
44.035,66.4999,-0.022961
44.066,66.4999,-0.022961
44.098,66.4999,-0.022961
44.128,66.4999,-0.022961
44.159,66.4999,-0.021752
44.190,66.4999,-0.024169
44.211,66.4999,-0.024169
44.239,66.4999,-0.024169
44.259,66.4999,-0.021752
44.283,66.4999,-0.024169
44.313,66.4999,-0.026586
44.344,66.4999,-0.024169
44.374,66.4999,-0.020544
44.408,66.4999,-0.021752
44.437,66.4999,-0.020544
44.467,66.4999,-0.019335
44.497,66.4999,-0.019335
44.529,66.4999,-0.024169
44.560,66.4999,-0.027794
44.599,66.4999,-0.022961
44.623,66.4999,-0.019335
44.654,66.4999,-0.016918
44.675,66.4999,-0.020544
44.702,66.4999,-0.020544
44.723,66.4999,-0.020544
44.747,66.4999,-0.020544
44.778,66.4999,-0.019335
44.809,66.4999,-0.019335
44.840,66.4999,-0.020544
44.871,66.4999,-0.020544
44.902,66.4999,-0.020544
44.932,66.4999,-0.024169
44.963,66.4999,-0.020544
44.994,66.4999,-0.022961
45.026,66.4999,-0.021752
45.057,66.4999,-0.021752
45.088,66.4999,-0.021752
45.118,66.4999,-0.021752
45.138,66.4999,-0.019335
45.165,66.4999,-0.019335
45.196,66.4999,-0.018127
45.227,66.4999,-0.019335
45.259,66.4999,-0.022961
45.290,66.4999,-0.019335
45.322,66.4999,-0.021752
45.353,66.4999,-0.021752
45.384,66.4999,-0.019335
45.406,66.4999,-0.019335
45.432,66.4999,-0.022961
45.461,66.4999,-0.025377
45.492,66.4999,-0.022961
45.524,66.4999,-0.019335
45.556,66.4999,-0.018127
45.586,66.4999,-0.020544
45.617,66.4999,-0.021752
45.649,66.4999,-0.022961
45.679,66.4999,-0.019335
45.710,66.4999,-0.025377
45.742,66.4999,-0.025377
45.772,66.4999,-0.018127
45.803,66.4999,-0.018127
45.834,66.4999,-0.019335
45.854,66.4999,-0.019335
45.880,66.4999,-0.014501
45.912,66.4999,-0.018127
45.943,66.4999,-0.021752
45.966,66.4999,-0.021752
45.989,66.4999,-0.020544
46.020,66.4999,-0.021752
46.051,66.4999,-0.025377
46.083,66.4999,-0.021752
46.114,66.4999,-0.016918
46.145,66.4999,-0.021752
46.177,66.4999,-0.021752
46.207,66.4999,-0.021752
46.239,66.4999,-0.021752
46.270,66.4999,-0.021752
46.301,66.4999,-0.021752
46.331,66.4999,-0.020544
46.362,66.4999,-0.018127
46.393,66.4999,-0.020544
46.414,66.4999,-0.019335
46.439,66.4999,-0.019335
46.469,66.4999,-0.019335
46.500,66.4999,-0.024169
46.524,66.4999,-0.020544
46.548,66.4999,-0.020544
46.578,66.4999,-0.016918
46.608,66.4999,-0.018127
46.639,66.4999,-0.018127
46.670,66.4999,-0.021752
46.701,66.4999,-0.019335
46.732,66.4999,-0.015710
46.763,66.4999,-0.019335
46.795,66.4999,-0.022961
46.826,66.4999,-0.018127
46.857,66.4999,-0.020544
46.887,66.4999,-0.018127
46.908,66.4999,-0.018127
46.934,66.4999,-0.016918
46.964,66.4999,-0.022961
46.995,66.4999,-0.021752
47.027,66.4999,-0.019335
47.057,66.4999,-0.020544
47.081,66.4999,-0.020544
47.104,66.4999,-0.020544
47.136,66.4999,-0.021752
47.165,66.4999,-0.018127
47.197,66.4999,-0.020544
47.228,66.4999,-0.018127
47.260,66.4999,-0.018127
47.290,66.4999,-0.024169
47.322,66.4999,-0.021752
47.352,66.4999,-0.022961
47.383,66.4999,-0.020544
47.404,66.4999,-0.019335
47.430,66.4999,-0.015710
47.461,66.4999,-0.018127
47.492,66.4999,-0.018127
47.523,66.4999,-0.020544
47.544,66.4999,-0.021752
47.569,66.4999,-0.016918
47.600,66.4999,-0.020544
47.631,66.4999,-0.020544
47.654,66.4999,-0.019335
47.678,66.4999,-0.019335
47.708,66.4999,-0.021752
47.740,66.4999,-0.021752
47.770,66.4999,-0.020544
47.802,66.4999,-0.022961
47.833,66.4999,-0.021752
47.865,66.4999,-0.024169
47.897,66.4999,-0.020544
47.928,66.4999,-0.019335
47.958,66.4999,-0.018127
47.989,66.4999,-0.020544
48.021,66.4999,-0.025377
48.051,66.4999,-0.020544
48.083,66.4999,-0.019335
48.114,66.4999,-0.022961
48.134,66.4999,-0.021752
48.160,66.4999,-0.020544
48.192,66.4999,-0.020544
48.226,66.4999,-0.018127
48.246,66.4999,-0.019335
48.269,66.4999,-0.020544
48.301,66.4999,-0.018127
48.331,66.4999,-0.018127
48.362,66.4999,-0.019335
48.394,66.4999,-0.021752
48.425,66.4999,-0.024169
48.456,66.4999,-0.016918
48.487,66.4999,-0.020544
48.521,66.4999,-0.020544
48.550,66.4999,-0.019335
48.581,66.4999,-0.025377
48.613,66.4999,-0.021752
48.645,66.4999,-0.019335
48.675,66.4999,-0.019335
48.707,66.4999,-0.020544
48.738,66.4999,-0.020544
48.770,66.4999,-0.016918
48.790,66.4999,-0.021752
48.816,66.4999,-0.021752
48.847,66.4999,-0.020544
48.879,66.4999,-0.021752
48.911,66.4999,-0.016918
48.939,66.4999,-0.022961
48.971,66.4999,-0.022961
49.003,66.4999,-0.021752
49.035,66.4999,-0.019335
49.066,66.4999,-0.021752
49.098,66.4999,-0.016918
49.129,66.4999,-0.019335
49.159,66.4999,-0.018127
49.190,66.4999,-0.015710
49.221,66.4999,-0.018127
49.253,66.4999,-0.016918
49.283,66.4999,-0.018127
49.315,66.4999,-0.022961
49.347,66.4999,-0.021752
49.377,66.4999,-0.021752
49.397,66.4999,-0.018127
49.423,66.4999,-0.022961
49.454,66.4999,-0.020544
49.485,66.4999,-0.020544
49.516,66.4999,-0.021752
49.547,66.4999,-0.020544
49.578,66.4999,-0.019335
49.608,66.4999,-0.018127
49.642,66.4999,-0.022961
49.669,66.4999,-0.020544
49.701,66.4999,-0.022961
49.732,66.4999,-0.018127
49.763,66.4999,-0.015710
49.794,66.4999,-0.016918
49.825,66.4999,-0.020544
49.845,66.4999,-0.020544
49.870,66.4999,-0.022961
49.902,66.4999,-0.019335
49.933,66.4999,-0.018127
49.964,66.4999,-0.016918
49.995,66.4999,-0.018127
50.026,66.4999,-0.019335
50.058,66.4999,-0.019335
50.090,66.4999,-0.021752
50.121,66.4999,-0.021752
50.152,66.4999,-0.019335
50.184,66.4999,-0.018127
50.216,66.4999,-0.019335
50.247,66.4999,-0.020544
50.277,66.4999,-0.020544
50.309,66.4999,-0.020544
50.341,66.4999,-0.019335
50.372,66.4999,-0.019335
50.402,66.4999,-0.018127
50.434,66.4999,-0.021752
50.466,66.4999,-0.020544
50.497,66.4999,-0.019335
50.517,66.4999,-0.019335
50.543,66.4999,-0.019335
50.573,66.4999,-0.016918
50.603,66.4999,-0.019335
50.634,66.4999,-0.018127
50.664,66.4999,-0.018127
50.695,66.4999,-0.020544
50.725,66.4999,-0.020544
50.757,66.4999,-0.019335
50.788,66.4999,-0.020544
50.819,66.4999,-0.018127
50.850,66.4999,-0.020544
50.881,66.4999,-0.018127
50.913,66.4999,-0.021752
50.933,66.4999,-0.020544
50.960,66.4999,-0.018127
50.982,66.4999,-0.019335
51.005,66.4999,-0.019335
51.037,66.4999,-0.019335
51.067,66.4999,-0.019335
51.100,66.4999,-0.015710
51.131,66.4999,-0.020544
51.161,66.4999,-0.020544
51.192,66.4999,-0.019335
51.223,66.4999,-0.019335
51.256,66.4999,-0.024169
51.286,66.4999,-0.016918
51.316,66.4999,-0.018127
51.347,66.4999,-0.018127
51.379,66.4999,-0.018127
51.409,66.4999,-0.019335
51.441,66.4999,-0.021752
51.472,66.4999,-0.022961
51.493,66.4999,-0.021752
51.518,66.4999,-0.021752
51.548,66.4999,-0.020544
51.579,66.4999,-0.016918
51.610,66.4999,-0.022961
51.641,66.4999,-0.019335
51.672,66.4999,-0.016918
51.704,66.4999,-0.015710
51.736,66.4999,-0.019335
51.766,66.4999,-0.015710
51.798,66.4999,-0.015710
51.829,66.4999,-0.020544
51.859,66.4999,-0.020544
51.891,66.4999,-0.022961
51.922,66.4999,-0.021752
51.954,66.4999,-0.022961
51.986,66.4999,-0.020544
52.017,66.4999,-0.020544
52.049,66.4999,-0.020544
52.081,66.4999,-0.021752
52.111,66.4999,-0.018127
52.132,66.4999,-0.016918
52.158,66.4999,-0.016918
52.189,66.4999,-0.018127
52.220,66.4999,-0.018127
52.251,66.4999,-0.019335
52.281,66.4999,-0.020544
52.311,66.4999,-0.020544
52.342,66.4999,-0.019335
52.376,66.4999,-0.018127
52.404,66.4999,-0.018127
52.436,66.4999,-0.020544
52.468,66.4999,-0.018127
52.499,66.4999,-0.022961
52.530,66.4999,-0.018127
52.561,66.4999,-0.018127
52.592,66.4999,-0.024169
52.612,66.4999,-0.018127
52.639,66.4999,-0.021752
52.660,66.4999,-0.022961
52.684,66.4999,-0.016918
52.715,66.4999,-0.016918
52.747,66.4999,-0.018127
52.778,66.4999,-0.014501
52.809,66.4999,-0.013293
52.840,66.4999,-0.016918
52.870,66.4999,-0.020544
52.903,66.4999,-0.021752
52.934,66.4999,-0.019335
52.965,66.4999,-0.019335
52.996,66.4999,-0.018127
53.027,66.4999,-0.013293
53.059,66.4999,-0.014501
53.090,66.4999,-0.019335
53.121,66.4999,-0.021752
53.152,66.4999,-0.014501
53.183,66.4916,-0.014501
53.213,66.4475,-0.018127
53.244,66.4024,-0.010876
53.275,66.3585,-0.009668
53.307,66.3132,-0.003625
53.336,66.2713,-0.003625
53.367,66.2260,0.006042
53.397,66.1837,0.006042
53.428,66.1393,0.008459
53.460,66.0938,0.018127
53.491,66.0489,0.030211
53.521,66.0058,0.030211
53.552,65.9621,0.031420
53.582,65.9181,0.035045
53.613,65.8723,0.037462
53.637,65.8397,0.041087
53.659,65.8065,0.044713
53.682,65.7748,0.044713
53.706,65.7395,0.048338
53.738,65.6942,0.053172
53.768,65.6508,0.060422
53.799,65.6055,0.065256
53.830,65.5616,0.067673
53.862,65.5160,0.070090
53.893,65.4716,0.073715
53.926,65.4242,0.077341
53.955,65.3828,0.078549
53.986,65.3388,0.080966
54.017,65.2949,0.080966
54.048,65.2501,0.090634
54.079,65.2040,0.093050
54.110,65.1604,0.087008
54.141,65.1165,0.089425
54.162,65.0866,0.089425
54.187,65.0514,0.090634
54.217,65.0059,0.089425
54.253,64.9560,0.088217
54.274,64.9254,0.082174
54.295,64.8954,0.082174
54.327,64.8502,0.079758
54.357,64.8067,0.072507
54.388,64.7621,0.044713
54.418,64.7193,0.044713
54.449,64.6743,0.008459
54.480,64.6289,0.006042
54.512,64.5847,-0.001208
54.543,64.5404,0.001208
54.573,64.4964,0.000000
54.594,64.4670,0.000000
54.620,64.4298,0.002417
54.651,64.3843,0.003625
54.682,64.3403,0.001208
54.714,64.2950,-0.001208
54.744,64.2511,0.002417
54.766,64.2196,0.002417
54.792,64.1831,0.003625
54.822,64.1382,-0.003625
54.855,64.0923,-0.001208
54.885,64.0483,0.002417
54.915,64.0060,0.000000
54.947,63.9596,0.003625
54.978,63.9150,0.002417
55.009,63.8698,0.001208
55.040,63.8268,-0.002417
55.070,63.7835,0.001208
55.102,63.7386,0.002417
55.133,63.6937,0.001208
55.164,63.6485,0.002417
55.195,63.6054,-0.001208
55.225,63.5611,-0.001208
55.246,63.5321,-0.001208
55.271,63.4954,-0.001208
55.302,63.4493,-0.001208
55.324,63.4195,0.000000
55.348,63.3849,-0.003625
55.380,63.3381,0.001208
55.412,63.2935,0.000000
55.442,63.2486,0.002417
55.473,63.2059,0.004834
55.504,63.1607,0.000000
55.536,63.1157,0.002417
55.568,63.0694,-0.001208
55.598,63.0265,-0.001208
55.629,62.9822,0.001208
55.661,62.9369,-0.002417
55.692,62.8925,-0.007251
55.722,62.8475,-0.006042
55.755,62.8004,0.002417
55.785,62.7581,-0.004834
55.817,62.7128,-0.004834
55.847,62.6700,0.004834
55.868,62.6403,0.004834
55.893,62.6042,0.001208
55.924,62.5598,-0.001208
55.956,62.5140,0.001208
55.986,62.4699,-0.001208
56.017,62.4253,-0.002417
56.049,62.3806,-0.003625
56.079,62.3365,-0.001208
56.111,62.2903,0.000000
56.143,62.2454,-0.004834
56.174,62.2006,0.006042
56.205,62.1561,0.002417
56.236,62.1121,0.002417
56.267,62.0668,-0.001208
56.298,62.0228,-0.003625
56.329,61.9781,-0.001208
56.360,61.9333,0.000000
56.392,61.8881,0.003625
56.424,61.8414,0.000000
56.455,61.7984,0.000000
56.475,61.7689,0.000000
56.500,61.7314,0.000000
56.531,61.6880,0.001208
56.562,61.6427,0.000000
56.594,61.5970,-0.003625
56.625,61.5527,0.003625
56.656,61.5088,0.000000
56.688,61.4632,-0.003625
56.719,61.4180,0.001208
56.751,61.3724,0.003625
56.783,61.3279,0.001208
56.814,61.2816,0.000000
56.845,61.2384,0.000000
56.875,61.1949,-0.004834
56.906,61.1504,0.000000
56.936,61.1080,-0.002417
56.967,61.0627,0.000000
56.987,61.0345,0.000000
57.013,60.9980,0.001208
57.043,60.9539,0.001208
57.074,60.9096,-0.006042
57.105,60.8650,0.001208
57.136,60.8211,-0.001208
57.167,60.7761,-0.002417
57.198,60.7322,-0.002417
57.229,60.6867,0.000000
57.261,60.6419,0.003625
57.291,60.5971,0.003625
57.323,60.5528,-0.002417
57.354,60.5082,-0.003625
57.384,60.4645,-0.002417
57.416,60.4499,-0.004834
57.446,60.4499,-0.001208
57.467,60.4499,0.001208
57.497,60.4499,0.000000
57.525,60.4499,-0.001208
57.557,60.4499,0.001208
57.587,60.4499,0.000000
57.609,60.4499,0.000000
57.634,60.4499,0.000000
57.664,60.4499,0.001208
57.694,60.4499,-0.002417
57.725,60.4499,0.001208
57.757,60.4499,0.000000
57.788,60.4506,-0.001208
57.818,60.4908,-0.001208
57.849,60.5361,-0.002417
57.880,60.5810,-0.004834
57.911,60.6249,-0.001208
57.942,60.6694,0.002417
57.973,60.7129,0.000000
57.997,60.7495,0.000000
58.023,60.7854,0.000000
58.050,60.8242,0.001208
58.081,60.8686,0.000000
58.101,60.8977,0.000000
58.127,60.9354,0.003625
58.162,60.9843,0.000000
58.182,61.0146,0.000000
58.206,61.0473,0.002417
58.238,61.0931,0.000000
58.267,61.1360,-0.002417
58.298,61.1810,0.000000
58.329,61.2243,-0.002417
58.359,61.2689,-0.002417
58.391,61.3136,-0.006042
58.421,61.3570,-0.007251
58.452,61.4002,-0.003625
58.483,61.4452,-0.003625
58.513,61.4896,-0.003625
58.545,61.5348,-0.003625
58.565,61.5631,-0.003625
58.593,61.6037,-0.002417
58.614,61.6326,0.002417
58.638,61.6679,0.002417
58.668,61.7113,-0.002417
58.700,61.7566,0.000000
58.731,61.8006,0.000000
58.761,61.8455,-0.002417
58.792,61.8883,-0.001208
58.824,61.9335,0.001208
58.856,61.9795,-0.001208
58.885,62.0213,-0.003625
58.917,62.0680,-0.002417
58.948,62.1114,0.000000
58.972,62.1480,-0.001208
58.994,62.1792,-0.006042
59.025,62.2228,-0.004834
59.045,62.2516,-0.004834
59.071,62.2900,-0.003625
59.093,62.3204,-0.002417
59.120,62.3595,-0.001208
59.141,62.3890,-0.001208
59.163,62.4222,0.000000
59.194,62.4656,-0.003625
59.225,62.5100,-0.001208
59.256,62.5538,-0.004834
59.287,62.5988,0.000000
59.318,62.6437,-0.002417
59.349,62.6875,0.000000
59.379,62.7301,-0.001208
59.410,62.7763,-0.004834
59.441,62.8206,-0.002417
59.462,62.8490,-0.001208
59.488,62.8870,-0.002417
59.509,62.9181,-0.002417
59.535,62.9536,-0.002417
59.565,62.9984,-0.004834
59.597,63.0422,-0.003625
59.627,63.0865,-0.003625
59.658,63.1305,-0.006042
59.689,63.1756,0.001208
59.721,63.2209,0.000000
59.752,63.2661,-0.002417
59.783,63.3095,-0.003625
59.814,63.3554,-0.002417
59.846,63.3999,-0.002417
59.877,63.4446,-0.002417
59.908,63.4895,-0.001208
59.939,63.5346,-0.001208
59.971,63.5802,-0.003625
60.002,63.6233,-0.002417
60.022,63.6530,-0.002417
60.048,63.6901,-0.004834
60.069,63.7205,-0.004834
60.094,63.7564,-0.003625
60.125,63.8004,-0.003625
60.156,63.8444,-0.001208
60.186,63.8888,-0.002417
60.218,63.9336,-0.002417
60.247,63.9759,-0.002417
60.278,64.0203,-0.002417
60.309,64.0652,-0.002417
60.340,64.1091,0.001208
60.370,64.1524,-0.001208
60.409,64.2073,0.000000
60.433,64.2420,-0.003625
60.465,64.2888,0.001208
60.496,64.3319,-0.004834
60.518,64.3635,-0.009668
60.543,64.4012,-0.006042
60.564,64.4303,-0.006042
60.589,64.4655,-0.002417
60.620,64.5099,-0.001208
60.651,64.5551,-0.003625
60.682,64.5988,-0.001208
60.705,64.6326,0.002417
60.728,64.6659,0.001208
60.759,64.7095,-0.001208
60.790,64.7545,-0.001208
60.821,64.7985,-0.003625
60.852,64.8442,-0.006042
60.883,64.8873,-0.008459
60.915,64.9343,-0.006042
60.946,64.9772,-0.004834
60.976,65.0210,-0.006042
61.010,65.0693,-0.004834
61.039,65.1123,-0.002417
61.071,65.1579,-0.009668
61.102,65.2015,-0.004834
61.134,65.2489,-0.007251
61.162,65.2880,-0.008459
61.194,65.3327,-0.008459
61.225,65.3785,-0.009668
61.256,65.4231,-0.006042
61.287,65.4666,-0.004834
61.317,65.5114,-0.008459
61.349,65.5551,-0.007251
61.380,65.6006,-0.012084
61.411,65.6444,-0.014501
61.443,65.6904,-0.009668
61.474,65.7356,-0.010876
61.504,65.7789,-0.009668
61.536,65.8247,-0.010876
61.568,65.8700,-0.014501
61.599,65.9150,-0.013293
61.631,65.9605,-0.013293
61.661,66.0038,-0.014501
61.694,66.0515,-0.014501
61.724,66.0944,-0.019335
61.745,66.1250,-0.019335
61.772,66.1624,-0.021752
61.792,66.1923,-0.022961
61.818,66.2280,-0.022961
61.848,66.2720,-0.024169
61.879,66.3160,-0.025377
61.909,66.3597,-0.031420
61.940,66.4041,-0.032628
61.971,66.4482,-0.033837
61.995,66.4499,-0.033837
62.017,66.4499,-0.030211
62.047,66.4499,-0.036253
62.079,66.4499,-0.035045
62.111,66.4499,-0.033837
62.143,66.4499,-0.037462
62.174,66.4499,-0.037462
62.205,66.4499,-0.033837
62.225,66.4499,-0.033837
62.252,66.4499,-0.033837
62.273,66.4499,-0.031420
62.299,66.4499,-0.031420
62.329,66.4499,-0.035045
62.352,66.4499,-0.036253
62.375,66.4499,-0.036253
62.407,66.4499,-0.033837
62.438,66.4499,-0.030211
62.469,66.4499,-0.030211
62.500,66.4499,-0.031420
62.531,66.4499,-0.025377
62.562,66.4499,-0.030211
62.594,66.4499,-0.027794
62.625,66.4499,-0.032628
62.655,66.4499,-0.030211
62.686,66.4499,-0.029003
62.717,66.4499,-0.029003
62.749,66.4499,-0.024169
62.779,66.4499,-0.026586
62.810,66.4499,-0.027794
62.830,66.4499,-0.027794
62.851,66.4499,-0.027794
62.872,66.4499,-0.030211
62.904,66.4499,-0.029003
62.926,66.4499,-0.027794
62.949,66.4499,-0.027794
62.980,66.4499,-0.026586
63.011,66.4499,-0.026586
