Elapsed Time (s),Position (mm),Force (N)
-0.016,66.9501,-0.001704
0.000,66.9501,-0.001704
0.018,66.9501,-0.001704
0.039,66.9501,-0.001704
0.070,66.9501,-0.001704
0.086,66.9501,-0.001704
0.117,66.9501,-0.001704
0.148,66.9501,-0.001704
0.164,66.9501,-0.001704
0.180,66.9501,-0.001704
0.195,66.9501,-0.001704
0.226,66.9501,-0.001704
0.259,66.9501,-0.001704
0.289,66.9501,-0.001713
0.305,66.9501,-0.001713
0.321,66.9501,-0.001713
0.337,66.9501,-0.001713
0.368,66.9501,-0.001713
0.387,66.9501,-0.001713
0.415,66.9501,-0.001713
0.443,66.9501,-0.001713
0.459,66.9501,-0.001713
0.475,66.9501,-0.001713
0.491,66.9501,-0.001713
0.507,66.9501,-0.001713
0.523,66.9501,-0.001713
0.539,66.9501,-0.001723
0.555,66.9501,-0.001723
0.578,66.9501,-0.001723
0.600,66.9501,-0.001723
0.620,66.9501,-0.001723
0.636,66.9501,-0.001723
0.663,66.9501,-0.001723
0.683,66.9501,-0.001723
0.699,66.9501,-0.001723
0.715,66.9501,-0.001723
0.731,66.9501,-0.001723
0.747,66.9501,-0.001723
0.763,66.9501,-0.001723
0.779,66.9501,-0.001723
0.795,66.9501,-0.001760
0.811,66.9501,-0.001760
0.827,66.9501,-0.001760
0.843,66.9501,-0.001760
0.859,66.9501,-0.001760
0.875,66.9501,-0.001760
0.891,66.9501,-0.001760
0.907,66.9501,-0.001760
0.923,66.9501,-0.001760
0.939,66.9501,-0.001760
0.955,66.9501,-0.001760
0.971,66.9501,-0.001760
1.000,66.9501,-0.001760
1.016,66.9501,-0.001760
1.032,66.9501,-0.001723
1.048,66.9501,-0.001723
1.064,66.9501,-0.001723
1.081,66.9501,-0.001723
1.096,66.9501,-0.001723
1.112,66.9501,-0.001723
1.136,66.9501,-0.001723
1.158,66.9501,-0.001723
1.176,66.9501,-0.001723
1.192,66.9501,-0.001723
1.208,66.9501,-0.001723
1.224,66.9501,-0.001723
1.240,66.9501,-0.001723
1.256,66.9501,-0.001723
1.272,66.9501,-0.001723
1.288,66.9501,-0.001666
1.304,66.9501,-0.001666
1.322,66.9501,-0.001666
1.344,66.9501,-0.001666
1.375,66.9501,-0.001666
1.406,66.9501,-0.001666
1.422,66.9501,-0.001666
1.452,66.9501,-0.001666
1.468,66.9501,-0.001666
1.483,66.9501,-0.001666
1.514,66.9501,-0.001676
1.546,66.9501,-0.001676
1.576,66.9501,-0.001676
1.591,66.9501,-0.001676
1.608,66.9501,-0.001676
1.624,66.9501,-0.001676
1.654,66.9501,-0.001676
1.672,66.9501,-0.001676
1.688,66.9501,-0.001676
1.703,66.9501,-0.001676
1.720,66.9501,-0.001676
1.735,66.9501,-0.001676
1.753,66.9501,-0.001676
1.778,66.9501,-0.001694
1.799,66.9501,-0.001694
1.817,66.9501,-0.001694
1.840,66.9501,-0.001694
1.856,66.9501,-0.001694
1.872,66.9501,-0.001694
1.888,66.9501,-0.001694
1.918,66.9501,-0.001694
1.934,66.9501,-0.001694
1.950,66.9501,-0.001694
1.965,66.9501,-0.001694
1.996,66.9501,-0.001694
2.011,66.9501,-0.001694
2.042,66.9501,-0.001694
2.073,66.9501,-0.001713
2.089,66.9501,-0.001713
2.120,66.9501,-0.001713
2.136,66.9501,-0.001713
2.151,66.9501,-0.001713
2.168,66.9501,-0.001713
2.185,66.9501,-0.001713
2.212,66.9501,-0.001713
2.232,66.9501,-0.001713
2.248,66.9501,-0.001713
2.264,66.9501,-0.001713
2.279,66.9501,-0.001657
2.295,66.9501,-0.001657
2.312,66.9501,-0.001657
2.330,66.9501,-0.001657
2.350,66.9501,-0.001657
2.381,66.9501,-0.001657
2.412,66.9501,-0.001657
2.442,66.9501,-0.001657
2.473,66.9501,-0.001657
2.489,66.9501,-0.001657
2.504,66.9501,-0.001657
2.520,66.9501,-0.001657
2.535,66.9501,-0.001657
2.554,66.9501,-0.001657
2.581,66.9501,-0.001657
2.600,66.9501,-0.001657
2.616,66.9501,-0.001657
2.631,66.9501,-0.001657
2.648,66.9501,-0.001657
2.663,66.9501,-0.001657
2.681,66.9501,-0.001657
2.705,66.9501,-0.001657
2.736,66.9501,-0.001657
2.767,66.9501,-0.001657
2.797,66.9501,-0.001676
2.827,66.9501,-0.001676
2.857,66.9501,-0.001676
2.880,66.9501,-0.001676
2.903,66.9501,-0.001676
2.920,66.9501,-0.001676
2.935,66.9501,-0.001676
2.951,66.9501,-0.001676
2.967,66.9501,-0.001676
2.984,66.9501,-0.001676
3.000,66.9501,-0.001676
3.016,66.9501,-0.001647
3.031,66.9501,-0.001647
3.047,66.9501,-0.001647
3.063,66.9501,-0.001647
3.079,66.9501,-0.001647
3.095,66.9501,-0.001647
3.111,66.9501,-0.001647
3.127,66.9501,-0.001647
3.149,66.9501,-0.001647
3.165,66.9501,-0.001647
3.181,66.9501,-0.001647
3.197,66.9501,-0.001647
3.214,66.9501,-0.001647
3.242,66.9501,-0.001647
3.261,66.9501,-0.001694
3.277,66.9501,-0.001694
3.293,66.9501,-0.001694
3.309,66.9501,-0.001694
3.325,66.9501,-0.001694
3.342,66.9501,-0.001694
3.365,66.9501,-0.001694
3.396,66.9501,-0.001694
3.426,66.9501,-0.001694
3.461,66.9501,-0.001694
3.486,66.9501,-0.001694
3.502,66.9501,-0.001694
3.517,66.9501,-0.001694
3.533,66.9501,-0.001713
3.549,66.9501,-0.001713
3.568,66.9501,-0.001713
3.594,66.9501,-0.001713
3.613,66.9501,-0.001713
3.631,66.9501,-0.001713
3.656,66.9501,-0.001713
3.677,66.9501,-0.001713
3.693,66.9501,-0.001713
3.709,66.9501,-0.001713
3.725,66.9501,-0.001713
3.741,66.9501,-0.001713
3.758,66.9501,-0.001713
3.780,66.9501,-0.001779
3.810,66.9501,-0.001779
3.826,66.9501,-0.001779
3.841,66.9501,-0.001779
3.857,66.9501,-0.001779
3.888,66.9501,-0.001779
3.918,66.9501,-0.001779
3.949,66.9501,-0.001779
3.965,66.9501,-0.001779
3.981,66.9501,-0.001779
3.998,66.9501,-0.001779
4.014,66.9501,-0.001779
4.041,66.9501,-0.001892
4.061,66.9501,-0.001892
4.077,66.9501,-0.001892
4.092,66.9501,-0.001892
4.110,66.9500,-0.001892
4.125,66.9497,-0.001892
4.141,66.9492,-0.001892
4.156,66.9486,-0.001892
4.173,66.9477,-0.001892
4.189,66.9466,-0.001892
4.205,66.9454,-0.001892
4.221,66.9440,-0.001892
4.237,66.9424,-0.001892
4.252,66.9405,-0.001864
4.269,66.9385,-0.001864
4.285,66.9363,-0.001864
4.301,66.9340,-0.001864
4.317,66.9311,-0.001864
4.341,66.9269,-0.001864
4.364,66.9224,-0.001864
4.381,66.9190,-0.001864
4.397,66.9154,-0.001864
4.413,66.9115,-0.001864
4.428,66.9077,-0.001864
4.445,66.9036,-0.001864
4.463,66.8982,-0.001864
4.489,66.8908,-0.001864
4.509,66.8850,-0.000913
4.525,66.8798,-0.000913
4.541,66.8744,-0.000913
4.557,66.8688,-0.000913
4.573,66.8630,-0.000913
4.589,66.8573,-0.000913
4.604,66.8515,-0.000913
4.621,66.8449,-0.000913
4.637,66.8385,-0.000913
4.653,66.8319,-0.000913
4.669,66.8251,-0.000913
4.684,66.8181,-0.000913
4.701,66.8107,-0.000913
4.717,66.8030,-0.000913
4.733,66.7956,-0.000913
4.748,66.7880,-0.000913
4.766,66.7791,0.001732
4.785,66.7694,0.001732
4.801,66.7608,0.001732
4.831,66.7446,0.001732
4.847,66.7352,0.001732
4.878,66.7175,0.001732
4.894,66.7081,0.001732
4.910,66.6981,0.001732
4.925,66.6889,0.001732
4.941,66.6781,0.001732
4.963,66.6643,0.001732
4.991,66.6457,0.001732
5.016,66.6282,0.006476
5.036,66.6141,0.006476
5.052,66.6024,0.006476
5.068,66.5907,0.006476
5.085,66.5786,0.006476
5.101,66.5666,0.006476
5.116,66.5546,0.006476
5.132,66.5420,0.006476
5.150,66.5277,0.006476
5.173,66.5094,0.006476
5.203,66.4847,0.006476
5.219,66.4707,0.006476
5.249,66.4442,0.006476
5.279,66.4184,0.013884
5.295,66.4033,0.013884
5.322,66.3786,0.013884
5.338,66.3641,0.013884
5.354,66.3493,0.013884
5.369,66.3343,0.013884
5.386,66.3187,0.013884
5.401,66.3033,0.013884
5.417,66.2872,0.013884
5.433,66.2716,0.013884
5.450,66.2534,0.013884
5.481,66.2213,0.013884
5.497,66.2050,0.024324
5.515,66.1855,0.024324
5.543,66.1558,0.024324
5.561,66.1354,0.024324
5.577,66.1175,0.024324
5.593,66.0993,0.024324
5.610,66.0808,0.024324
5.626,66.0616,0.024324
5.643,66.0415,0.024324
5.659,66.0235,0.024324
5.681,65.9962,0.024324
5.712,65.9584,0.024324
5.742,65.9223,0.024324
5.773,65.8829,0.024324
5.804,65.8440,0.038462
5.819,65.8233,0.038462
5.850,65.7835,0.038462
5.866,65.7612,0.038462
5.881,65.7400,0.038462
5.897,65.7198,0.038462
5.913,65.6977,0.038462
5.930,65.6736,0.038462
5.958,65.6346,0.038462
5.977,65.6079,0.038462
5.993,65.5846,0.038462
6.009,65.5618,0.038462
6.025,65.5389,0.056197
6.041,65.5155,0.056197
6.057,65.4912,0.056197
6.073,65.4673,0.056197
6.089,65.4438,0.056197
6.105,65.4196,0.056197
6.121,65.3940,0.056197
6.137,65.3698,0.056197
6.153,65.3457,0.056197
6.169,65.3207,0.056197
6.186,65.2939,0.056197
6.201,65.2694,0.056197
6.217,65.2446,0.056197
6.234,65.2162,0.056197
6.254,65.1830,0.056197
6.280,65.1406,0.056197
6.297,65.1134,0.043969
6.313,65.0856,0.043969
6.329,65.0593,0.043969
6.345,65.0323,0.043969
6.361,65.0032,0.043969
6.377,64.9775,0.043969
6.393,64.9487,0.043969
6.409,64.9219,0.043969
6.425,64.8938,0.043969
6.442,64.8634,0.043969
6.458,64.8351,0.043969
6.473,64.8086,0.043969
6.489,64.7786,0.043969
6.505,64.7495,0.043969
6.521,64.7209,0.010665
6.537,64.6915,0.010665
6.553,64.6612,0.010665
6.569,64.6310,0.010665
6.585,64.6018,0.010665
6.601,64.5719,0.010665
6.616,64.5414,0.010665
6.633,64.5103,0.010665
6.649,64.4774,0.010665
6.665,64.4489,0.010665
6.681,64.4176,0.010665
6.697,64.3859,0.010665
6.713,64.3539,0.010665
6.729,64.3224,0.010665
6.745,64.2893,0.010665
6.761,64.2577,0.010665
6.777,64.2258,-0.000697
6.793,64.1937,-0.000697
6.809,64.1598,-0.000697
6.825,64.1274,-0.000697
6.841,64.0946,-0.000697
6.857,64.0603,-0.000697
6.874,64.0259,-0.000697
6.889,63.9941,-0.000697
6.912,63.9452,-0.000697
6.928,63.9098,-0.000697
6.944,63.8754,-0.000697
6.960,63.8429,-0.000697
6.977,63.8068,-0.000697
6.992,63.7745,-0.000697
7.008,63.7422,-0.000555
7.024,63.7087,-0.000555
7.040,63.6760,-0.000555
7.056,63.6434,-0.000555
7.072,63.6106,-0.000555
7.088,63.5791,-0.000555
7.106,63.5418,-0.000555
7.131,63.4932,-0.000555
7.152,63.4514,-0.000555
7.168,63.4198,-0.000555
7.184,63.3885,-0.000555
7.199,63.3586,-0.000555
7.216,63.3270,-0.000555
7.232,63.2954,-0.000555
7.248,63.2670,-0.000518
7.264,63.2362,-0.000518
7.280,63.2058,-0.000518
7.296,63.1753,-0.000518
7.311,63.1474,-0.000518
7.328,63.1170,-0.000518
7.344,63.0877,-0.000518
7.359,63.0595,-0.000518
7.375,63.0304,-0.000518
7.391,63.0022,-0.000518
7.408,62.9729,-0.000518
7.432,62.9310,-0.000518
7.448,62.9013,-0.000518
7.463,62.8754,-0.000518
7.480,62.8469,-0.000518
7.496,62.8201,-0.000508
7.511,62.7938,-0.000508
7.527,62.7664,-0.000508
7.543,62.7400,-0.000508
7.560,62.7133,-0.000508
7.576,62.6863,-0.000508
7.591,62.6607,-0.000508
7.607,62.6347,-0.000508
7.624,62.6079,-0.000508
7.639,62.5833,-0.000508
7.656,62.5557,-0.000508
7.674,62.5264,-0.000508
7.705,62.4804,-0.000508
7.721,62.4550,-0.000508
7.751,62.4082,-0.000395
7.767,62.3849,-0.000395
7.784,62.3602,-0.000395
7.800,62.3370,-0.000395
7.815,62.3142,-0.000395
7.832,62.2893,-0.000395
7.854,62.2575,-0.000395
7.875,62.2281,-0.000395
7.895,62.1994,-0.000395
7.911,62.1768,-0.000395
7.928,62.1546,-0.000395
7.944,62.1326,-0.000395
7.968,62.0989,-0.000395
7.984,62.0775,-0.000395
8.001,62.0561,-0.000320
8.016,62.0354,-0.000320
8.033,62.0136,-0.000320
8.048,61.9937,-0.000320
8.064,61.9734,-0.000320
8.080,61.9529,-0.000320
8.098,61.9311,-0.000320
8.123,61.8990,-0.000320
8.144,61.8734,-0.000320
8.161,61.8536,-0.000320
8.176,61.8352,-0.000320
8.192,61.8164,-0.000320
8.209,61.7973,-0.000320
8.225,61.7783,-0.000320
8.240,61.7602,-0.000320
8.256,61.7427,-0.000329
8.273,61.7231,-0.000329
8.289,61.7056,-0.000329
8.305,61.6885,-0.000329
8.320,61.6720,-0.000329
8.337,61.6532,-0.000329
8.353,61.6365,-0.000329
8.368,61.6210,-0.000329
8.384,61.6043,-0.000329
8.401,61.5873,-0.000329
8.416,61.5713,-0.000329
8.433,61.5549,-0.000329
8.448,61.5394,-0.000329
8.464,61.5239,-0.000329
8.481,61.5082,-0.000329
8.497,61.4931,-0.000329
8.523,61.4678,-0.000329
8.540,61.4527,-0.000329
8.555,61.4387,-0.000329
8.571,61.4246,-0.000329
8.588,61.4095,-0.000329
8.603,61.3961,-0.000329
8.619,61.3827,-0.000329
8.635,61.3690,-0.000329
8.657,61.3498,-0.000329
8.672,61.3383,-0.000329
8.694,61.3203,-0.000329
8.715,61.3035,-0.000329
8.731,61.2915,-0.000329
8.747,61.2794,-0.000292
8.764,61.2667,-0.000292
8.779,61.2554,-0.000292
8.796,61.2438,-0.000292
8.811,61.2324,-0.000292
8.828,61.2201,-0.000292
8.848,61.2067,-0.000292
8.879,61.1863,-0.000292
8.894,61.1757,-0.000292
8.924,61.1569,-0.000292
8.955,61.1378,-0.000292
8.971,61.1285,-0.000292
8.987,61.1194,-0.000292
9.005,61.1092,-0.000292
9.032,61.0939,-0.000292
9.063,61.0773,-0.000367
9.080,61.0693,-0.000367
9.095,61.0615,-0.000367
9.111,61.0535,-0.000367
9.133,61.0431,-0.000367
9.159,61.0311,-0.000367
9.175,61.0242,-0.000367
9.191,61.0177,-0.000367
9.208,61.0105,-0.000367
9.232,61.0011,-0.000367
9.263,60.9891,-0.000367
9.293,60.9785,-0.000518
9.309,60.9733,-0.000518
9.324,60.9679,-0.000518
9.355,60.9585,-0.000518
9.387,60.9495,-0.000518
9.417,60.9415,-0.000518
9.448,60.9342,-0.000518
9.478,60.9276,-0.000518
9.495,60.9243,-0.000518
9.511,60.9214,-0.000518
9.527,60.9187,-0.000489
9.543,60.9161,-0.000489
9.559,60.9136,-0.000489
9.575,60.9115,-0.000489
9.591,60.9094,-0.000489
9.614,60.9068,-0.000489
9.631,60.9053,-0.000489
9.647,60.9039,-0.000489
9.663,60.9028,-0.000489
9.687,60.9015,-0.000489
9.710,60.9006,-0.000489
9.727,60.9002,-0.000489
9.744,60.9001,-0.000489
9.771,60.9001,-0.000452
9.791,60.9001,-0.000452
9.807,60.9001,-0.000452
9.823,60.9001,-0.000452
9.839,60.9001,-0.000452
9.854,60.9001,-0.000452
9.871,60.9001,-0.000452
9.887,60.9001,-0.000452
9.903,60.9001,-0.000452
9.919,60.9001,-0.000452
9.935,60.9001,-0.000452
9.951,60.9001,-0.000452
9.966,60.9001,-0.000452
9.982,60.9001,-0.000452
10.000,60.9001,-0.000452
10.015,60.9001,-0.000377
10.030,60.9001,-0.000377
10.055,60.9001,-0.000377
10.081,60.9001,-0.000377
10.109,60.9001,-0.000377
10.127,60.9001,-0.000377
10.143,60.9001,-0.000377
10.168,60.9001,-0.000377
10.191,60.9001,-0.000377
10.215,60.9001,-0.000377
10.232,60.9001,-0.000377
10.248,60.9002,-0.000377
10.263,60.9006,-0.000339
10.280,60.9011,-0.000339
10.297,60.9020,-0.000339
10.323,60.9037,-0.000339
10.344,60.9053,-0.000339
10.361,60.9070,-0.000339
10.385,60.9096,-0.000339
10.417,60.9137,-0.000339
10.447,60.9185,-0.000339
10.477,60.9239,-0.000339
10.493,60.9270,-0.000339
10.524,60.9335,-0.000489
10.540,60.9372,-0.000489
10.556,60.9411,-0.000489
10.571,60.9450,-0.000489
10.587,60.9491,-0.000489
10.603,60.9538,-0.000489
10.633,60.9626,-0.000489
10.649,60.9676,-0.000489
10.665,60.9729,-0.000489
10.695,60.9834,-0.000489
10.721,60.9925,-0.000489
10.737,60.9987,-0.000489
10.752,61.0046,-0.000537
10.769,61.0115,-0.000537
10.784,61.0177,-0.000537
10.801,61.0247,-0.000537
10.816,61.0317,-0.000537
10.833,61.0394,-0.000537
10.849,61.0467,-0.000537
10.865,61.0541,-0.000537
10.880,61.0617,-0.000537
10.899,61.0717,-0.000537
10.928,61.0861,-0.000537
10.944,61.0952,-0.000537
10.960,61.1039,-0.000537
10.977,61.1130,-0.000537
10.993,61.1221,-0.000537
11.009,61.1314,-0.000461
11.025,61.1411,-0.000461
11.041,61.1510,-0.000461
11.057,61.1608,-0.000461
11.073,61.1712,-0.000461
11.089,61.1814,-0.000461
11.104,61.1914,-0.000461
11.120,61.2025,-0.000461
11.138,61.2141,-0.000461
11.160,61.2296,-0.000461
11.191,61.2517,-0.000461
11.222,61.2749,-0.000461
11.238,61.2874,-0.000461
11.260,61.3039,-0.000461
11.276,61.3164,-0.000461
11.291,61.3288,-0.000452
11.307,61.3422,-0.000452
11.323,61.3551,-0.000452
11.339,61.3685,-0.000452
11.355,61.3818,-0.000452
11.371,61.3957,-0.000452
11.388,61.4105,-0.000452
11.403,61.4237,-0.000452
11.419,61.4384,-0.000452
11.435,61.4531,-0.000452
11.452,61.4679,-0.000452
11.467,61.4823,-0.000452
11.483,61.4978,-0.000452
11.499,61.5128,-0.000452
11.515,61.5284,-0.000452
11.532,61.5453,-0.000461
11.563,61.5760,-0.000461
11.579,61.5928,-0.000461
11.595,61.6085,-0.000461
11.611,61.6255,-0.000461
11.628,61.6437,-0.000461
11.658,61.6756,-0.000461
11.675,61.6942,-0.000461
11.693,61.7132,-0.000461
11.720,61.7436,-0.000461
11.739,61.7655,-0.000461
11.757,61.7860,-0.000461
11.782,61.8156,-0.000461
11.803,61.8408,-0.000377
11.820,61.8608,-0.000377
11.844,61.8904,-0.000377
11.860,61.9092,-0.000377
11.891,61.9483,-0.000377
11.906,61.9674,-0.000377
11.937,62.0077,-0.000377
11.968,62.0469,-0.000377
11.983,62.0678,-0.000377
12.014,62.1093,-0.000320
12.045,62.1516,-0.000320
12.076,62.1950,-0.000320
12.091,62.2156,-0.000320
12.107,62.2394,-0.000320
12.124,62.2625,-0.000320
12.139,62.2841,-0.000320
12.156,62.3090,-0.000320
12.173,62.3331,-0.000320
12.199,62.3725,-0.000320
12.219,62.4025,-0.000320
12.235,62.4267,-0.000320
12.251,62.4510,-0.000320
12.267,62.4749,-0.000367
12.283,62.5001,-0.000367
12.299,62.5257,-0.000367
12.315,62.5504,-0.000367
12.331,62.5754,-0.000367
12.355,62.6150,-0.000367
12.371,62.6396,-0.000367
12.386,62.6651,-0.000367
12.402,62.6905,-0.000367
12.418,62.7182,-0.000367
12.434,62.7444,-0.000367
12.450,62.7711,-0.000367
12.466,62.7982,-0.000367
12.483,62.8282,-0.000367
12.511,62.8758,-0.000442
12.530,62.9082,-0.000442
12.547,62.9392,-0.000442
12.573,62.9839,-0.000442
12.594,63.0204,-0.000442
12.610,63.0525,-0.000442
12.628,63.0822,-0.000442
12.650,63.1232,-0.000442
12.680,63.1792,-0.000442
12.696,63.2088,-0.000442
12.712,63.2386,-0.000442
12.743,63.2976,-0.000442
12.773,63.3548,-0.000442
12.804,63.4129,-0.000480
12.834,63.4723,-0.000480
12.852,63.5110,-0.000480
12.878,63.5598,-0.000480
12.894,63.5928,-0.000480
12.910,63.6255,-0.000480
12.926,63.6574,-0.000480
12.941,63.6907,-0.000480
12.958,63.7225,-0.000480
12.975,63.7598,-0.000480
13.005,63.8217,-0.000593
13.022,63.8572,-0.000593
13.038,63.8918,-0.000593
13.054,63.9260,-0.000593
13.070,63.9599,-0.000593
13.086,63.9916,-0.000593
13.103,64.0282,-0.000593
13.118,64.0596,-0.000593
13.134,64.0923,-0.000593
13.150,64.1243,-0.000593
13.169,64.1681,-0.000593
13.194,64.2156,-0.000593
13.214,64.2548,-0.000593
13.232,64.2905,-0.000593
13.253,64.3326,-0.000593
13.284,64.3942,-0.000687
13.315,64.4536,-0.000687
13.331,64.4834,-0.000687
13.347,64.5139,-0.000687
13.377,64.5709,-0.000687
13.405,64.6230,-0.000687
13.420,64.6522,-0.000687
13.436,64.6816,-0.000687
13.452,64.7106,-0.000687
13.469,64.7405,-0.000687
13.485,64.7691,-0.000687
13.500,64.7982,-0.000725
13.517,64.8263,-0.000725
13.534,64.8561,-0.000725
13.563,64.9082,-0.000725
13.581,64.9378,-0.000725
13.597,64.9661,-0.000725
13.612,64.9922,-0.000725
13.628,65.0202,-0.000725
13.644,65.0462,-0.000725
13.661,65.0741,-0.000725
13.676,65.0993,-0.000725
13.692,65.1256,-0.000725
13.709,65.1535,-0.000725
13.729,65.1867,-0.000725
13.751,65.2197,-0.000725
13.781,65.2699,-0.000838
13.797,65.2935,-0.000838
13.813,65.3179,-0.000838
13.843,65.3648,-0.000838
13.859,65.3890,-0.000838
13.890,65.4341,-0.000838
13.906,65.4586,-0.000838
13.929,65.4929,-0.000838
13.946,65.5167,-0.000838
13.962,65.5403,-0.000838
13.977,65.5620,-0.000838
13.993,65.5845,-0.000838
14.009,65.6075,-0.000941
14.026,65.6310,-0.000941
14.041,65.6518,-0.000941
14.057,65.6736,-0.000941
14.073,65.6948,-0.000941
14.089,65.7165,-0.000941
14.105,65.7383,-0.000941
14.121,65.7596,-0.000941
14.138,65.7805,-0.000941
14.153,65.8016,-0.000941
14.169,65.8212,-0.000941
14.186,65.8418,-0.000941
14.201,65.8615,-0.000941
14.218,65.8830,-0.000941
14.247,65.9180,-0.001083
14.265,65.9408,-0.001083
14.281,65.9600,-0.001083
14.297,65.9787,-0.001083
14.314,65.9978,-0.001083
14.329,66.0164,-0.001083
14.345,66.0348,-0.001083
14.361,66.0525,-0.001083
14.377,66.0704,-0.001083
14.393,66.0886,-0.001083
14.409,66.1067,-0.001083
14.425,66.1235,-0.001083
14.441,66.1411,-0.001083
14.457,66.1583,-0.001083
14.474,66.1753,-0.001083
14.489,66.1913,-0.001083
14.505,66.2082,-0.001148
14.521,66.2247,-0.001148
14.537,66.2407,-0.001148
14.553,66.2563,-0.001148
14.569,66.2720,-0.001148
14.586,66.2876,-0.001148
14.601,66.3024,-0.001148
14.617,66.3186,-0.001148
14.634,66.3338,-0.001148
14.650,66.3488,-0.001148
14.679,66.3747,-0.001148
14.697,66.3909,-0.001148
14.713,66.4049,-0.001148
14.729,66.4180,-0.001148
14.745,66.4315,-0.001148
14.761,66.4454,-0.001148
14.777,66.4587,-0.001148
14.793,66.4710,-0.001195
14.809,66.4839,-0.001195
14.825,66.4969,-0.001195
14.841,66.5093,-0.001195
14.857,66.5210,-0.001195
14.873,66.5330,-0.001195
14.889,66.5454,-0.001195
14.905,66.5568,-0.001195
14.921,66.5683,-0.001195
14.937,66.5791,-0.001195
14.953,66.5903,-0.001195
14.970,66.6021,-0.001195
15.000,66.6218,-0.001195
15.016,66.6318,-0.001195
15.031,66.6420,-0.001280
15.047,66.6513,-0.001280
15.064,66.6617,-0.001280
15.080,66.6712,-0.001280
15.095,66.6800,-0.001280
15.111,66.6890,-0.001280
15.129,66.6994,-0.001280
15.157,66.7142,-0.001280
15.175,66.7239,-0.001280
15.191,66.7323,-0.001280
15.207,66.7397,-0.001280
15.223,66.7480,-0.001280
15.239,66.7554,-0.001280
15.255,66.7629,-0.001280
15.271,66.7698,-0.001280
15.287,66.7767,-0.001356
15.303,66.7838,-0.001356
15.319,66.7905,-0.001356
15.335,66.7968,-0.001356
15.351,66.8029,-0.001356
15.367,66.8091,-0.001356
15.383,66.8149,-0.001356
15.399,66.8206,-0.001356
15.414,66.8258,-0.001356
15.431,66.8311,-0.001356
15.447,66.8366,-0.001356
15.463,66.8411,-0.001356
15.479,66.8458,-0.001356
15.494,66.8502,-0.001356
15.522,66.8574,-0.001431
15.538,66.8614,-0.001431
15.554,66.8654,-0.001431
15.570,66.8688,-0.001431
15.586,66.8722,-0.001431
15.602,66.8753,-0.001431
15.618,66.8783,-0.001431
15.634,66.8811,-0.001431
15.649,66.8837,-0.001431
15.666,66.8861,-0.001431
15.682,66.8886,-0.001431
15.698,66.8904,-0.001431
15.714,66.8923,-0.001431
15.730,66.8939,-0.001431
15.747,66.8955,-0.001431
15.762,66.8966,-0.001431
15.794,66.8985,-0.001581
15.810,66.8992,-0.001581
15.825,66.8997,-0.001581
15.843,66.9000,-0.001581
15.859,66.9001,-0.001581
15.880,66.9001,-0.001581
15.903,66.9001,-0.001581
15.921,66.9001,-0.001581
15.943,66.9001,-0.001581
15.965,66.9001,-0.001581
15.985,66.9001,-0.001581
16.003,66.9001,-0.001581
16.026,66.9001,-0.001581
16.056,66.9001,-0.001751
16.087,66.9001,-0.001751
16.103,66.9001,-0.001751
16.133,66.9001,-0.001751
16.164,66.9001,-0.001751
16.194,66.9001,-0.001751
16.210,66.9001,-0.001751
16.227,66.9001,-0.001751
16.257,66.9001,-0.001751
16.274,66.9001,-0.001751
16.290,66.9001,-0.001751
16.318,66.9001,-0.001751
16.337,66.9001,-0.001751
16.353,66.9001,-0.001751
16.369,66.9001,-0.001751
16.386,66.9001,-0.001751
16.401,66.9001,-0.001751
16.418,66.9001,-0.001751
16.434,66.9001,-0.001751
16.449,66.9001,-0.001751
16.466,66.9001,-0.001751
16.484,66.9001,-0.001751
16.500,66.9001,-0.001751
16.520,66.9001,-0.001751
16.537,66.9001,-0.001713
16.567,66.9001,-0.001713
16.592,66.9001,-0.001713
16.609,66.9001,-0.001713
16.624,66.9001,-0.001713
16.640,66.9001,-0.001713
16.657,66.9001,-0.001713
16.672,66.9001,-0.001713
16.689,66.9001,-0.001713
16.704,66.9001,-0.001713
16.722,66.9001,-0.001713
16.752,66.9001,-0.001694
16.768,66.9001,-0.001694
16.784,66.9001,-0.001694
16.800,66.9001,-0.001694
16.817,66.9001,-0.001694
16.832,66.9001,-0.001694
16.850,66.9001,-0.001694
16.875,66.9001,-0.001694
16.891,66.9001,-0.001694
16.921,66.9001,-0.001694
16.951,66.9001,-0.001694
16.981,66.9001,-0.001694
16.997,66.9001,-0.001694
17.028,66.9001,-0.001713
17.060,66.9001,-0.001713
17.090,66.9001,-0.001713
17.106,66.9001,-0.001713
17.136,66.9001,-0.001713
17.153,66.9001,-0.001713
17.183,66.9001,-0.001713
17.200,66.9001,-0.001713
17.217,66.9001,-0.001713
17.232,66.9001,-0.001713
17.248,66.9001,-0.001704
17.264,66.9001,-0.001704
17.286,66.9001,-0.001704
17.309,66.9001,-0.001704
17.328,66.9001,-0.001704
17.344,66.9001,-0.001704
17.360,66.9001,-0.001704
17.376,66.9001,-0.001704
17.392,66.9001,-0.001704
17.408,66.9001,-0.001704
17.425,66.9001,-0.001704
17.440,66.9001,-0.001704
17.456,66.9001,-0.001704
17.473,66.9001,-0.001704
17.488,66.9001,-0.001704
17.504,66.9001,-0.001713
17.520,66.9001,-0.001713
17.536,66.9001,-0.001713
17.552,66.9001,-0.001713
17.568,66.9001,-0.001713
17.584,66.9001,-0.001713
17.600,66.9001,-0.001713
17.616,66.9001,-0.001713
17.632,66.9001,-0.001713
17.649,66.9001,-0.001713
17.674,66.9001,-0.001713
17.696,66.9001,-0.001713
17.711,66.9001,-0.001713
17.727,66.9001,-0.001713
17.742,66.9001,-0.001713
17.758,66.9001,-0.001751
17.788,66.9001,-0.001751
17.819,66.9001,-0.001751
17.835,66.9001,-0.001751
17.866,66.9001,-0.001751
17.881,66.9001,-0.001751
17.897,66.9001,-0.001751
17.913,66.9001,-0.001751
17.929,66.9001,-0.001751
17.945,66.9001,-0.001751
17.961,66.9001,-0.001751
17.983,66.9001,-0.001751
18.006,66.9001,-0.001751
18.025,66.9001,-0.001666
18.042,66.9001,-0.001666
18.067,66.9001,-0.001666
18.083,66.9001,-0.001666
18.099,66.9001,-0.001666
18.130,66.9001,-0.001666
18.161,66.9001,-0.001666
18.192,66.9001,-0.001666
18.207,66.9001,-0.001666
18.228,66.9001,-0.001666
18.244,66.9001,-0.001666
18.260,66.9001,-0.001676
18.276,66.9001,-0.001676
18.293,66.9001,-0.001676
18.308,66.9001,-0.001676
18.324,66.9001,-0.001676
18.340,66.9001,-0.001676
18.356,66.9001,-0.001676
18.372,66.9001,-0.001676
18.388,66.9001,-0.001676
18.404,66.9001,-0.001676
18.420,66.9001,-0.001676
18.436,66.9001,-0.001676
18.451,66.9001,-0.001676
18.469,66.9001,-0.001676
18.484,66.9001,-0.001676
18.501,66.9001,-0.001704
18.531,66.9001,-0.001704
18.553,66.9001,-0.001704
18.577,66.9001,-0.001704
18.596,66.9001,-0.001704
18.612,66.9001,-0.001704
18.628,66.9001,-0.001704
18.644,66.9001,-0.001704
18.660,66.9001,-0.001704
18.676,66.9001,-0.001704
18.693,66.9001,-0.001704
18.708,66.9001,-0.001704
18.724,66.9001,-0.001704
18.740,66.9001,-0.001704
18.756,66.9001,-0.001704
18.778,66.9001,-0.001694
18.794,66.9001,-0.001694
18.810,66.9001,-0.001694
18.826,66.9001,-0.001694
18.843,66.9001,-0.001694
18.869,66.9001,-0.001694
18.890,66.9001,-0.001694
18.906,66.9001,-0.001694
18.923,66.9001,-0.001694
18.946,66.9001,-0.001694
18.976,66.9001,-0.001694
18.992,66.9001,-0.001694
19.031,66.9001,-0.001694
19.050,66.9001,-0.001694
19.065,66.9001,-0.001694
19.082,66.9001,-0.001694
19.097,66.9001,-0.001694
19.114,66.9001,-0.001694
19.130,66.9001,-0.001694
19.149,66.9001,-0.001694
19.177,66.9001,-0.001694
19.194,66.9001,-0.001694
19.210,66.9001,-0.001694
19.239,66.9001,-0.001694
19.258,66.9001,-0.001638
19.274,66.9001,-0.001638
19.290,66.9001,-0.001638
19.321,66.9001,-0.001638
19.337,66.9001,-0.001638
19.357,66.9001,-0.001638
19.379,66.9001,-0.001638
19.402,66.9001,-0.001638
19.426,66.9001,-0.001638
19.442,66.9001,-0.001638
19.458,66.9001,-0.001638
19.488,66.9001,-0.001638
19.506,66.9001,-0.001638
19.536,66.9001,-0.001610
19.567,66.9001,-0.001610
19.582,66.9001,-0.001610
19.598,66.9001,-0.001610
19.613,66.9001,-0.001610
19.645,66.9001,-0.001610
19.675,66.9001,-0.001610
19.706,66.9001,-0.001610
19.736,66.9001,-0.001610
19.753,66.9001,-0.001610
19.783,66.9001,-0.001676
19.800,66.9001,-0.001676
19.817,66.9001,-0.001676
19.832,66.9001,-0.001676
19.849,66.9001,-0.001676
19.875,66.9001,-0.001676
19.891,66.9001,-0.001676
19.907,66.9001,-0.001676
19.937,66.9001,-0.001676
19.958,66.9001,-0.001676
19.985,66.9001,-0.001676
20.002,66.9001,-0.001676
20.018,66.9001,-0.001676
20.034,66.9001,-0.001779
20.049,66.9001,-0.001779
20.066,66.9001,-0.001779
20.081,66.9001,-0.001779
20.098,66.9001,-0.001779
20.113,66.9001,-0.001779
20.131,66.9001,-0.001779
20.154,66.9001,-0.001779
20.184,66.9001,-0.001779
20.215,66.9001,-0.001779
20.230,66.9001,-0.001779
20.261,66.9001,-0.001779
20.276,66.9001,-0.001836
20.306,66.9001,-0.001836
20.321,66.9001,-0.001836
20.337,66.9001,-0.001836
20.353,66.9001,-0.001836
20.371,66.9001,-0.001836
20.398,66.9001,-0.001836
20.417,66.9001,-0.001836
20.434,66.9001,-0.001836
20.449,66.9001,-0.001836
20.465,66.9001,-0.001836
20.482,66.9000,-0.001836
20.498,66.8996,-0.001836
20.513,66.8991,-0.001864
20.529,66.8984,-0.001864
20.545,66.8975,-0.001864
20.562,66.8964,-0.001864
20.577,66.8951,-0.001864
20.593,66.8937,-0.001864
20.610,66.8919,-0.001864
20.625,66.8901,-0.001864
20.641,66.8879,-0.001864
20.657,66.8857,-0.001864
20.673,66.8832,-0.001864
20.689,66.8806,-0.001864
20.705,66.8778,-0.001864
20.721,66.8747,-0.001864
20.738,66.8713,-0.001864
20.769,66.8644,-0.001506
20.786,66.8605,-0.001506
20.801,66.8566,-0.001506
20.817,66.8525,-0.001506
20.833,66.8481,-0.001506
20.850,66.8431,-0.001506
20.877,66.8350,-0.001506
20.897,66.8285,-0.001506
20.913,66.8231,-0.001506
20.929,66.8175,-0.001506
20.945,66.8119,-0.001506
20.968,66.8029,-0.001506
20.984,66.7968,-0.001506
21.000,66.7907,0.000273
21.016,66.7836,0.000273
21.039,66.7735,0.000273
21.064,66.7628,0.000273
21.080,66.7555,0.000273
21.096,66.7482,0.000273
21.112,66.7402,0.000273
21.128,66.7323,0.000273
21.144,66.7241,0.000273
21.160,66.7156,0.000273
21.176,66.7070,0.000273
21.192,66.6986,0.000273
21.208,66.6896,0.000273
21.224,66.6801,0.000273
21.240,66.6712,0.000273
21.256,66.6616,0.004010
21.272,66.6519,0.004010
21.289,66.6413,0.004010
21.304,66.6317,0.004010
21.320,66.6214,0.004010
21.337,66.6104,0.004010
21.362,66.5936,0.004010
21.386,66.5769,0.004010
21.417,66.5554,0.004010
21.447,66.5332,0.004010
21.464,66.5198,0.004010
21.480,66.5081,0.004010
21.496,66.4953,0.004010
21.520,66.4767,0.010016
21.536,66.4639,0.010016
21.552,66.4506,0.010016
21.567,66.4376,0.010016
21.584,66.4234,0.010016
21.600,66.4097,0.010016
21.616,66.3962,0.010016
21.632,66.3824,0.010016
21.648,66.3675,0.010016
21.664,66.3530,0.010016
21.680,66.3383,0.010016
21.696,66.3241,0.010016
21.714,66.3073,0.010016
21.739,66.2821,0.010016
21.760,66.2626,0.018826
21.776,66.2469,0.018826
21.792,66.2305,0.018826
21.808,66.2150,0.018826
21.824,66.1981,0.018826
21.839,66.1821,0.018826
21.856,66.1646,0.018826
21.872,66.1483,0.018826
21.888,66.1310,0.018826
21.904,66.1129,0.018826
21.920,66.0962,0.018826
21.935,66.0784,0.018826
21.952,66.0591,0.018826
21.973,66.0352,0.018826
22.002,66.0029,0.018826
22.032,65.9665,0.030687
22.048,65.9479,0.030687
22.074,65.9163,0.030687
22.094,65.8915,0.030687
22.110,65.8722,0.030687
22.126,65.8515,0.030687
22.156,65.8137,0.030687
22.171,65.7939,0.030687
22.187,65.7724,0.030687
22.217,65.7337,0.030687
22.233,65.7136,0.030687
22.249,65.6922,0.030687
22.264,65.6702,0.030687
22.281,65.6480,0.030687
22.296,65.6261,0.046219
22.313,65.6042,0.046219
22.331,65.5775,0.046219
22.356,65.5432,0.046219
22.377,65.5130,0.046219
22.394,65.4865,0.046219
22.409,65.4652,0.046219
22.424,65.4425,0.046219
22.441,65.4188,0.046219
22.457,65.3938,0.046219
22.472,65.3704,0.046219
22.489,65.3455,0.046219
22.505,65.3209,0.046219
22.521,65.2955,0.046219
22.537,65.2711,0.046219
22.553,65.2455,0.050615
22.569,65.2188,0.050615
22.584,65.1950,0.050615
22.600,65.1696,0.050615
22.631,65.1188,0.050615
22.649,65.0897,0.050615
22.680,65.0384,0.050615
22.696,65.0095,0.050615
22.726,64.9601,0.050615
22.742,64.9311,0.050615
22.760,64.9015,0.050615
22.790,64.8493,0.022705
22.807,64.8196,0.022705
22.822,64.7915,0.022705
22.838,64.7628,0.022705
22.855,64.7329,0.022705
22.871,64.7028,0.022705
22.892,64.6621,0.022705
22.915,64.6233,0.022705
22.935,64.5851,0.022705
22.951,64.5562,0.022705
22.967,64.5246,0.022705
22.982,64.4964,0.022705
22.999,64.4639,0.022705
23.015,64.4343,0.022705
23.031,64.4033,0.022705
23.046,64.3728,-0.000706
23.062,64.3413,-0.000706
23.078,64.3090,-0.000706
23.094,64.2780,-0.000706
23.111,64.2440,-0.000706
23.127,64.2125,-0.000706
23.142,64.1814,-0.000706
23.158,64.1469,-0.000706
23.182,64.0988,-0.000706
23.204,64.0535,-0.000706
23.224,64.0126,-0.000706
23.245,63.9688,-0.000706
23.262,63.9340,-0.000706
23.277,63.9010,-0.000574
23.293,63.8660,-0.000574
23.309,63.8323,-0.000574
23.326,63.7964,-0.000574
23.341,63.7643,-0.000574
23.358,63.7306,-0.000574
23.373,63.6972,-0.000574
23.389,63.6645,-0.000574
23.405,63.6320,-0.000574
23.421,63.5991,-0.000574
23.437,63.5667,-0.000574
23.453,63.5344,-0.000574
23.470,63.5014,-0.000574
23.486,63.4682,-0.000574
23.503,63.4355,-0.000574
23.518,63.4059,-0.000574
23.535,63.3720,-0.000621
23.565,63.3130,-0.000621
23.582,63.2820,-0.000621
23.597,63.2521,-0.000621
23.614,63.2195,-0.000621
23.630,63.1906,-0.000621
23.645,63.1610,-0.000621
23.661,63.1318,-0.000621
23.677,63.1021,-0.000621
23.694,63.0705,-0.000621
23.720,63.0236,-0.000621
23.740,62.9863,-0.000621
23.757,62.9575,-0.000621
23.773,62.9292,-0.000640
23.788,62.9017,-0.000640
23.805,62.8727,-0.000640
23.821,62.8438,-0.000640
23.843,62.8057,-0.000640
23.860,62.7756,-0.000640
23.890,62.7260,-0.000640
23.906,62.6992,-0.000640
23.937,62.6460,-0.000640
23.967,62.5987,-0.000640
23.997,62.5496,-0.000640
24.028,62.5000,-0.000480
24.048,62.4689,-0.000480
24.074,62.4283,-0.000480
24.092,62.4007,-0.000480
24.109,62.3746,-0.000480
24.138,62.3312,-0.000480
24.156,62.3045,-0.000480
24.173,62.2782,-0.000480
24.201,62.2387,-0.000480
24.220,62.2105,-0.000480
24.236,62.1886,-0.000480
24.252,62.1648,-0.000480
24.268,62.1436,-0.000480
24.292,62.1093,-0.000377
24.307,62.0886,-0.000377
24.323,62.0670,-0.000377
24.339,62.0459,-0.000377
24.356,62.0224,-0.000377
24.372,62.0020,-0.000377
24.401,61.9636,-0.000377
24.420,61.9390,-0.000377
24.435,61.9192,-0.000377
24.451,61.8997,-0.000377
24.467,61.8798,-0.000377
24.484,61.8588,-0.000377
24.508,61.8285,-0.000377
24.539,61.7910,-0.000292
24.555,61.7726,-0.000292
24.586,61.7360,-0.000292
24.617,61.7005,-0.000292
24.648,61.6658,-0.000292
24.664,61.6477,-0.000292
24.694,61.6157,-0.000292
24.710,61.5982,-0.000292
24.727,61.5811,-0.000292
24.756,61.5505,-0.000282
24.787,61.5182,-0.000282
24.811,61.4954,-0.000282
24.827,61.4790,-0.000282
24.843,61.4640,-0.000282
24.859,61.4483,-0.000282
24.875,61.4334,-0.000282
24.891,61.4184,-0.000282
24.907,61.4040,-0.000282
24.923,61.3892,-0.000282
24.939,61.3750,-0.000282
24.955,61.3606,-0.000282
24.971,61.3466,-0.000282
24.987,61.3324,-0.000282
25.003,61.3187,-0.000367
25.019,61.3059,-0.000367
25.035,61.2924,-0.000367
25.051,61.2792,-0.000367
25.067,61.2661,-0.000367
25.083,61.2547,-0.000367
25.098,61.2422,-0.000367
25.115,61.2298,-0.000367
25.131,61.2178,-0.000367
25.147,61.2058,-0.000367
25.164,61.1928,-0.000367
25.186,61.1774,-0.000367
25.202,61.1667,-0.000367
25.232,61.1459,-0.000367
25.247,61.1360,-0.000367
25.278,61.1156,-0.000386
25.309,61.0967,-0.000386
25.337,61.0801,-0.000386
25.353,61.0705,-0.000386
25.368,61.0617,-0.000386
25.385,61.0521,-0.000386
25.400,61.0441,-0.000386
25.417,61.0352,-0.000386
25.432,61.0268,-0.000386
25.448,61.0188,-0.000386
25.464,61.0108,-0.000386
25.481,61.0029,-0.000386
25.496,60.9956,-0.000461
25.512,60.9883,-0.000461
25.529,60.9808,-0.000461
25.544,60.9738,-0.000461
25.560,60.9669,-0.000461
25.577,60.9602,-0.000461
25.592,60.9537,-0.000461
25.608,60.9476,-0.000461
25.624,60.9418,-0.000461
25.640,60.9359,-0.000461
25.657,60.9297,-0.000461
25.673,60.9245,-0.000461
25.688,60.9194,-0.000461
25.705,60.9140,-0.000461
25.720,60.9094,-0.000461
25.737,60.9047,-0.000461
25.752,60.9002,-0.000499
25.769,60.8959,-0.000499
25.785,60.8917,-0.000499
25.801,60.8878,-0.000499
25.816,60.8842,-0.000499
25.833,60.8804,-0.000499
25.851,60.8768,-0.000499
25.867,60.8736,-0.000499
25.895,60.8687,-0.000499
25.910,60.8661,-0.000499
25.926,60.8638,-0.000499
25.942,60.8615,-0.000499
25.959,60.8595,-0.000499
25.975,60.8577,-0.000499
25.990,60.8561,-0.000499
26.006,60.8547,-0.000471
26.023,60.8535,-0.000471
26.038,60.8525,-0.000471
26.054,60.8516,-0.000471
26.071,60.8509,-0.000471
26.087,60.8505,-0.000471
26.102,60.8502,-0.000471
26.119,60.8501,-0.000471
26.135,60.8501,-0.000471
26.162,60.8501,-0.000471
26.182,60.8501,-0.000471
26.200,60.8501,-0.000471
26.224,60.8501,-0.000471
26.254,60.8502,-0.000471
26.284,60.8511,-0.000471
26.316,60.8527,-0.000433
26.332,60.8537,-0.000433
26.361,60.8563,-0.000433
26.376,60.8579,-0.000433
26.408,60.8616,-0.000433
26.435,60.8656,-0.000433
26.452,60.8681,-0.000433
26.467,60.8708,-0.000433
26.483,60.8737,-0.000433
26.500,60.8770,-0.000433
26.516,60.8804,-0.000433
26.532,60.8837,-0.000499
26.547,60.8874,-0.000499
26.564,60.8915,-0.000499
26.594,60.8992,-0.000499
26.611,60.9042,-0.000499
26.627,60.9089,-0.000499
26.643,60.9136,-0.000499
26.660,60.9189,-0.000499
26.675,60.9243,-0.000499
26.696,60.9312,-0.000499
26.718,60.9392,-0.000499
26.739,60.9471,-0.000499
26.756,60.9533,-0.000499
26.771,60.9595,-0.000499
26.787,60.9661,-0.000537
26.803,60.9729,-0.000537
26.819,60.9805,-0.000537
26.835,60.9874,-0.000537
26.852,60.9949,-0.000537
26.867,61.0023,-0.000537
26.884,61.0101,-0.000537
26.899,61.0179,-0.000537
26.915,61.0265,-0.000537
26.931,61.0344,-0.000537
26.959,61.0495,-0.000537
26.975,61.0582,-0.000537
26.991,61.0674,-0.000537
27.007,61.0768,-0.000537
27.023,61.0864,-0.000518
27.039,61.0957,-0.000518
27.055,61.1055,-0.000518
27.071,61.1156,-0.000518
27.087,61.1259,-0.000518
27.103,61.1361,-0.000518
27.119,61.1472,-0.000518
27.135,61.1578,-0.000518
27.151,61.1686,-0.000518
27.167,61.1801,-0.000518
27.183,61.1916,-0.000518
27.199,61.2032,-0.000518
27.215,61.2149,-0.000518
27.231,61.2267,-0.000518
27.248,61.2400,-0.000518
27.276,61.2613,-0.000537
27.295,61.2769,-0.000537
27.312,61.2904,-0.000537
27.337,61.3107,-0.000537
27.368,61.3372,-0.000537
27.398,61.3634,-0.000537
27.429,61.3914,-0.000537
27.460,61.4194,-0.000537
27.475,61.4345,-0.000537
27.495,61.4522,-0.000537
27.511,61.4676,-0.000537
27.527,61.4834,-0.000546
27.543,61.4989,-0.000546
27.559,61.5155,-0.000546
27.575,61.5317,-0.000546
27.591,61.5477,-0.000546
27.607,61.5639,-0.000546
27.623,61.5811,-0.000546
27.639,61.5975,-0.000546
27.655,61.6146,-0.000546
27.671,61.6323,-0.000546
27.687,61.6502,-0.000546
27.703,61.6676,-0.000546
27.719,61.6855,-0.000546
27.735,61.7035,-0.000546
27.751,61.7214,-0.000546
27.767,61.7407,-0.000461
27.783,61.7586,-0.000461
27.799,61.7772,-0.000461
27.815,61.7975,-0.000461
27.830,61.8156,-0.000461
27.846,61.8349,-0.000461
27.865,61.8584,-0.000461
27.882,61.8806,-0.000461
27.908,61.9119,-0.000461
27.926,61.9352,-0.000461
27.942,61.9557,-0.000461
27.959,61.9774,-0.000461
27.975,61.9976,-0.000461
27.990,62.0189,-0.000461
28.007,62.0405,-0.000461
28.022,62.0616,-0.000320
28.047,62.0947,-0.000320
28.077,62.1380,-0.000320
28.094,62.1601,-0.000320
28.110,62.1832,-0.000320
28.126,62.2056,-0.000320
28.142,62.2293,-0.000320
28.158,62.2518,-0.000320
28.174,62.2764,-0.000320
28.189,62.2982,-0.000320
28.206,62.3231,-0.000320
28.221,62.3461,-0.000320
28.242,62.3778,-0.000320
28.263,62.4090,-0.000320
28.294,62.4575,-0.000348
28.325,62.5063,-0.000348
28.356,62.5559,-0.000348
28.371,62.5805,-0.000348
28.386,62.6047,-0.000348
28.417,62.6555,-0.000348
28.447,62.7061,-0.000348
28.463,62.7324,-0.000348
28.494,62.7856,-0.000348
28.525,62.8370,-0.000414
28.542,62.8672,-0.000414
28.558,62.8955,-0.000414
28.574,62.9240,-0.000414
28.598,62.9669,-0.000414
28.614,62.9960,-0.000414
28.630,63.0250,-0.000414
28.646,63.0536,-0.000414
28.662,63.0832,-0.000414
28.679,63.1134,-0.000414
28.694,63.1422,-0.000414
28.710,63.1726,-0.000414
28.727,63.2041,-0.000414
28.743,63.2336,-0.000414
28.758,63.2627,-0.000452
28.774,63.2942,-0.000452
28.791,63.3264,-0.000452
28.807,63.3568,-0.000452
28.823,63.3878,-0.000452
28.838,63.4189,-0.000452
28.855,63.4513,-0.000452
28.870,63.4819,-0.000452
28.886,63.5138,-0.000452
28.902,63.5456,-0.000452
28.919,63.5811,-0.000452
28.935,63.6121,-0.000452
28.950,63.6435,-0.000452
28.966,63.6765,-0.000452
28.982,63.7098,-0.000452
28.998,63.7430,-0.000593
29.014,63.7766,-0.000593
29.031,63.8133,-0.000593
29.056,63.8671,-0.000593
29.083,63.9228,-0.000593
29.098,63.9549,-0.000593
29.122,64.0045,-0.000593
29.138,64.0374,-0.000593
29.155,64.0721,-0.000593
29.176,64.1160,-0.000593
29.207,64.1775,-0.000593
29.237,64.2383,-0.000593
29.268,64.2991,-0.000687
29.299,64.3596,-0.000687
29.314,64.3885,-0.000687
29.330,64.4206,-0.000687
29.346,64.4516,-0.000687
29.362,64.4808,-0.000687
29.378,64.5107,-0.000687
29.394,64.5408,-0.000687
29.415,64.5816,-0.000687
29.438,64.6224,-0.000687
29.458,64.6597,-0.000687
29.474,64.6888,-0.000687
29.491,64.7192,-0.000687
29.515,64.7619,-0.000725
29.531,64.7896,-0.000725
29.547,64.8181,-0.000725
29.577,64.8712,-0.000725
29.609,64.9264,-0.000725
29.640,64.9772,-0.000725
29.671,65.0309,-0.000725
29.687,65.0559,-0.000725
29.703,65.0817,-0.000725
29.733,65.1330,-0.000725
29.764,65.1816,-0.000875
29.796,65.2304,-0.000875
29.811,65.2546,-0.000875
29.827,65.2786,-0.000875
29.842,65.3026,-0.000875
29.858,65.3270,-0.000875
29.874,65.3507,-0.000875
29.890,65.3755,-0.000875
29.906,65.4008,-0.000875
29.922,65.4220,-0.000875
29.938,65.4457,-0.000875
29.957,65.4748,-0.000875
29.983,65.5104,-0.000875
30.002,65.5380,-0.000970
30.018,65.5599,-0.000970
30.034,65.5827,-0.000970
30.050,65.6041,-0.000970
30.066,65.6265,-0.000970
30.082,65.6493,-0.000970
30.098,65.6702,-0.000970
30.114,65.6903,-0.000970
30.130,65.7115,-0.000970
30.146,65.7340,-0.000970
30.162,65.7536,-0.000970
30.178,65.7736,-0.000970
30.194,65.7939,-0.000970
30.210,65.8139,-0.000970
30.226,65.8341,-0.000970
30.242,65.8537,-0.000970
30.258,65.8737,-0.000970
30.274,65.8929,-0.001054
30.290,65.9123,-0.001054
30.306,65.9310,-0.001054
30.322,65.9497,-0.001054
30.338,65.9683,-0.001054
30.353,65.9873,-0.001054
30.374,66.0100,-0.001054
30.401,66.0394,-0.001054
30.418,66.0584,-0.001054
30.434,66.0756,-0.001054
30.450,66.0927,-0.001054
30.466,66.1104,-0.001054
30.482,66.1266,-0.001054
30.500,66.1462,-0.001054
30.527,66.1727,-0.001214
30.546,66.1924,-0.001214
30.562,66.2087,-0.001214
30.577,66.2238,-0.001214
30.593,66.2392,-0.001214
30.610,66.2548,-0.001214
30.626,66.2703,-0.001214
30.643,66.2854,-0.001214
30.665,66.3058,-0.001214
30.696,66.3338,-0.001214
30.726,66.3600,-0.001214
30.742,66.3735,-0.001214
30.773,66.4000,-0.001261
30.804,66.4247,-0.001261
30.834,66.4493,-0.001261
30.851,66.4619,-0.001261
30.880,66.4834,-0.001261
30.897,66.4963,-0.001261
30.919,66.5124,-0.001261
30.944,66.5300,-0.001261
30.961,66.5417,-0.001261
30.978,66.5528,-0.001261
30.994,66.5636,-0.001261
31.009,66.5735,-0.001280
31.025,66.5838,-0.001280
31.042,66.5944,-0.001280
31.057,66.6036,-0.001280
31.074,66.6135,-0.001280
31.089,66.6229,-0.001280
31.105,66.6326,-0.001280
31.121,66.6413,-0.001280
31.137,66.6501,-0.001280
31.153,66.6589,-0.001280
31.169,66.6674,-0.001280
31.185,66.6756,-0.001280
31.201,66.6839,-0.001280
31.218,66.6922,-0.001280
31.234,66.6997,-0.001280
31.249,66.7072,-0.001280
31.275,66.7188,-0.001356
31.291,66.7258,-0.001356
31.307,66.7327,-0.001356
31.323,66.7394,-0.001356
31.340,66.7461,-0.001356
31.357,66.7528,-0.001356
31.373,66.7587,-0.001356
31.388,66.7642,-0.001356
31.403,66.7700,-0.001356
31.419,66.7752,-0.001356
31.436,66.7809,-0.001356
31.454,66.7866,-0.001356
31.481,66.7947,-0.001356
31.499,66.7998,-0.001450
31.516,66.8044,-0.001450
31.532,66.8084,-0.001450
31.547,66.8120,-0.001450
31.564,66.8161,-0.001450
31.583,66.8201,-0.001450
31.604,66.8246,-0.001450
31.635,66.8304,-0.001450
31.666,66.8354,-0.001450
31.696,66.8395,-0.001450
31.728,66.8432,-0.001450
31.759,66.8459,-0.001450
31.775,66.8471,-0.001450
31.805,66.8488,-0.001694
31.820,66.8494,-0.001694
31.836,66.8499,-0.001694
31.866,66.8501,-0.001694
31.885,66.8501,-0.001694
31.914,66.8501,-0.001694
31.931,66.8501,-0.001694
31.948,66.8501,-0.001694
31.963,66.8501,-0.001694
31.980,66.8501,-0.001694
31.996,66.8501,-0.001694
32.011,66.8501,-0.001694
32.027,66.8501,-0.001694
32.043,66.8501,-0.002024
32.059,66.8501,-0.002024
32.075,66.8501,-0.002024
32.091,66.8501,-0.002024
32.107,66.8501,-0.002024
32.123,66.8501,-0.002024
32.141,66.8501,-0.002024
32.161,66.8501,-0.002024
32.192,66.8501,-0.002024
32.208,66.8501,-0.002024
32.238,66.8501,-0.002024
32.269,66.8501,-0.002024
32.285,66.8501,-0.002146
32.316,66.8501,-0.002146
32.340,66.8501,-0.002146
32.356,66.8501,-0.002146
32.372,66.8501,-0.002146
32.388,66.8501,-0.002146
32.404,66.8501,-0.002146
32.420,66.8501,-0.002146
32.436,66.8501,-0.002146
32.452,66.8501,-0.002146
32.468,66.8501,-0.002146
32.484,66.8501,-0.002146
32.500,66.8501,-0.002090
32.516,66.8501,-0.002090
32.532,66.8501,-0.002090
32.548,66.8501,-0.002090
32.564,66.8501,-0.002090
32.580,66.8501,-0.002090
32.597,66.8501,-0.002090
32.625,66.8501,-0.002090
32.644,66.8501,-0.002090
32.660,66.8501,-0.002090
32.676,66.8501,-0.002090
32.692,66.8501,-0.002090
32.708,66.8501,-0.002090
32.724,66.8501,-0.002090
32.740,66.8501,-0.002090
32.757,66.8501,-0.002090
32.772,66.8501,-0.002014
32.788,66.8501,-0.002014
32.804,66.8501,-0.002014
32.820,66.8501,-0.002014
32.836,66.8501,-0.002014
32.852,66.8501,-0.002014
32.868,66.8501,-0.002014
32.884,66.8501,-0.002014
32.900,66.8501,-0.002014
32.916,66.8501,-0.002014
32.932,66.8501,-0.002014
32.948,66.8501,-0.002014
32.964,66.8501,-0.002014
32.980,66.8501,-0.002014
32.996,66.8501,-0.002014
33.012,66.8501,-0.002014
33.028,66.8501,-0.002052
33.044,66.8501,-0.002052
33.061,66.8501,-0.002052
33.089,66.8501,-0.002052
33.108,66.8501,-0.002052
33.124,66.8501,-0.002052
33.140,66.8501,-0.002052
33.156,66.8501,-0.002052
33.172,66.8501,-0.002052
33.188,66.8501,-0.002052
33.204,66.8501,-0.002052
33.220,66.8501,-0.002052
33.236,66.8501,-0.002052
33.252,66.8501,-0.002052
33.267,66.8501,-0.002061
33.284,66.8501,-0.002061
33.300,66.8501,-0.002061
33.317,66.8501,-0.002061
33.336,66.8501,-0.002061
33.353,66.8501,-0.002061
33.384,66.8501,-0.002061
33.415,66.8501,-0.002061
33.431,66.8501,-0.002061
33.462,66.8501,-0.002061
33.493,66.8501,-0.002061
33.509,66.8501,-0.002061
33.525,66.8501,-0.002005
33.541,66.8501,-0.002005
33.559,66.8501,-0.002005
33.587,66.8501,-0.002005
33.604,66.8501,-0.002005
33.620,66.8501,-0.002005
33.636,66.8501,-0.002005
33.652,66.8501,-0.002005
33.668,66.8501,-0.002005
33.684,66.8501,-0.002005
33.700,66.8501,-0.002005
33.716,66.8501,-0.002005
33.732,66.8501,-0.002005
33.747,66.8501,-0.002005
33.763,66.8501,-0.002005
33.780,66.8501,-0.001958
33.796,66.8501,-0.001958
33.812,66.8501,-0.001958
33.828,66.8501,-0.001958
33.843,66.8501,-0.001958
33.860,66.8501,-0.001958
33.877,66.8501,-0.001958
33.899,66.8501,-0.001958
33.930,66.8501,-0.001958
33.960,66.8501,-0.001958
33.976,66.8501,-0.001958
33.992,66.8501,-0.001958
34.008,66.8501,-0.001930
34.038,66.8501,-0.001930
34.054,66.8501,-0.001930
34.069,66.8501,-0.001930
34.085,66.8501,-0.001930
34.116,66.8501,-0.001930
34.132,66.8501,-0.001930
34.147,66.8501,-0.001930
34.164,66.8501,-0.001930
34.180,66.8501,-0.001930
34.196,66.8501,-0.001930
34.211,66.8501,-0.001930
34.230,66.8501,-0.001930
34.254,66.8501,-0.001949
34.275,66.8501,-0.001949
34.292,66.8501,-0.001949
34.308,66.8501,-0.001949
34.323,66.8501,-0.001949
34.339,66.8501,-0.001949
34.356,66.8501,-0.001949
34.371,66.8501,-0.001949
34.387,66.8501,-0.001949
34.403,66.8501,-0.001949
34.419,66.8501,-0.001949
34.435,66.8501,-0.001949
34.466,66.8501,-0.001949
34.482,66.8501,-0.001949
34.498,66.8501,-0.001958
34.514,66.8501,-0.001958
34.531,66.8501,-0.001958
34.547,66.8501,-0.001958
34.562,66.8501,-0.001958
34.578,66.8501,-0.001958
34.597,66.8501,-0.001958
34.625,66.8501,-0.001958
34.642,66.8501,-0.001958
34.659,66.8501,-0.001958
34.674,66.8501,-0.001958
34.690,66.8501,-0.001958
34.706,66.8501,-0.001958
34.722,66.8501,-0.001958
34.739,66.8501,-0.001958
34.755,66.8501,-0.001949
34.771,66.8501,-0.001949
34.787,66.8501,-0.001949
34.802,66.8501,-0.001949
34.818,66.8501,-0.001949
34.834,66.8501,-0.001949
34.851,66.8501,-0.001949
34.866,66.8501,-0.001949
34.882,66.8501,-0.001949
34.898,66.8501,-0.001949
34.914,66.8501,-0.001949
34.930,66.8501,-0.001949
34.946,66.8501,-0.001949
34.962,66.8501,-0.001949
34.978,66.8501,-0.001949
34.994,66.8501,-0.001949
35.023,66.8501,-0.001930
35.038,66.8501,-0.001930
35.054,66.8501,-0.001930
35.070,66.8501,-0.001930
35.087,66.8501,-0.001930
35.102,66.8501,-0.001930
35.118,66.8501,-0.001930
35.134,66.8501,-0.001930
35.157,66.8501,-0.001930
35.173,66.8501,-0.001930
35.196,66.8501,-0.001930
35.214,66.8501,-0.001930
35.230,66.8501,-0.001930
35.246,66.8501,-0.001845
35.262,66.8501,-0.001845
35.278,66.8501,-0.001845
35.294,66.8501,-0.001845
35.310,66.8501,-0.001845
35.327,66.8501,-0.001845
35.342,66.8501,-0.001845
35.358,66.8501,-0.001845
35.374,66.8501,-0.001845
35.392,66.8501,-0.001845
35.411,66.8501,-0.001845
35.427,66.8501,-0.001845
35.457,66.8501,-0.001845
35.488,66.8501,-0.001845
35.520,66.8501,-0.001845
35.535,66.8501,-0.001845
35.564,66.8501,-0.001676
35.582,66.8501,-0.001676
35.598,66.8501,-0.001676
35.629,66.8501,-0.001676
35.661,66.8501,-0.001676
35.692,66.8501,-0.001676
35.709,66.8501,-0.001676
35.739,66.8501,-0.001676
35.756,66.8501,-0.001676
35.786,66.8501,-0.001600
35.803,66.8501,-0.001600
35.819,66.8501,-0.001600
35.835,66.8501,-0.001600
35.851,66.8501,-0.001600
35.867,66.8501,-0.001600
35.883,66.8501,-0.001600
35.899,66.8501,-0.001600
35.915,66.8501,-0.001600
35.931,66.8501,-0.001600
35.947,66.8501,-0.001600
35.963,66.8501,-0.001600
35.979,66.8501,-0.001600
35.995,66.8501,-0.001600
36.011,66.8501,-0.001600
36.026,66.8501,-0.001647
36.043,66.8501,-0.001647
36.059,66.8501,-0.001647
36.087,66.8501,-0.001647
36.102,66.8501,-0.001647
36.119,66.8501,-0.001647
36.135,66.8501,-0.001647
36.151,66.8501,-0.001647
36.167,66.8501,-0.001647
36.182,66.8501,-0.001647
36.199,66.8501,-0.001647
36.214,66.8501,-0.001647
36.231,66.8501,-0.001647
36.247,66.8501,-0.001647
36.263,66.8501,-0.001647
36.278,66.8501,-0.001713
36.295,66.8501,-0.001713
36.311,66.8501,-0.001713
36.327,66.8501,-0.001713
36.342,66.8501,-0.001713
36.359,66.8501,-0.001713
36.375,66.8501,-0.001713
36.391,66.8501,-0.001713
36.406,66.8501,-0.001713
36.422,66.8501,-0.001713
36.445,66.8501,-0.001713
36.468,66.8501,-0.001713
36.486,66.8501,-0.001713
36.503,66.8501,-0.001713
36.518,66.8501,-0.001713
36.535,66.8501,-0.001817
36.550,66.8501,-0.001817
36.570,66.8499,-0.001817
36.587,66.8494,-0.001817
36.606,66.8486,-0.001817
36.638,66.8466,-0.001817
36.667,66.8443,-0.001817
36.698,66.8411,-0.001817
36.729,66.8370,-0.001817
36.744,66.8346,-0.001817
36.760,66.8323,-0.001817
36.776,66.8294,-0.001817
36.791,66.8267,-0.001732
36.806,66.8238,-0.001732
36.823,66.8201,-0.001732
36.853,66.8137,-0.001732
36.871,66.8093,-0.001732
36.887,66.8052,-0.001732
36.903,66.8011,-0.001732
36.919,66.7964,-0.001732
36.934,66.7921,-0.001732
36.950,66.7871,-0.001732
36.966,66.7822,-0.001732
36.982,66.7768,-0.001732
36.998,66.7714,-0.001732
37.016,66.7653,-0.001732
37.039,66.7566,-0.000518
37.069,66.7451,-0.000518
37.085,66.7387,-0.000518
37.101,66.7319,-0.000518
37.116,66.7256,-0.000518
37.148,66.7115,-0.000518
37.178,66.6976,-0.000518
37.193,66.6899,-0.000518
37.209,66.6822,-0.000518
37.224,66.6741,-0.000518
37.239,66.6664,-0.000518
37.263,66.6537,-0.000518
37.286,66.6409,-0.000518
37.302,66.6315,0.002466
37.318,66.6224,0.002466
37.335,66.6126,0.002466
37.350,66.6034,0.002466
37.367,66.5928,0.002466
37.383,66.5826,0.002466
37.398,66.5731,0.002466
37.415,66.5620,0.002466
37.430,66.5518,0.002466
37.447,66.5406,0.002466
37.462,66.5301,0.002466
37.478,66.5185,0.002466
37.494,66.5071,0.002466
37.511,66.4955,0.002466
37.526,66.4836,0.002466
37.542,66.4721,0.007474
37.558,66.4598,0.007474
37.575,66.4468,0.007474
37.590,66.4345,0.007474
37.606,66.4214,0.007474
37.622,66.4090,0.007474
37.638,66.3959,0.007474
37.654,66.3824,0.007474
37.685,66.3554,0.007474
37.704,66.3389,0.007474
37.719,66.3254,0.007474
37.735,66.3116,0.007474
37.766,66.2830,0.007474
37.781,66.2691,0.014845
37.797,66.2542,0.014845
37.828,66.2242,0.014845
37.844,66.2088,0.014845
37.860,66.1933,0.014845
37.877,66.1762,0.014845
37.905,66.1473,0.014845
37.924,66.1274,0.014845
37.940,66.1108,0.014845
37.956,66.0941,0.014845
37.972,66.0770,0.014845
37.988,66.0580,0.014845
38.007,66.0375,0.014845
38.029,66.0135,0.014845
38.060,65.9790,0.024832
38.091,65.9425,0.024832
38.106,65.9238,0.024832
38.122,65.9056,0.024832
38.153,65.8682,0.024832
38.169,65.8475,0.024832
38.200,65.8097,0.024832
38.216,65.7886,0.024832
38.246,65.7504,0.024832
38.277,65.7116,0.037963
38.308,65.6698,0.037963
38.329,65.6416,0.037963
38.355,65.6070,0.037963
38.372,65.5824,0.037963
38.388,65.5615,0.037963
38.404,65.5392,0.037963
38.420,65.5153,0.037963
38.436,65.4938,0.037963
38.452,65.4699,0.037963
38.468,65.4474,0.037963
38.484,65.4235,0.037963
38.500,65.3998,0.037963
38.516,65.3756,0.037963
38.532,65.3510,0.037963
38.548,65.3286,0.022403
38.564,65.3037,0.022403
38.581,65.2773,0.022403
38.603,65.2431,0.022403
38.619,65.2185,0.022403
38.649,65.1696,0.022403
38.680,65.1216,0.022403
38.696,65.0943,0.022403
38.726,65.0452,0.022403
38.754,64.9993,0.022403
38.770,64.9720,0.022403
38.786,64.9449,-0.000734
38.802,64.9181,-0.000734
38.818,64.8903,-0.000734
38.834,64.8626,-0.000734
38.849,64.8357,-0.000734
38.866,64.8075,-0.000734
38.882,64.7787,-0.000734
38.898,64.7499,-0.000734
38.914,64.7214,-0.000734
38.930,64.6937,-0.000734
38.946,64.6632,-0.000734
38.962,64.6342,-0.000734
38.977,64.6063,-0.000734
38.994,64.5763,-0.000734
39.009,64.5461,-0.000734
39.026,64.5161,-0.000734
39.041,64.4867,-0.000838
39.058,64.4556,-0.000838
39.074,64.4245,-0.000838
39.089,64.3948,-0.000838
39.106,64.3630,-0.000838
39.122,64.3322,-0.000838
39.137,64.3014,-0.000838
39.153,64.2702,-0.000838
39.170,64.2374,-0.000838
39.187,64.2035,-0.000838
39.202,64.1723,-0.000838
39.218,64.1408,-0.000838
39.234,64.1086,-0.000838
39.251,64.0711,-0.000838
39.281,64.0116,-0.000838
39.309,63.9531,-0.000715
39.333,63.9006,-0.000715
39.358,63.8506,-0.000715
39.388,63.7857,-0.000715
39.405,63.7511,-0.000715
39.420,63.7174,-0.000715
39.438,63.6810,-0.000715
39.465,63.6234,-0.000715
39.484,63.5847,-0.000715
39.501,63.5508,-0.000715
39.517,63.5175,-0.000715
39.532,63.4856,-0.000650
39.548,63.4549,-0.000650
39.567,63.4170,-0.000650
39.589,63.3726,-0.000650
39.604,63.3437,-0.000650
39.620,63.3107,-0.000650
39.651,63.2529,-0.000650
39.667,63.2226,-0.000650
39.683,63.1906,-0.000650
39.714,63.1340,-0.000650
39.744,63.0746,-0.000650
39.776,63.0183,-0.000612
39.792,62.9884,-0.000612
39.808,62.9583,-0.000612
39.830,62.9198,-0.000612
39.847,62.8902,-0.000612
39.863,62.8619,-0.000612
39.879,62.8337,-0.000612
39.894,62.8067,-0.000612
39.910,62.7791,-0.000612
39.926,62.7514,-0.000612
39.943,62.7221,-0.000612
39.958,62.6967,-0.000612
39.974,62.6689,-0.000612
39.990,62.6424,-0.000612
40.006,62.6162,-0.000612
40.022,62.5899,-0.000489
40.038,62.5636,-0.000489
40.055,62.5355,-0.000489
40.071,62.5107,-0.000489
40.086,62.4850,-0.000489
40.102,62.4608,-0.000489
40.119,62.4340,-0.000489
40.135,62.4098,-0.000489
40.151,62.3840,-0.000489
40.166,62.3608,-0.000489
40.185,62.3305,-0.000489
40.208,62.2968,-0.000489
40.238,62.2515,-0.000489
40.269,62.2067,-0.000377
40.285,62.1826,-0.000377
40.300,62.1614,-0.000377
40.331,62.1171,-0.000377
40.363,62.0725,-0.000377
40.391,62.0331,-0.000377
40.407,62.0117,-0.000377
40.439,61.9694,-0.000377
40.468,61.9309,-0.000377
40.486,61.9073,-0.000377
40.502,61.8872,-0.000377
40.518,61.8659,-0.000292
40.534,61.8465,-0.000292
40.556,61.8185,-0.000292
40.578,61.7916,-0.000292
40.598,61.7675,-0.000292
40.615,61.7466,-0.000292
40.630,61.7288,-0.000292
40.646,61.7105,-0.000292
40.662,61.6917,-0.000292
40.679,61.6721,-0.000292
40.694,61.6547,-0.000292
40.711,61.6353,-0.000292
40.726,61.6189,-0.000292
40.742,61.6003,-0.000292
40.758,61.5837,-0.000273
40.774,61.5664,-0.000273
40.790,61.5487,-0.000273
40.806,61.5320,-0.000273
40.822,61.5149,-0.000273
40.838,61.4990,-0.000273
40.854,61.4823,-0.000273
40.871,61.4654,-0.000273
40.886,61.4504,-0.000273
40.914,61.4229,-0.000273
40.930,61.4067,-0.000273
40.946,61.3916,-0.000273
40.963,61.3752,-0.000273
40.994,61.3473,-0.000273
41.010,61.3333,-0.000386
41.039,61.3066,-0.000386
41.057,61.2919,-0.000386
41.073,61.2773,-0.000386
41.089,61.2646,-0.000386
41.108,61.2480,-0.000386
41.132,61.2288,-0.000386
41.153,61.2124,-0.000386
41.169,61.1996,-0.000386
41.185,61.1877,-0.000386
41.201,61.1756,-0.000386
41.217,61.1633,-0.000386
41.233,61.1516,-0.000386
41.249,61.1402,-0.000377
41.265,61.1289,-0.000377
41.281,61.1175,-0.000377
41.298,61.1056,-0.000377
41.319,61.0917,-0.000377
41.349,61.0714,-0.000377
41.365,61.0616,-0.000377
41.380,61.0521,-0.000377
41.396,61.0426,-0.000377
41.427,61.0237,-0.000377
41.448,61.0125,-0.000377
41.464,61.0033,-0.000377
41.480,60.9942,-0.000377
41.495,60.9860,-0.000377
41.511,60.9777,-0.000405
41.528,60.9694,-0.000405
41.544,60.9611,-0.000405
41.560,60.9537,-0.000405
41.575,60.9461,-0.000405
41.592,60.9385,-0.000405
41.608,60.9312,-0.000405
41.624,60.9243,-0.000405
41.640,60.9173,-0.000405
41.656,60.9108,-0.000405
41.671,60.9044,-0.000405
41.688,60.8981,-0.000405
41.704,60.8919,-0.000405
41.719,60.8862,-0.000405
41.735,60.8805,-0.000405
41.752,60.8747,-0.000461
41.768,60.8696,-0.000461
41.792,60.8619,-0.000461
41.814,60.8552,-0.000461
41.831,60.8505,-0.000461
41.847,60.8461,-0.000461
41.864,60.8419,-0.000461
41.880,60.8378,-0.000461
41.895,60.8344,-0.000461
41.912,60.8306,-0.000461
41.927,60.8275,-0.000461
41.943,60.8243,-0.000461
41.973,60.8189,-0.000461
41.989,60.8163,-0.000461
42.005,60.8139,-0.000442
42.022,60.8117,-0.000442
42.039,60.8094,-0.000442
42.061,60.8070,-0.000442
42.092,60.8041,-0.000442
42.122,60.8021,-0.000442
42.153,60.8008,-0.000442
42.184,60.8001,-0.000442
42.214,60.8000,-0.000442
42.229,60.8000,-0.000442
42.245,60.8000,-0.000442
42.261,60.8000,-0.000508
42.278,60.8000,-0.000508
42.294,60.8000,-0.000508
42.311,60.8000,-0.000508
42.338,60.8000,-0.000508
42.357,60.8000,-0.000508
42.373,60.8000,-0.000508
42.389,60.8000,-0.000508
42.406,60.8003,-0.000508
42.421,60.8008,-0.000508
42.437,60.8014,-0.000508
42.453,60.8022,-0.000508
42.470,60.8032,-0.000508
42.486,60.8045,-0.000508
42.501,60.8058,-0.000508
42.524,60.8082,-0.000442
42.540,60.8101,-0.000442
42.557,60.8122,-0.000442
42.572,60.8144,-0.000442
42.588,60.8169,-0.000442
42.605,60.8196,-0.000442
42.620,60.8223,-0.000442
42.636,60.8253,-0.000442
42.652,60.8287,-0.000442
42.669,60.8321,-0.000442
42.684,60.8356,-0.000442
42.700,60.8394,-0.000442
42.716,60.8435,-0.000442
42.732,60.8476,-0.000442
42.748,60.8521,-0.000452
42.765,60.8571,-0.000452
42.781,60.8615,-0.000452
42.797,60.8665,-0.000452
42.813,60.8719,-0.000452
42.828,60.8770,-0.000452
42.844,60.8824,-0.000452
42.860,60.8884,-0.000452
42.879,60.8953,-0.000452
42.908,60.9065,-0.000452
42.924,60.9131,-0.000452
42.941,60.9201,-0.000452
42.957,60.9270,-0.000452
42.973,60.9343,-0.000452
42.988,60.9410,-0.000452
43.004,60.9487,-0.000452
43.020,60.9563,-0.000452
43.037,60.9646,-0.000452
43.062,60.9776,-0.000537
43.078,60.9855,-0.000537
43.093,60.9942,-0.000537
43.109,61.0025,-0.000537
43.128,61.0135,-0.000537
43.155,61.0296,-0.000537
43.173,61.0397,-0.000537
43.190,61.0502,-0.000537
43.217,61.0672,-0.000537
43.237,61.0797,-0.000537
43.253,61.0906,-0.000537
43.269,61.1016,-0.000537
43.285,61.1116,-0.000518
43.301,61.1227,-0.000518
43.318,61.1350,-0.000518
43.333,61.1455,-0.000518
43.349,61.1572,-0.000518
43.365,61.1690,-0.000518
43.382,61.1820,-0.000518
43.403,61.1985,-0.000518
43.434,61.2224,-0.000518
43.450,61.2351,-0.000518
43.465,61.2486,-0.000518
43.496,61.2738,-0.000518
43.511,61.2872,-0.000518
43.528,61.3009,-0.000518
43.559,61.3287,-0.000518
43.589,61.3556,-0.000480
43.616,61.3809,-0.000480
43.632,61.3963,-0.000480
43.648,61.4109,-0.000480
43.663,61.4262,-0.000480
43.681,61.4433,-0.000480
43.696,61.4578,-0.000480
43.712,61.4746,-0.000480
43.728,61.4903,-0.000480
43.744,61.5076,-0.000480
43.760,61.5238,-0.000480
43.776,61.5402,-0.000480
43.792,61.5570,-0.000480
43.808,61.5744,-0.000480
43.824,61.5928,-0.000480
43.840,61.6094,-0.000480
43.856,61.6276,-0.000480
43.873,61.6468,-0.000480
43.888,61.6638,-0.000480
43.904,61.6816,-0.000480
43.920,61.7003,-0.000480
43.936,61.7190,-0.000480
43.952,61.7380,-0.000480
43.968,61.7576,-0.000480
43.984,61.7771,-0.000480
44.000,61.7964,-0.000480
44.016,61.8166,-0.000461
44.032,61.8357,-0.000461
44.048,61.8559,-0.000461
44.064,61.8770,-0.000461
44.080,61.8972,-0.000461
44.096,61.9175,-0.000461
44.113,61.9398,-0.000461
44.144,61.9816,-0.000461
44.159,62.0012,-0.000461
44.175,62.0228,-0.000461
44.191,62.0448,-0.000461
44.207,62.0673,-0.000461
44.223,62.0885,-0.000461
44.241,62.1147,-0.000461
44.269,62.1536,-0.000386
44.287,62.1794,-0.000386
44.303,62.2032,-0.000386
44.319,62.2262,-0.000386
44.335,62.2508,-0.000386
44.351,62.2734,-0.000386
44.368,62.2998,-0.000386
44.392,62.3360,-0.000386
44.423,62.3847,-0.000386
44.454,62.4317,-0.000386
44.485,62.4821,-0.000386
44.500,62.5062,-0.000386
44.517,62.5317,-0.000386
44.547,62.5825,-0.000358
44.568,62.6162,-0.000358
44.594,62.6594,-0.000358
44.625,62.7120,-0.000358
44.641,62.7396,-0.000358
44.668,62.7864,-0.000358
44.685,62.8150,-0.000358
44.703,62.8471,-0.000358
44.719,62.8758,-0.000358
44.751,62.9323,-0.000358
44.767,62.9602,-0.000424
44.797,63.0154,-0.000424
44.812,63.0441,-0.000424
44.843,63.1011,-0.000424
44.860,63.1333,-0.000424
44.876,63.1630,-0.000424
44.891,63.1920,-0.000424
44.907,63.2226,-0.000424
44.925,63.2574,-0.000424
44.951,63.3074,-0.000424
44.971,63.3467,-0.000424
44.988,63.3792,-0.000424
45.004,63.4111,-0.000424
45.019,63.4415,-0.000565
45.036,63.4747,-0.000565
45.052,63.5068,-0.000565
45.067,63.5384,-0.000565
45.083,63.5712,-0.000565
45.099,63.6044,-0.000565
45.115,63.6382,-0.000565
45.132,63.6716,-0.000565
45.147,63.7044,-0.000565
45.163,63.7379,-0.000565
45.189,63.7915,-0.000565
45.205,63.8256,-0.000565
45.220,63.8583,-0.000565
45.236,63.8920,-0.000565
45.252,63.9254,-0.000668
45.268,63.9588,-0.000668
45.284,63.9935,-0.000668
45.301,64.0257,-0.000668
45.317,64.0592,-0.000668
45.332,64.0897,-0.000668
45.348,64.1228,-0.000668
45.364,64.1546,-0.000668
45.380,64.1862,-0.000668
45.397,64.2188,-0.000668
45.412,64.2493,-0.000668
45.429,64.2812,-0.000668
45.444,64.3116,-0.000668
45.461,64.3436,-0.000668
45.476,64.3737,-0.000668
45.492,64.4052,-0.000668
45.508,64.4359,-0.000668
45.524,64.4645,-0.000668
45.547,64.5088,-0.000668
45.571,64.5525,-0.000668
45.588,64.5833,-0.000668
45.605,64.6152,-0.000668
45.621,64.6423,-0.000668
45.636,64.6709,-0.000668
45.652,64.6989,-0.000668
45.671,64.7318,-0.000668
45.694,64.7729,-0.000668
45.710,64.8008,-0.000668
45.731,64.8381,-0.000668
45.748,64.8662,-0.000668
45.763,64.8927,-0.000753
45.780,64.9216,-0.000753
45.804,64.9609,-0.000753
45.834,65.0116,-0.000753
45.866,65.0628,-0.000753
45.896,65.1123,-0.000753
45.928,65.1618,-0.000753
45.944,65.1870,-0.000753
45.959,65.2110,-0.000753
45.990,65.2588,-0.000753
46.020,65.3047,-0.000828
46.044,65.3398,-0.000828
46.066,65.3721,-0.000828
46.083,65.3971,-0.000828
46.099,65.4215,-0.000828
46.115,65.4436,-0.000828
46.131,65.4669,-0.000828
46.148,65.4902,-0.000828
46.168,65.5187,-0.000828
46.191,65.5499,-0.000828
46.212,65.5794,-0.000828
46.238,65.6136,-0.000828
46.268,65.6545,-0.000828
46.288,65.6807,-0.000960
46.303,65.6997,-0.000960
46.319,65.7199,-0.000960
46.335,65.7404,-0.000960
46.352,65.7618,-0.000960
46.367,65.7813,-0.000960
46.383,65.8001,-0.000960
46.399,65.8202,-0.000960
46.415,65.8398,-0.000960
46.431,65.8594,-0.000960
46.447,65.8781,-0.000960
46.463,65.8975,-0.000960
46.483,65.9194,-0.000960
46.500,65.9388,-0.000960
46.531,65.9746,-0.001139
46.546,65.9906,-0.001139
46.562,66.0082,-0.001139
46.577,66.0259,-0.001139
46.608,66.0585,-0.001139
46.639,66.0907,-0.001139
46.656,66.1092,-0.001139
46.686,66.1382,-0.001139
46.703,66.1553,-0.001139
46.719,66.1716,-0.001139
46.736,66.1875,-0.001139
46.751,66.2017,-0.001205
46.767,66.2167,-0.001205
46.788,66.2373,-0.001205
46.813,66.2604,-0.001205
46.832,66.2764,-0.001205
46.858,66.2993,-0.001205
46.877,66.3160,-0.001205
46.893,66.3293,-0.001205
46.909,66.3425,-0.001205
46.926,66.3573,-0.001205
46.950,66.3765,-0.001205
46.981,66.4007,-0.001205
47.012,66.4247,-0.001205
47.043,66.4473,-0.001271
47.059,66.4593,-0.001271
47.089,66.4802,-0.001271
47.105,66.4911,-0.001271
47.136,66.5128,-0.001271
47.152,66.5227,-0.001271
47.169,66.5339,-0.001271
47.199,66.5528,-0.001271
47.215,66.5616,-0.001271
47.246,66.5801,-0.001271
47.262,66.5895,-0.001356
47.293,66.6064,-0.001356
47.313,66.6171,-0.001356
47.328,66.6258,-0.001356
47.354,66.6380,-0.001356
47.373,66.6472,-0.001356
47.389,66.6548,-0.001356
47.405,66.6621,-0.001356
47.421,66.6693,-0.001356
47.437,66.6769,-0.001356
47.453,66.6834,-0.001356
47.469,66.6898,-0.001356
47.485,66.6962,-0.001356
47.501,66.7029,-0.001356
47.516,66.7085,-0.001356
47.532,66.7143,-0.001450
47.549,66.7201,-0.001450
47.565,66.7257,-0.001450
47.581,66.7311,-0.001450
47.597,66.7359,-0.001450
47.613,66.7411,-0.001450
47.633,66.7467,-0.001450
47.663,66.7549,-0.001450
47.694,66.7627,-0.001450
47.709,66.7663,-0.001450
47.725,66.7696,-0.001450
47.742,66.7732,-0.001450
47.758,66.7763,-0.001450
47.786,66.7813,-0.001544
47.805,66.7844,-0.001544
47.820,66.7866,-0.001544
47.837,66.7889,-0.001544
47.852,66.7908,-0.001544
47.869,66.7927,-0.001544
47.884,66.7942,-0.001544
47.901,66.7957,-0.001544
47.925,66.7974,-0.001544
47.941,66.7983,-0.001544
47.957,66.7990,-0.001544
47.973,66.7995,-0.001544
47.989,66.7999,-0.001544
48.004,66.8000,-0.001544
48.020,66.8000,-0.001638
48.037,66.8000,-0.001638
48.052,66.8000,-0.001638
48.068,66.8000,-0.001638
48.084,66.8000,-0.001638
48.100,66.8000,-0.001638
48.117,66.8000,-0.001638
48.133,66.8000,-0.001638
48.148,66.8000,-0.001638
48.164,66.8000,-0.001638
48.180,66.8000,-0.001638
48.196,66.8000,-0.001638
48.213,66.8000,-0.001638
48.229,66.8000,-0.001638
48.245,66.8000,-0.001638
48.260,66.8000,-0.001638
48.276,66.8000,-0.001610
48.293,66.8000,-0.001610
48.308,66.8000,-0.001610
48.324,66.8000,-0.001610
48.340,66.8000,-0.001610
48.356,66.8000,-0.001610
48.372,66.8000,-0.001610
48.388,66.8000,-0.001610
48.404,66.8000,-0.001610
48.421,66.8000,-0.001610
48.444,66.8000,-0.001610
48.460,66.8000,-0.001610
48.478,66.8000,-0.001610
48.500,66.8000,-0.001610
48.516,66.8000,-0.001553
48.546,66.8000,-0.001553
48.577,66.8000,-0.001553
48.609,66.8000,-0.001553
48.639,66.8000,-0.001553
48.655,66.8000,-0.001553
48.685,66.8000,-0.001553
48.715,66.8000,-0.001553
48.732,66.8000,-0.001553
48.749,66.8000,-0.001553
48.765,66.8000,-0.001525
48.793,66.8000,-0.001525
48.816,66.8000,-0.001525
48.839,66.8000,-0.001525
48.855,66.8000,-0.001525
48.876,66.8000,-0.001525
48.892,66.8000,-0.001525
48.908,66.8000,-0.001525
48.925,66.8000,-0.001525
48.941,66.8000,-0.001525
48.956,66.8000,-0.001525
48.979,66.8000,-0.001525
48.995,66.8000,-0.001525
49.010,66.8000,-0.001544
49.026,66.8000,-0.001544
49.044,66.8000,-0.001544
49.071,66.8000,-0.001544
49.090,66.8000,-0.001544
49.106,66.8000,-0.001544
49.122,66.8000,-0.001544
49.138,66.8000,-0.001544
49.154,66.8000,-0.001544
49.170,66.8000,-0.001544
49.186,66.8000,-0.001544
49.202,66.8000,-0.001544
49.219,66.8000,-0.001544
49.235,66.8000,-0.001544
49.257,66.8000,-0.001544
49.272,66.8000,-0.001544
49.288,66.8000,-0.001544
49.318,66.8000,-0.001544
49.349,66.8000,-0.001544
49.365,66.8000,-0.001544
49.396,66.8000,-0.001544
49.411,66.8000,-0.001544
49.427,66.8000,-0.001544
49.442,66.8000,-0.001544
49.458,66.8000,-0.001544
49.475,66.8000,-0.001544
49.504,66.8000,-0.001544
49.532,66.8000,-0.001516
49.548,66.8000,-0.001516
49.564,66.8000,-0.001516
49.580,66.8000,-0.001516
49.596,66.8000,-0.001516
49.612,66.8000,-0.001516
49.628,66.8000,-0.001516
49.644,66.8000,-0.001516
49.660,66.8000,-0.001516
49.676,66.8000,-0.001516
49.692,66.8000,-0.001516
49.708,66.8000,-0.001516
49.724,66.8000,-0.001516
49.740,66.8000,-0.001516
49.756,66.8000,-0.001506
49.772,66.8000,-0.001506
49.788,66.8000,-0.001506
49.804,66.8000,-0.001506
49.820,66.8000,-0.001506
49.836,66.8000,-0.001506
49.852,66.8000,-0.001506
49.868,66.8000,-0.001506
49.884,66.8000,-0.001506
49.900,66.8000,-0.001506
49.916,66.8000,-0.001506
49.932,66.8000,-0.001506
49.947,66.8000,-0.001506
49.964,66.8000,-0.001506
49.980,66.8000,-0.001506
49.996,66.8000,-0.001468
50.012,66.8000,-0.001468
50.028,66.8000,-0.001468
50.056,66.8000,-0.001468
50.072,66.8000,-0.001468
50.088,66.8000,-0.001468
50.104,66.8000,-0.001468
50.119,66.8000,-0.001468
50.136,66.8000,-0.001468
50.152,66.8000,-0.001468
50.168,66.8000,-0.001468
50.184,66.8000,-0.001468
50.200,66.8000,-0.001468
50.216,66.8000,-0.001468
50.232,66.8000,-0.001468
50.248,66.8000,-0.001506
50.264,66.8000,-0.001506
50.280,66.8000,-0.001506
50.296,66.8000,-0.001506
50.312,66.8000,-0.001506
50.328,66.8000,-0.001506
50.344,66.8000,-0.001506
50.361,66.8000,-0.001506
50.389,66.8000,-0.001506
50.408,66.8000,-0.001506
50.423,66.8000,-0.001506
50.439,66.8000,-0.001506
50.456,66.8000,-0.001506
50.472,66.8000,-0.001506
50.488,66.8000,-0.001506
50.503,66.8000,-0.001553
50.520,66.8000,-0.001553
50.536,66.8000,-0.001553
50.551,66.8000,-0.001553
50.567,66.8000,-0.001553
50.595,66.8000,-0.001553
50.610,66.8000,-0.001553
50.626,66.8000,-0.001553
50.643,66.8000,-0.001553
50.659,66.8000,-0.001553
50.675,66.8000,-0.001553
50.690,66.8000,-0.001553
50.707,66.8000,-0.001553
50.723,66.8000,-0.001553
50.744,66.8000,-0.001553
50.760,66.8000,-0.001553
50.796,66.8000,-0.001553
50.821,66.8000,-0.001553
50.852,66.8000,-0.001553
50.883,66.8000,-0.001553
50.899,66.8000,-0.001553
50.915,66.8000,-0.001553
50.930,66.8000,-0.001553
50.947,66.8000,-0.001553
50.969,66.8000,-0.001553
50.991,66.8000,-0.001553
51.011,66.8000,-0.001553
51.027,66.8000,-0.001553
51.043,66.8000,-0.001553
51.058,66.8000,-0.001553
51.074,66.8000,-0.001553
51.091,66.8000,-0.001553
51.107,66.8000,-0.001553
51.122,66.8000,-0.001553
51.146,66.8000,-0.001553
51.162,66.8000,-0.001553
51.192,66.8000,-0.001553
51.209,66.8000,-0.001553
51.226,66.8000,-0.001553
51.242,66.8000,-0.001553
51.271,66.8000,-0.001525
51.289,66.8000,-0.001525
51.306,66.8000,-0.001525
51.322,66.8000,-0.001525
51.338,66.8000,-0.001525
51.354,66.8000,-0.001525
51.370,66.8000,-0.001525
51.386,66.8000,-0.001525
51.402,66.8000,-0.001525
51.417,66.8000,-0.001525
51.433,66.8000,-0.001525
51.450,66.8000,-0.001525
51.465,66.8000,-0.001525
51.481,66.8000,-0.001525
51.497,66.8000,-0.001525
51.514,66.8000,-0.001525
51.529,66.8000,-0.001534
51.545,66.8000,-0.001534
51.561,66.8000,-0.001534
51.577,66.8000,-0.001534
51.594,66.8000,-0.001534
51.609,66.8000,-0.001534
51.625,66.8000,-0.001534
51.642,66.8000,-0.001534
51.673,66.8000,-0.001534
51.696,66.8000,-0.001534
51.719,66.8000,-0.001534
51.737,66.8000,-0.001534
51.754,66.8000,-0.001534
51.769,66.8000,-0.001534
51.785,66.8000,-0.001544
51.801,66.8000,-0.001544
51.818,66.8000,-0.001544
51.834,66.8000,-0.001544
51.849,66.8000,-0.001544
51.866,66.8000,-0.001544
51.884,66.8000,-0.001544
51.905,66.8000,-0.001544
51.935,66.8000,-0.001544
51.950,66.8000,-0.001544
51.981,66.8000,-0.001544
51.996,66.8000,-0.001544
52.026,66.8000,-0.001563
52.042,66.8000,-0.001563
52.073,66.8000,-0.001563
52.089,66.8000,-0.001563
52.105,66.8000,-0.001563
52.121,66.8000,-0.001563
52.137,66.8000,-0.001563
52.153,66.8000,-0.001563
52.169,66.8000,-0.001563
52.186,66.8000,-0.001563
52.211,66.8000,-0.001563
52.227,66.8000,-0.001563
52.242,66.8000,-0.001563
52.258,66.8000,-0.001563
52.274,66.8000,-0.001657
52.290,66.8000,-0.001657
52.307,66.8000,-0.001657
52.336,66.8000,-0.001657
52.354,66.8000,-0.001657
52.371,66.8000,-0.001657
52.399,66.8000,-0.001657
52.418,66.8000,-0.001657
52.437,66.8000,-0.001657
52.461,66.8000,-0.001657
52.482,66.8000,-0.001657
52.498,66.8000,-0.001657
52.514,66.8000,-0.001657
52.530,66.8000,-0.001713
52.546,66.8000,-0.001713
52.562,66.8000,-0.001713
52.578,66.8000,-0.001713
52.594,66.8000,-0.001713
52.610,66.8000,-0.001713
52.627,66.7998,-0.001713
52.647,66.7991,-0.001713
52.678,66.7975,-0.001713
52.709,66.7954,-0.001713
52.737,66.7927,-0.001713
52.754,66.7910,-0.001713
52.773,66.7885,-0.001713
52.803,66.7841,-0.001713
52.818,66.7817,-0.001713
52.834,66.7791,-0.001713
52.865,66.7732,-0.001713
52.881,66.7698,-0.001713
52.897,66.7664,-0.001713
52.914,66.7623,-0.001713
52.942,66.7554,-0.001713
52.961,66.7503,-0.001713
52.977,66.7457,-0.001713
52.993,66.7411,-0.001713
53.009,66.7364,-0.000904
53.026,66.7309,-0.000904
53.045,66.7246,-0.000904
53.069,66.7162,-0.000904
53.089,66.7091,-0.000904
53.105,66.7028,-0.000904
53.121,66.6967,-0.000904
53.137,66.6905,-0.000904
53.153,66.6838,-0.000904
53.169,66.6767,-0.000904
53.184,66.6702,-0.000904
53.201,66.6628,-0.000904
53.217,66.6555,-0.000904
53.232,66.6478,-0.000904
53.249,66.6398,-0.000904
53.279,66.6248,0.001732
53.295,66.6162,0.001732
53.310,66.6082,0.001732
53.326,66.5995,0.001732
53.342,66.5907,0.001732
53.359,66.5814,0.001732
53.375,66.5717,0.001732
53.390,66.5626,0.001732
53.406,66.5526,0.001732
53.423,66.5429,0.001732
53.439,66.5325,0.001732
53.455,66.5226,0.001732
53.471,66.5115,0.001732
53.487,66.5012,0.001732
53.502,66.4907,0.006599
53.518,66.4798,0.006599
53.538,66.4658,0.006599
53.563,66.4477,0.006599
53.582,66.4337,0.006599
53.599,66.4211,0.006599
53.614,66.4093,0.006599
53.630,66.3964,0.006599
53.647,66.3843,0.006599
53.663,66.3710,0.006599
53.678,66.3589,0.006599
53.695,66.3453,0.006599
53.711,66.3320,0.006599
53.727,66.3181,0.006599
53.742,66.3049,0.006599
53.758,66.2908,0.014073
53.774,66.2768,0.014073
53.798,66.2552,0.014073
53.815,66.2400,0.014073
53.831,66.2254,0.014073
53.846,66.2109,0.014073
53.862,66.1955,0.014073
53.879,66.1799,0.014073
53.894,66.1644,0.014073
53.911,66.1478,0.014073
53.926,66.1326,0.014073
53.942,66.1164,0.014073
53.958,66.0995,0.014073
53.975,66.0829,0.014073
53.991,66.0667,0.014073
54.007,66.0492,0.024239
54.023,66.0326,0.024239
54.039,66.0151,0.024239
54.054,65.9981,0.024239
54.070,65.9805,0.024239
54.086,65.9621,0.024239
54.102,65.9445,0.024239
54.119,65.9255,0.024239
54.134,65.9074,0.024239
54.152,65.8872,0.024239
54.167,65.8691,0.024239
54.183,65.8497,0.024239
54.200,65.8288,0.024239
54.229,65.7938,0.024239
54.247,65.7721,0.024239
54.262,65.7524,0.024239
54.278,65.7323,0.024239
54.295,65.7110,0.037709
54.320,65.6786,0.037709
54.336,65.6565,0.037709
54.352,65.6358,0.037709
54.368,65.6148,0.037709
54.384,65.5930,0.037709
54.401,65.5712,0.037709
54.416,65.5499,0.037709
54.432,65.5279,0.037709
54.449,65.5036,0.037709
54.464,65.4819,0.037709
54.480,65.4603,0.037709
54.496,65.4374,0.037709
54.512,65.4141,0.037709
54.528,65.3909,0.037709
54.544,65.3677,0.055519
54.560,65.3432,0.055519
54.576,65.3200,0.055519
54.592,65.2960,0.055519
54.608,65.2713,0.055519
54.624,65.2466,0.055519
54.640,65.2219,0.055519
54.656,65.1980,0.055519
54.672,65.1731,0.055519
54.688,65.1470,0.055519
54.704,65.1225,0.055519
54.720,65.0968,0.055519
54.736,65.0711,0.055519
54.753,65.0429,0.055519
54.776,65.0047,0.055519
54.800,64.9652,0.055519
54.816,64.9393,0.032749
54.840,64.8980,0.032749
54.856,64.8703,0.032749
54.872,64.8439,0.032749
54.889,64.8153,0.032749
54.904,64.7885,0.032749
54.920,64.7597,0.032749
54.936,64.7324,0.032749
54.952,64.7033,0.032749
54.968,64.6754,0.032749
54.984,64.6468,0.032749
55.001,64.6153,0.032749
55.016,64.5887,0.032749
55.032,64.5578,-0.000414
55.048,64.5295,-0.000414
55.072,64.4833,-0.000414
55.095,64.4406,-0.000414
55.112,64.4090,-0.000414
55.129,64.3759,-0.000414
55.144,64.3471,-0.000414
55.160,64.3167,-0.000414
55.176,64.2861,-0.000414
55.197,64.2433,-0.000414
55.219,64.2000,-0.000414
55.240,64.1601,-0.000414
55.257,64.1257,-0.000414
55.272,64.0932,-0.000414
55.288,64.0632,-0.000725
55.304,64.0295,-0.000725
55.320,63.9975,-0.000725
55.336,63.9643,-0.000725
55.352,63.9307,-0.000725
55.373,63.8860,-0.000725
55.389,63.8522,-0.000725
55.405,63.8192,-0.000725
55.421,63.7860,-0.000725
55.439,63.7453,-0.000725
55.466,63.6881,-0.000725
55.485,63.6491,-0.000725
55.501,63.6152,-0.000725
55.517,63.5832,-0.000725
55.533,63.5500,-0.000631
55.549,63.5167,-0.000631
55.566,63.4825,-0.000631
55.581,63.4506,-0.000631
55.597,63.4200,-0.000631
55.613,63.3881,-0.000631
55.630,63.3534,-0.000631
55.653,63.3080,-0.000631
55.684,63.2471,-0.000631
55.700,63.2164,-0.000631
55.731,63.1565,-0.000631
55.746,63.1274,-0.000631
55.762,63.0961,-0.000631
55.778,63.0685,-0.000593
55.793,63.0380,-0.000593
55.810,63.0074,-0.000593
55.839,62.9545,-0.000593
55.855,62.9259,-0.000593
55.872,62.8951,-0.000593
55.902,62.8407,-0.000593
55.929,62.7916,-0.000593
55.946,62.7639,-0.000593
55.961,62.7368,-0.000593
55.978,62.7084,-0.000593
55.994,62.6813,-0.000593
56.009,62.6545,-0.000593
56.025,62.6275,-0.000518
56.042,62.6001,-0.000518
56.058,62.5733,-0.000518
56.074,62.5458,-0.000518
56.091,62.5193,-0.000518
56.121,62.4696,-0.000518
56.137,62.4434,-0.000518
56.153,62.4179,-0.000518
56.170,62.3923,-0.000518
56.185,62.3673,-0.000518
56.202,62.3419,-0.000518
56.218,62.3171,-0.000518
56.233,62.2934,-0.000518
56.250,62.2680,-0.000518
56.265,62.2445,-0.000518
56.282,62.2193,-0.000405
56.298,62.1970,-0.000405
56.313,62.1721,-0.000405
56.330,62.1488,-0.000405
56.353,62.1159,-0.000405
56.368,62.0932,-0.000405
56.398,62.0512,-0.000405
56.429,62.0071,-0.000405
56.452,61.9767,-0.000405
56.468,61.9550,-0.000405
56.486,61.9311,-0.000405
56.507,61.9027,-0.000405
56.537,61.8639,-0.000339
56.568,61.8233,-0.000339
56.584,61.8037,-0.000339
56.615,61.7657,-0.000339
56.630,61.7454,-0.000339
56.646,61.7271,-0.000339
56.661,61.7086,-0.000339
56.692,61.6718,-0.000339
56.709,61.6523,-0.000339
56.724,61.6343,-0.000339
56.741,61.6146,-0.000339
56.756,61.5975,-0.000339
56.772,61.5794,-0.000282
56.789,61.5614,-0.000282
56.804,61.5433,-0.000282
56.820,61.5267,-0.000282
56.837,61.5084,-0.000282
56.852,61.4922,-0.000282
56.869,61.4744,-0.000282
56.885,61.4582,-0.000282
56.900,61.4426,-0.000282
56.916,61.4253,-0.000282
56.933,61.4085,-0.000282
56.949,61.3940,-0.000282
56.964,61.3786,-0.000282
56.980,61.3630,-0.000282
56.996,61.3478,-0.000282
57.013,61.3323,-0.000292
57.029,61.3166,-0.000292
57.044,61.3030,-0.000292
57.060,61.2883,-0.000292
57.076,61.2737,-0.000292
57.093,61.2588,-0.000292
57.108,61.2460,-0.000292
57.125,61.2315,-0.000292
57.140,61.2186,-0.000292
57.158,61.2036,-0.000292
57.187,61.1793,-0.000292
57.205,61.1654,-0.000292
57.222,61.1516,-0.000292
57.250,61.1305,-0.000358
57.268,61.1171,-0.000358
57.284,61.1052,-0.000358
57.300,61.0937,-0.000358
57.316,61.0818,-0.000358
57.332,61.0708,-0.000358
57.349,61.0590,-0.000358
57.364,61.0489,-0.000358
57.381,61.0376,-0.000358
57.406,61.0208,-0.000358
57.428,61.0070,-0.000358
57.444,60.9977,-0.000358
57.460,60.9878,-0.000358
57.477,60.9777,-0.000358
57.492,60.9691,-0.000358
57.508,60.9600,-0.000358
57.530,60.9472,-0.000480
57.547,60.9387,-0.000480
57.577,60.9229,-0.000480
57.597,60.9124,-0.000480
57.624,60.8998,-0.000480
57.642,60.8912,-0.000480
57.658,60.8836,-0.000480
57.674,60.8769,-0.000480
57.690,60.8700,-0.000480
57.706,60.8633,-0.000480
57.723,60.8563,-0.000480
57.738,60.8501,-0.000480
57.754,60.8443,-0.000499
57.770,60.8380,-0.000499
57.786,60.8325,-0.000499
57.802,60.8268,-0.000499
57.818,60.8215,-0.000499
57.834,60.8165,-0.000499
57.853,60.8104,-0.000499
57.872,60.8047,-0.000499
57.903,60.7963,-0.000499
57.918,60.7922,-0.000499
57.934,60.7884,-0.000499
57.965,60.7813,-0.000499
57.996,60.7748,-0.000499
58.027,60.7694,-0.000452
58.042,60.7668,-0.000452
58.058,60.7644,-0.000452
58.086,60.7604,-0.000452
58.103,60.7586,-0.000452
58.119,60.7567,-0.000452
58.135,60.7554,-0.000452
58.152,60.7539,-0.000452
58.182,60.7519,-0.000452
58.199,60.7511,-0.000452
58.215,60.7505,-0.000452
58.231,60.7502,-0.000452
58.248,60.7500,-0.000452
58.276,60.7500,-0.000452
58.295,60.7500,-0.000452
58.311,60.7500,-0.000452
58.327,60.7500,-0.000452
58.343,60.7500,-0.000452
58.359,60.7500,-0.000452
58.375,60.7500,-0.000452
58.391,60.7502,-0.000452
58.408,60.7504,-0.000452
58.424,60.7508,-0.000452
58.446,60.7518,-0.000452
58.476,60.7537,-0.000452
58.507,60.7564,-0.000433
58.538,60.7597,-0.000433
58.554,60.7617,-0.000433
58.569,60.7638,-0.000433
58.599,60.7686,-0.000433
58.625,60.7731,-0.000433
58.640,60.7762,-0.000433
58.657,60.7794,-0.000433
58.673,60.7829,-0.000433
58.689,60.7866,-0.000433
58.705,60.7905,-0.000433
58.721,60.7946,-0.000433
58.737,60.7988,-0.000433
58.753,60.8036,-0.000433
58.769,60.8078,-0.000433
58.784,60.8127,-0.000433
58.801,60.8177,-0.000433
58.818,60.8238,-0.000433
58.845,60.8328,-0.000433
58.864,60.8396,-0.000433
58.881,60.8458,-0.000433
58.896,60.8519,-0.000433
58.913,60.8584,-0.000433
58.928,60.8646,-0.000433
58.945,60.8717,-0.000433
58.960,60.8784,-0.000433
58.976,60.8856,-0.000433
58.992,60.8929,-0.000433
59.009,60.9008,-0.000433
59.025,60.9085,-0.000433
59.048,60.9203,-0.000442
59.064,60.9282,-0.000442
59.095,60.9447,-0.000442
59.126,60.9617,-0.000442
59.150,60.9754,-0.000442
59.165,60.9848,-0.000442
59.181,60.9942,-0.000442
59.197,61.0042,-0.000442
59.213,61.0142,-0.000442
59.229,61.0244,-0.000442
59.247,61.0357,-0.000442
59.265,61.0484,-0.000442
59.281,61.0590,-0.000433
59.312,61.0803,-0.000433
59.328,61.0922,-0.000433
59.359,61.1142,-0.000433
59.375,61.1264,-0.000433
59.404,61.1491,-0.000433
59.421,61.1622,-0.000433
59.439,61.1762,-0.000433
59.466,61.1981,-0.000433
59.485,61.2140,-0.000433
59.506,61.2317,-0.000433
59.530,61.2528,-0.000433
59.549,61.2694,-0.000489
59.566,61.2843,-0.000489
59.581,61.2980,-0.000489
59.598,61.3131,-0.000489
59.613,61.3277,-0.000489
59.631,61.3440,-0.000489
59.652,61.3641,-0.000489
59.682,61.3940,-0.000489
59.699,61.4107,-0.000489
59.729,61.4421,-0.000489
59.749,61.4613,-0.000489
59.776,61.4896,-0.000537
59.806,61.5227,-0.000537
59.821,61.5384,-0.000537
59.837,61.5557,-0.000537
59.853,61.5743,-0.000537
59.870,61.5923,-0.000537
59.886,61.6104,-0.000537
59.902,61.6297,-0.000537
59.922,61.6529,-0.000537
59.945,61.6795,-0.000537
59.965,61.7033,-0.000537
59.982,61.7240,-0.000537
59.998,61.7433,-0.000537
60.013,61.7621,-0.000471
60.030,61.7825,-0.000471
60.046,61.8032,-0.000471
60.064,61.8256,-0.000471
60.085,61.8531,-0.000471
60.115,61.8920,-0.000471
60.131,61.9125,-0.000471
60.161,61.9528,-0.000471
60.192,61.9952,-0.000471
60.218,62.0321,-0.000471
60.235,62.0548,-0.000471
60.250,62.0766,-0.000377
60.266,62.0997,-0.000377
60.282,62.1225,-0.000377
60.298,62.1452,-0.000377
60.314,62.1690,-0.000377
60.330,62.1924,-0.000377
60.347,62.2171,-0.000377
60.363,62.2404,-0.000377
60.378,62.2656,-0.000377
60.401,62.3002,-0.000377
60.424,62.3353,-0.000377
60.443,62.3641,-0.000377
60.458,62.3881,-0.000377
60.474,62.4127,-0.000377
60.490,62.4396,-0.000377
60.506,62.4639,-0.000367
60.523,62.4912,-0.000367
60.548,62.5314,-0.000367
60.579,62.5842,-0.000367
60.609,62.6344,-0.000367
60.640,62.6878,-0.000367
60.671,62.7399,-0.000367
60.686,62.7675,-0.000367
60.703,62.7952,-0.000367
60.733,62.8494,-0.000367
60.754,62.8865,-0.000367
60.770,62.9165,-0.000367
60.786,62.9454,-0.000442
60.802,62.9744,-0.000442
60.818,63.0037,-0.000442
60.834,63.0326,-0.000442
60.850,63.0633,-0.000442
60.866,63.0927,-0.000442
60.882,63.1231,-0.000442
60.898,63.1534,-0.000442
60.914,63.1839,-0.000442
60.931,63.2176,-0.000442
60.946,63.2471,-0.000442
60.962,63.2768,-0.000442
60.978,63.3081,-0.000442
60.999,63.3514,-0.000442
61.014,63.3804,-0.000442
61.040,63.4330,-0.000442
61.058,63.4690,-0.000546
61.074,63.5010,-0.000546
61.090,63.5335,-0.000546
61.106,63.5668,-0.000546
61.122,63.6015,-0.000546
61.139,63.6346,-0.000546
61.164,63.6870,-0.000546
61.180,63.7211,-0.000546
61.211,63.7889,-0.000546
61.243,63.8558,-0.000546
61.273,63.9197,-0.000546
61.289,63.9498,-0.000546
61.311,63.9960,-0.000650
61.335,64.0458,-0.000650
61.351,64.0763,-0.000650
61.382,64.1385,-0.000650
61.412,64.1986,-0.000650
61.428,64.2288,-0.000650
61.444,64.2599,-0.000650
61.475,64.3199,-0.000650
61.510,64.3879,-0.000650
61.536,64.4361,-0.000715
61.568,64.4958,-0.000715
61.584,64.5258,-0.000715
61.614,64.5804,-0.000715
61.630,64.6083,-0.000715
61.646,64.6369,-0.000715
61.662,64.6653,-0.000715
61.679,64.6951,-0.000715
61.708,64.7468,-0.000715
61.726,64.7782,-0.000715
61.742,64.8055,-0.000715
61.760,64.8360,-0.000715
61.785,64.8784,-0.000753
61.806,64.9135,-0.000753
61.822,64.9413,-0.000753
61.837,64.9655,-0.000753
61.861,65.0038,-0.000753
61.877,65.0303,-0.000753
61.892,65.0553,-0.000753
61.909,65.0804,-0.000753
61.926,65.1095,-0.000753
61.956,65.1556,-0.000753
61.973,65.1811,-0.000753
61.990,65.2082,-0.000753
62.017,65.2491,-0.000847
62.037,65.2784,-0.000847
62.052,65.3016,-0.000847
62.069,65.3265,-0.000847
62.085,65.3488,-0.000847
62.100,65.3716,-0.000847
62.117,65.3953,-0.000847
62.132,65.4174,-0.000847
62.148,65.4401,-0.000847
62.164,65.4624,-0.000847
62.184,65.4902,-0.000847
62.202,65.5160,-0.000847
62.218,65.5356,-0.000847
62.233,65.5575,-0.000847
62.264,65.5985,-0.000932
62.296,65.6401,-0.000932
62.325,65.6775,-0.000932
62.341,65.6970,-0.000932
62.357,65.7172,-0.000932
62.372,65.7371,-0.000932
62.389,65.7570,-0.000932
62.416,65.7895,-0.000932
62.432,65.8087,-0.000932
62.448,65.8282,-0.000932
62.463,65.8460,-0.000932
62.480,65.8662,-0.000932
62.497,65.8847,-0.000932
62.528,65.9206,-0.001092
62.545,65.9389,-0.001092
62.560,65.9557,-0.001092
62.589,65.9877,-0.001092
62.609,66.0080,-0.001092
62.624,66.0238,-0.001092
62.639,66.0404,-0.001092
62.655,66.0566,-0.001092
62.674,66.0767,-0.001092
62.698,66.1002,-0.001092
62.719,66.1216,-0.001092
62.736,66.1364,-0.001092
62.752,66.1520,-0.001092
62.767,66.1665,-0.001233
62.783,66.1814,-0.001233
62.800,66.1968,-0.001233
62.815,66.2109,-0.001233
62.831,66.2253,-0.001233
62.847,66.2396,-0.001233
62.864,66.2537,-0.001233
62.879,66.2671,-0.001233
62.895,66.2806,-0.001233
62.911,66.2940,-0.001233
62.927,66.3078,-0.001233
62.943,66.3203,-0.001233
62.972,66.3436,-0.001233
62.989,66.3563,-0.001233
63.004,66.3684,-0.001290
63.020,66.3804,-0.001290
63.036,66.3920,-0.001290
63.053,66.4039,-0.001290
63.068,66.4152,-0.001290
63.084,66.4271,-0.001290
63.101,66.4389,-0.001290
63.131,66.4586,-0.001290
63.148,66.4699,-0.001290
63.164,66.4800,-0.001290
63.180,66.4901,-0.001290
63.196,66.5003,-0.001290
63.212,66.5098,-0.001290
63.230,66.5202,-0.001290
63.256,66.5358,-0.001337
63.277,66.5474,-0.001337
63.296,66.5587,-0.001337
63.318,66.5695,-0.001337
63.348,66.5851,-0.001337
63.379,66.5998,-0.001337
63.410,66.6145,-0.001337
63.440,66.6277,-0.001337
63.472,66.6409,-0.001337
63.496,66.6503,-0.001337
63.511,66.6564,-0.001337
63.528,66.6626,-0.001337
63.544,66.6682,-0.001337
63.559,66.6736,-0.001384
63.575,66.6788,-0.001384
63.591,66.6839,-0.001384
63.607,66.6889,-0.001384
63.623,66.6936,-0.001384
63.639,66.6983,-0.001384
63.655,66.7028,-0.001384
63.672,66.7071,-0.001384
63.687,66.7108,-0.001384
63.703,66.7147,-0.001384
63.719,66.7183,-0.001384
63.735,66.7216,-0.001384
63.751,66.7249,-0.001478
63.767,66.7278,-0.001478
63.783,66.7308,-0.001478
63.799,66.7333,-0.001478
63.815,66.7359,-0.001478
63.831,66.7380,-0.001478
63.847,66.7402,-0.001478
63.863,66.7420,-0.001478
63.879,66.7437,-0.001478
63.895,66.7451,-0.001478
63.911,66.7464,-0.001478
63.928,66.7476,-0.001478
63.952,66.7488,-0.001478
63.983,66.7498,-0.001478
63.998,66.7500,-0.001478
64.014,66.7500,-0.001478
64.036,66.7500,-0.001544
64.060,66.7500,-0.001544
64.075,66.7500,-0.001544
64.106,66.7500,-0.001544
64.137,66.7500,-0.001544
64.168,66.7500,-0.001544
64.183,66.7500,-0.001544
64.199,66.7500,-0.001544
64.230,66.7500,-0.001544
64.245,66.7500,-0.001544
64.261,66.7500,-0.001572
64.276,66.7500,-0.001572
64.292,66.7500,-0.001572
64.307,66.7500,-0.001572
64.323,66.7500,-0.001572
64.347,66.7500,-0.001572
64.369,66.7500,-0.001572
64.387,66.7500,-0.001572
64.404,66.7500,-0.001572
64.419,66.7500,-0.001572
64.434,66.7500,-0.001572
64.451,66.7500,-0.001572
64.467,66.7500,-0.001572
64.483,66.7500,-0.001572
64.499,66.7500,-0.001581
64.515,66.7500,-0.001581
64.531,66.7500,-0.001581
64.547,66.7500,-0.001581
64.562,66.7500,-0.001581
64.587,66.7500,-0.001581
64.610,66.7500,-0.001581
64.631,66.7500,-0.001581
64.650,66.7500,-0.001581
64.666,66.7500,-0.001581
64.681,66.7500,-0.001581
64.698,66.7500,-0.001581
64.717,66.7500,-0.001581
64.739,66.7500,-0.001581
64.771,66.7500,-0.001553
64.787,66.7500,-0.001553
64.818,66.7500,-0.001553
64.834,66.7500,-0.001553
64.864,66.7500,-0.001553
64.894,66.7500,-0.001553
64.910,66.7500,-0.001553
64.941,66.7500,-0.001553
64.971,66.7500,-0.001553
64.987,66.7500,-0.001553
65.019,66.7500,-0.001553
65.034,66.7500,-0.001553
65.049,66.7500,-0.001516
65.066,66.7500,-0.001516
65.082,66.7500,-0.001516
65.098,66.7500,-0.001516
65.123,66.7500,-0.001516
65.140,66.7500,-0.001516
65.171,66.7500,-0.001516
65.187,66.7500,-0.001516
65.203,66.7500,-0.001516
65.219,66.7500,-0.001516
65.234,66.7500,-0.001516
65.253,66.7500,-0.001516
65.279,66.7500,-0.001534
65.298,66.7500,-0.001534
65.315,66.7500,-0.001534
65.330,66.7500,-0.001534
65.346,66.7500,-0.001534
65.362,66.7500,-0.001534
65.379,66.7500,-0.001534
65.395,66.7500,-0.001534
65.419,66.7500,-0.001534
65.455,66.7500,-0.001534
65.475,66.7500,-0.001534
65.490,66.7500,-0.001534
65.507,66.7500,-0.001534
65.523,66.7500,-0.001506
65.538,66.7500,-0.001506
65.554,66.7500,-0.001506
65.570,66.7500,-0.001506
65.586,66.7500,-0.001506
65.602,66.7500,-0.001506
65.618,66.7500,-0.001506
65.635,66.7500,-0.001506
65.650,66.7500,-0.001506
65.679,66.7500,-0.001506
65.696,66.7500,-0.001506
65.712,66.7500,-0.001506
65.727,66.7500,-0.001506
65.744,66.7500,-0.001506
65.759,66.7500,-0.001506
65.775,66.7500,-0.001468
65.792,66.7500,-0.001468
65.808,66.7500,-0.001468
65.823,66.7500,-0.001468
65.839,66.7500,-0.001468
65.856,66.7500,-0.001468
65.877,66.7500,-0.001468
65.898,66.7500,-0.001468
65.919,66.7500,-0.001468
65.937,66.7500,-0.001468
65.961,66.7500,-0.001468
65.992,66.7500,-0.001468
66.024,66.7500,-0.001468
66.039,66.7500,-0.001478
66.070,66.7500,-0.001478
66.101,66.7500,-0.001478
66.117,66.7500,-0.001478
66.147,66.7500,-0.001478
66.177,66.7500,-0.001478
66.208,66.7500,-0.001478
66.236,66.7500,-0.001478
66.252,66.7500,-0.001478
66.268,66.7500,-0.001450
66.284,66.7500,-0.001450
66.300,66.7500,-0.001450
66.316,66.7500,-0.001450
66.333,66.7500,-0.001450
66.348,66.7500,-0.001450
66.372,66.7500,-0.001450
66.395,66.7500,-0.001450
66.412,66.7500,-0.001450
66.428,66.7500,-0.001450
66.444,66.7500,-0.001450
66.460,66.7500,-0.001450
66.476,66.7500,-0.001450
66.499,66.7500,-0.001450
66.521,66.7500,-0.001450
66.540,66.7500,-0.001487
66.556,66.7500,-0.001487
66.572,66.7500,-0.001487
66.588,66.7500,-0.001487
66.604,66.7500,-0.001487
66.620,66.7500,-0.001487
66.636,66.7500,-0.001487
66.652,66.7500,-0.001487
66.668,66.7500,-0.001487
66.684,66.7500,-0.001487
66.700,66.7500,-0.001487
66.716,66.7500,-0.001487
66.732,66.7500,-0.001487
66.761,66.7500,-0.001525
66.777,66.7500,-0.001525
66.793,66.7500,-0.001525
66.809,66.7500,-0.001525
66.825,66.7500,-0.001525
66.841,66.7500,-0.001525
66.857,66.7500,-0.001525
66.873,66.7500,-0.001525
66.889,66.7500,-0.001525
66.905,66.7500,-0.001525
66.921,66.7500,-0.001525
66.937,66.7500,-0.001525
66.953,66.7500,-0.001525
66.968,66.7500,-0.001525
66.985,66.7500,-0.001525
67.001,66.7500,-0.001525
67.018,66.7500,-0.001544
67.033,66.7500,-0.001544
67.050,66.7500,-0.001544
67.079,66.7500,-0.001544
67.097,66.7500,-0.001544
67.115,66.7500,-0.001544
67.142,66.7500,-0.001544
67.161,66.7500,-0.001544
67.178,66.7500,-0.001544
67.204,66.7500,-0.001544
67.225,66.7500,-0.001544
67.241,66.7500,-0.001544
67.257,66.7500,-0.001544
67.273,66.7500,-0.001544
67.296,66.7500,-0.001581
67.311,66.7500,-0.001581
67.328,66.7500,-0.001581
67.344,66.7500,-0.001581
67.360,66.7500,-0.001581
67.375,66.7500,-0.001581
67.392,66.7500,-0.001581
67.408,66.7500,-0.001581
67.424,66.7500,-0.001581
67.440,66.7500,-0.001581
67.456,66.7500,-0.001581
67.472,66.7500,-0.001581
67.488,66.7500,-0.001581
67.503,66.7500,-0.001581
67.519,66.7500,-0.001572
67.536,66.7500,-0.001572
67.552,66.7500,-0.001572
67.567,66.7500,-0.001572
67.583,66.7500,-0.001572
67.600,66.7500,-0.001572
67.616,66.7500,-0.001572
67.631,66.7500,-0.001572
67.648,66.7500,-0.001572
67.663,66.7500,-0.001572
67.680,66.7500,-0.001572
67.696,66.7500,-0.001572
67.712,66.7500,-0.001572
67.728,66.7500,-0.001572
67.747,66.7500,-0.001572
67.763,66.7500,-0.001544
67.778,66.7500,-0.001544
67.794,66.7500,-0.001544
67.824,66.7500,-0.001544
67.849,66.7500,-0.001544
67.864,66.7500,-0.001544
67.880,66.7500,-0.001544
67.897,66.7500,-0.001544
67.912,66.7500,-0.001544
67.929,66.7500,-0.001544
67.944,66.7500,-0.001544
67.961,66.7500,-0.001544
67.976,66.7500,-0.001544
67.993,66.7500,-0.001544
68.009,66.7500,-0.001572
68.026,66.7500,-0.001572
68.041,66.7500,-0.001572
68.057,66.7500,-0.001572
68.072,66.7500,-0.001572
68.088,66.7500,-0.001572
68.105,66.7500,-0.001572
68.121,66.7500,-0.001572
68.137,66.7500,-0.001572
68.152,66.7500,-0.001572
68.171,66.7500,-0.001572
68.196,66.7500,-0.001572
68.216,66.7500,-0.001572
68.236,66.7500,-0.001572
68.259,66.7500,-0.001572
68.289,66.7500,-0.001600
68.322,66.7500,-0.001600
68.351,66.7500,-0.001600
68.381,66.7500,-0.001600
68.412,66.7500,-0.001600
68.443,66.7500,-0.001600
68.474,66.7500,-0.001600
68.505,66.7500,-0.001591
68.536,66.7500,-0.001591
68.553,66.7500,-0.001591
68.568,66.7500,-0.001591
68.584,66.7500,-0.001591
68.607,66.7500,-0.001591
68.634,66.7500,-0.001591
68.660,66.7500,-0.001591
68.680,66.7500,-0.001591
68.696,66.7500,-0.001591
68.712,66.7500,-0.001591
68.729,66.7500,-0.001591
68.745,66.7500,-0.001591
68.760,66.7500,-0.001619
68.776,66.7500,-0.001619
68.793,66.7500,-0.001619
68.809,66.7500,-0.001619
68.824,66.7500,-0.001619
68.840,66.7500,-0.001619
68.857,66.7498,-0.001619
68.877,66.7492,-0.001619
68.908,66.7476,-0.001619
68.923,66.7466,-0.001619
68.954,66.7440,-0.001619
68.985,66.7407,-0.001619
69.001,66.7387,-0.001685
69.016,66.7366,-0.001685
69.039,66.7332,-0.001685
69.064,66.7291,-0.001685
69.080,66.7260,-0.001685
69.096,66.7230,-0.001685
69.112,66.7195,-0.001685
69.128,66.7161,-0.001685
69.144,66.7123,-0.001685
69.160,66.7082,-0.001685
69.176,66.7043,-0.001685
69.192,66.7001,-0.001685
69.208,66.6955,-0.001685
69.224,66.6906,-0.001685
69.240,66.6859,-0.001685
69.256,66.6807,-0.000725
69.272,66.6755,-0.000725
69.288,66.6702,-0.000725
69.304,66.6643,-0.000725
69.320,66.6586,-0.000725
69.336,66.6526,-0.000725
69.352,66.6462,-0.000725
69.368,66.6399,-0.000725
69.384,66.6331,-0.000725
69.400,66.6263,-0.000725
69.416,66.6191,-0.000725
69.432,66.6121,-0.000725
69.461,66.5982,-0.000725
69.477,66.5908,-0.000725
69.493,66.5827,-0.000725
69.509,66.5745,0.002127
69.525,66.5664,0.002127
69.541,66.5575,0.002127
69.557,66.5492,0.002127
69.574,66.5397,0.002127
69.589,66.5308,0.002127
69.605,66.5213,0.002127
69.622,66.5117,0.002127
69.643,66.4988,0.002127
69.659,66.4890,0.002127
69.681,66.4747,0.002127
69.701,66.4614,0.002127
69.718,66.4504,0.002127
69.743,66.4337,0.002127
69.773,66.4119,0.002127
69.804,66.3901,0.007145
69.819,66.3780,0.007145
69.850,66.3551,0.007145
69.865,66.3431,0.007145
69.896,66.3186,0.007145
69.912,66.3058,0.007145
69.928,66.2929,0.007145
69.943,66.2794,0.007145
69.974,66.2533,0.007145
70.002,66.2284,0.007145
70.018,66.2145,0.007145
70.036,66.1976,0.007145
70.052,66.1830,0.014685
70.083,66.1534,0.014685
70.099,66.1392,0.014685
70.130,66.1090,0.014685
70.145,66.0935,0.014685
70.161,66.0777,0.014685
70.177,66.0622,0.014685
70.193,66.0451,0.014685
70.209,66.0286,0.014685
70.225,66.0118,0.014685
70.241,65.9952,0.014685
70.263,65.9709,0.014685
70.286,65.9455,0.024343
70.305,65.9253,0.024343
70.321,65.9068,0.024343
70.337,65.8886,0.024343
70.352,65.8711,0.024343
70.369,65.8519,0.024343
70.385,65.8325,0.024343
70.401,65.8137,0.024343
70.417,65.7955,0.024343
70.433,65.7762,0.024343
70.449,65.7560,0.024343
70.464,65.7369,0.024343
70.481,65.7170,0.024343
70.497,65.6963,0.024343
70.522,65.6651,0.038076
70.538,65.6440,0.038076
70.554,65.6230,0.038076
70.570,65.6018,0.038076
70.585,65.5817,0.038076
70.602,65.5599,0.038076
70.618,65.5371,0.038076
70.634,65.5160,0.038076
70.650,65.4942,0.038076
70.666,65.4728,0.038076
70.682,65.4501,0.038076
70.698,65.4266,0.038076
70.713,65.4052,0.038076
70.729,65.3824,0.038076
70.745,65.3592,0.038076
70.761,65.3347,0.038076
70.778,65.3120,0.052723
70.794,65.2873,0.052723
70.809,65.2647,0.052723
70.826,65.2398,0.052723
70.841,65.2156,0.052723
70.857,65.1921,0.052723
70.874,65.1654,0.052723
70.891,65.1407,0.052723
70.920,65.0926,0.052723
70.937,65.0663,0.052723
70.953,65.0414,0.052723
70.969,65.0152,0.052723
70.986,64.9888,0.052723
71.002,64.9615,0.052723
71.017,64.9363,0.052723
71.034,64.9090,0.052723
71.058,64.8681,0.029049
71.074,64.8404,0.029049
71.090,64.8142,0.029049
71.105,64.7877,0.029049
71.122,64.7591,0.029049
71.138,64.7318,0.029049
71.155,64.7008,0.029049
71.183,64.6512,0.029049
71.205,64.6111,0.029049
71.230,64.5678,0.029049
71.250,64.5304,0.029049
71.265,64.5026,0.029049
71.281,64.4735,-0.000800
71.299,64.4405,-0.000800
71.315,64.4106,-0.000800
71.337,64.3669,-0.000800
71.353,64.3377,-0.000800
71.368,64.3085,-0.000800
71.384,64.2773,-0.000800
71.414,64.2188,-0.000800
71.445,64.1583,-0.000800
71.476,64.0975,-0.000800
71.492,64.0653,-0.000800
71.523,64.0002,-0.000697
71.539,63.9698,-0.000697
71.555,63.9367,-0.000697
71.571,63.9034,-0.000697
71.598,63.8450,-0.000697
71.614,63.8119,-0.000697
71.631,63.7779,-0.000697
71.646,63.7453,-0.000697
71.662,63.7113,-0.000697
71.678,63.6759,-0.000697
71.694,63.6430,-0.000697
71.711,63.6070,-0.000697
71.730,63.5675,-0.000697
71.756,63.5131,-0.000555
71.774,63.4759,-0.000555
71.790,63.4433,-0.000555
71.806,63.4116,-0.000555
71.822,63.3785,-0.000555
71.838,63.3463,-0.000555
71.855,63.3138,-0.000555
71.870,63.2828,-0.000555
71.886,63.2521,-0.000555
71.902,63.2200,-0.000555
71.918,63.1889,-0.000555
71.934,63.1581,-0.000555
71.950,63.1269,-0.000555
71.966,63.0966,-0.000555
71.982,63.0667,-0.000555
71.998,63.0369,-0.000508
72.014,63.0065,-0.000508
72.031,62.9739,-0.000508
72.049,62.9407,-0.000508
72.080,62.8853,-0.000508
72.110,62.8306,-0.000508
72.126,62.8017,-0.000508
72.154,62.7520,-0.000508
72.172,62.7213,-0.000508
72.203,62.6671,-0.000508
72.218,62.6404,-0.000508
72.234,62.6137,-0.000508
72.249,62.5883,-0.000480
72.265,62.5619,-0.000480
72.282,62.5329,-0.000480
72.297,62.5077,-0.000480
72.314,62.4798,-0.000480
72.329,62.4560,-0.000480
72.348,62.4251,-0.000480
72.374,62.3832,-0.000480
72.393,62.3525,-0.000480
72.409,62.3274,-0.000480
72.425,62.3017,-0.000480
72.441,62.2776,-0.000480
72.457,62.2528,-0.000480
72.473,62.2270,-0.000480
72.489,62.2040,-0.000480
72.505,62.1809,-0.000395
72.521,62.1568,-0.000395
72.537,62.1334,-0.000395
72.553,62.1090,-0.000395
72.569,62.0859,-0.000395
72.585,62.0629,-0.000395
72.601,62.0399,-0.000395
72.617,62.0179,-0.000395
72.633,61.9949,-0.000395
72.649,61.9725,-0.000395
72.665,61.9505,-0.000395
72.682,61.9274,-0.000395
72.712,61.8866,-0.000395
72.728,61.8640,-0.000395
72.744,61.8434,-0.000395
72.760,61.8236,-0.000348
72.777,61.8009,-0.000348
72.805,61.7638,-0.000348
72.823,61.7418,-0.000348
72.839,61.7220,-0.000348
72.855,61.7024,-0.000348
72.871,61.6833,-0.000348
72.887,61.6640,-0.000348
72.904,61.6432,-0.000348
72.920,61.6248,-0.000348
72.946,61.5933,-0.000348
72.967,61.5695,-0.000348
72.983,61.5515,-0.000348
72.999,61.5334,-0.000367
73.015,61.5157,-0.000367
73.032,61.4966,-0.000367
73.047,61.4800,-0.000367
73.062,61.4633,-0.000367
73.079,61.4457,-0.000367
73.095,61.4287,-0.000367
73.111,61.4121,-0.000367
73.127,61.3961,-0.000367
73.143,61.3794,-0.000367
73.159,61.3632,-0.000367
73.174,61.3477,-0.000367
73.191,61.3319,-0.000367
73.207,61.3164,-0.000367
73.222,61.3009,-0.000367
73.239,61.2847,-0.000367
73.269,61.2579,-0.000377
73.285,61.2428,-0.000377
73.300,61.2289,-0.000377
73.316,61.2146,-0.000377
73.333,61.1997,-0.000377
73.349,61.1865,-0.000377
73.365,61.1725,-0.000377
73.381,61.1596,-0.000377
73.397,61.1458,-0.000377
73.413,61.1330,-0.000377
73.428,61.1207,-0.000377
73.444,61.1080,-0.000377
73.461,61.0949,-0.000377
73.476,61.0833,-0.000377
73.493,61.0708,-0.000377
73.509,61.0590,-0.000433
73.524,61.0474,-0.000433
73.540,61.0362,-0.000433
73.556,61.0249,-0.000433
73.573,61.0126,-0.000433
73.589,61.0027,-0.000433
73.604,60.9917,-0.000433
73.621,60.9808,-0.000433
73.640,60.9678,-0.000433
73.657,60.9580,-0.000433
73.673,60.9481,-0.000433
73.689,60.9388,-0.000433
73.719,60.9208,-0.000433
73.750,60.9029,-0.000433
73.766,60.8941,-0.000433
73.782,60.8860,-0.000433
73.812,60.8701,-0.000471
73.829,60.8619,-0.000471
73.844,60.8541,-0.000471
73.860,60.8468,-0.000471
73.876,60.8392,-0.000471
73.892,60.8320,-0.000471
73.909,60.8247,-0.000471
73.924,60.8181,-0.000471
73.941,60.8108,-0.000471
73.968,60.8005,-0.000471
73.989,60.7921,-0.000471
74.014,60.7830,-0.000471
74.045,60.7726,-0.000489
74.061,60.7671,-0.000489
74.091,60.7581,-0.000489
74.106,60.7536,-0.000489
74.137,60.7452,-0.000489
74.167,60.7376,-0.000489
74.183,60.7339,-0.000489
74.214,60.7273,-0.000489
74.244,60.7215,-0.000489
74.260,60.7187,-0.000489
74.276,60.7162,-0.000471
74.292,60.7138,-0.000471
74.311,60.7112,-0.000471
74.338,60.7079,-0.000471
74.366,60.7053,-0.000471
74.382,60.7039,-0.000471
74.398,60.7028,-0.000471
74.415,60.7018,-0.000471
74.431,60.7010,-0.000471
74.453,60.7004,-0.000471
74.477,60.7000,-0.000471
74.495,60.7000,-0.000471
74.511,60.7000,-0.000471
74.526,60.7000,-0.000489
74.542,60.7000,-0.000489
74.559,60.7000,-0.000489
74.586,60.7000,-0.000489
74.606,60.7000,-0.000489
74.622,60.7002,-0.000489
74.638,60.7004,-0.000489
74.654,60.7008,-0.000489
74.672,60.7015,-0.000489
74.695,60.7029,-0.000489
74.727,60.7053,-0.000489
74.757,60.7084,-0.000489
74.788,60.7122,-0.000489
74.819,60.7168,-0.000489
74.850,60.7219,-0.000489
74.881,60.7282,-0.000489
74.906,60.7334,-0.000489
74.922,60.7371,-0.000489
74.938,60.7409,-0.000489
74.954,60.7449,-0.000489
74.970,60.7493,-0.000489
74.986,60.7536,-0.000489
75.002,60.7583,-0.000489
75.020,60.7642,-0.000461
75.035,60.7685,-0.000461
75.050,60.7736,-0.000461
75.066,60.7790,-0.000461
75.083,60.7851,-0.000461
75.112,60.7959,-0.000461
75.130,60.8025,-0.000461
75.149,60.8106,-0.000461
75.174,60.8208,-0.000461
75.194,60.8293,-0.000461
75.210,60.8367,-0.000461
75.226,60.8438,-0.000461
75.242,60.8514,-0.000461
75.258,60.8590,-0.000480
75.274,60.8671,-0.000480
75.290,60.8755,-0.000480
75.306,60.8840,-0.000480
75.322,60.8920,-0.000480
75.338,60.9007,-0.000480
75.354,60.9096,-0.000480
75.370,60.9189,-0.000480
75.386,60.9281,-0.000480
75.402,60.9376,-0.000480
75.432,60.9562,-0.000480
75.448,60.9660,-0.000480
75.464,60.9762,-0.000480
75.480,60.9867,-0.000480
75.497,60.9984,-0.000480
75.514,61.0097,-0.000480
75.529,61.0199,-0.000471
75.560,61.0425,-0.000471
75.576,61.0534,-0.000471
75.592,61.0655,-0.000471
75.608,61.0771,-0.000471
75.632,61.0967,-0.000471
75.654,61.1130,-0.000471
75.672,61.1273,-0.000471
75.688,61.1410,-0.000471
75.703,61.1531,-0.000471
75.720,61.1672,-0.000471
75.736,61.1800,-0.000471
75.752,61.1944,-0.000471
75.768,61.2079,-0.000471
75.783,61.2216,-0.000508
75.800,61.2360,-0.000508
75.816,61.2512,-0.000508
75.832,61.2653,-0.000508
75.848,61.2806,-0.000508
75.863,61.2952,-0.000508
75.880,61.3114,-0.000508
75.895,61.3261,-0.000508
75.912,61.3420,-0.000508
75.927,61.3576,-0.000508
75.955,61.3849,-0.000508
75.971,61.4023,-0.000508
75.993,61.4247,-0.000508
76.024,61.4571,-0.000546
76.055,61.4911,-0.000546
76.086,61.5252,-0.000546
76.102,61.5432,-0.000546
76.132,61.5784,-0.000546
76.163,61.6140,-0.000546
76.179,61.6321,-0.000546
76.194,61.6509,-0.000546
76.211,61.6705,-0.000546
76.227,61.6900,-0.000546
76.242,61.7095,-0.000546
76.259,61.7297,-0.000546
76.276,61.7510,-0.000471
76.303,61.7850,-0.000471
76.323,61.8120,-0.000471
76.338,61.8310,-0.000471
76.354,61.8522,-0.000471
76.371,61.8749,-0.000471
76.396,61.9088,-0.000471
76.427,61.9516,-0.000471
76.442,61.9719,-0.000471
76.473,62.0146,-0.000471
76.494,62.0446,-0.000471
76.510,62.0673,-0.000471
76.526,62.0903,-0.000377
76.542,62.1138,-0.000377
76.559,62.1386,-0.000377
76.575,62.1615,-0.000377
76.590,62.1850,-0.000377
76.606,62.2089,-0.000377
76.623,62.2341,-0.000377
76.638,62.2577,-0.000377
76.654,62.2830,-0.000377
76.671,62.3080,-0.000377
76.686,62.3324,-0.000377
76.703,62.3586,-0.000377
76.718,62.3828,-0.000377
76.734,62.4086,-0.000377
76.750,62.4355,-0.000377
76.767,62.4613,-0.000358
76.783,62.4886,-0.000358
76.806,62.5265,-0.000358
76.821,62.5541,-0.000358
76.844,62.5893,-0.000358
76.863,62.6224,-0.000358
76.879,62.6486,-0.000358
76.895,62.6769,-0.000358
76.910,62.7033,-0.000358
76.926,62.7312,-0.000358
76.943,62.7601,-0.000358
76.958,62.7877,-0.000358
76.974,62.8163,-0.000358
76.991,62.8460,-0.000358
77.006,62.8739,-0.000358
77.022,62.9037,-0.000358
77.044,62.9443,-0.000405
77.062,62.9784,-0.000405
77.090,63.0287,-0.000405
77.108,63.0624,-0.000405
77.123,63.0925,-0.000405
77.139,63.1222,-0.000405
77.155,63.1526,-0.000405
77.176,63.1937,-0.000405
77.198,63.2357,-0.000405
77.214,63.2662,-0.000405
77.245,63.3279,-0.000405
77.275,63.3901,-0.000499
77.307,63.4549,-0.000499
77.338,63.5175,-0.000499
77.368,63.5815,-0.000499
77.398,63.6440,-0.000499
77.415,63.6796,-0.000499
77.430,63.7113,-0.000499
77.446,63.7454,-0.000499
77.477,63.8128,-0.000499
77.493,63.8457,-0.000499
77.509,63.8768,-0.000640
77.525,63.9094,-0.000640
77.540,63.9413,-0.000640
77.556,63.9723,-0.000640
77.571,64.0037,-0.000640
77.599,64.0612,-0.000640
77.615,64.0938,-0.000640
77.631,64.1242,-0.000640
77.647,64.1543,-0.000640
77.671,64.2031,-0.000640
77.694,64.2469,-0.000640
77.711,64.2784,-0.000640
77.727,64.3116,-0.000640
77.743,64.3391,-0.000640
77.759,64.3708,-0.000650
77.775,64.4002,-0.000650
77.791,64.4314,-0.000650
77.807,64.4589,-0.000650
77.823,64.4885,-0.000650
77.839,64.5172,-0.000650
77.857,64.5521,-0.000650
77.882,64.5948,-0.000650
77.903,64.6326,-0.000650
77.919,64.6610,-0.000650
77.935,64.6891,-0.000650
77.951,64.7159,-0.000650
77.967,64.7437,-0.000650
77.983,64.7717,-0.000650
77.999,64.7991,-0.000668
78.014,64.8252,-0.000668
78.031,64.8522,-0.000668
78.047,64.8795,-0.000668
78.063,64.9054,-0.000668
78.079,64.9322,-0.000668
78.095,64.9583,-0.000668
78.111,64.9837,-0.000668
78.128,65.0113,-0.000668
78.157,65.0571,-0.000668
78.173,65.0824,-0.000668
78.188,65.1080,-0.000668
78.205,65.1324,-0.000668
78.220,65.1565,-0.000668
78.236,65.1805,-0.000668
78.253,65.2050,-0.000847
78.269,65.2290,-0.000847
78.286,65.2556,-0.000847
78.301,65.2770,-0.000847
78.318,65.3009,-0.000847
78.333,65.3228,-0.000847
78.349,65.3456,-0.000847
78.365,65.3700,-0.000847
78.381,65.3911,-0.000847
78.397,65.4137,-0.000847
78.413,65.4366,-0.000847
78.429,65.4586,-0.000847
78.445,65.4795,-0.000847
78.461,65.5019,-0.000847
78.478,65.5252,-0.000847
78.499,65.5528,-0.000847
78.530,65.5940,-0.001017
78.560,65.6320,-0.001017
78.577,65.6526,-0.001017
78.592,65.6730,-0.001017
78.608,65.6920,-0.001017
78.639,65.7298,-0.001017
78.670,65.7670,-0.001017
78.701,65.8030,-0.001017
78.717,65.8227,-0.001017
78.734,65.8412,-0.001017
78.749,65.8581,-0.001101
78.765,65.8760,-0.001101
78.782,65.8953,-0.001101
78.797,65.9116,-0.001101
78.813,65.9296,-0.001101
78.828,65.9455,-0.001101
78.844,65.9626,-0.001101
78.860,65.9795,-0.001101
78.876,65.9961,-0.001101
78.892,66.0123,-0.001101
78.908,66.0287,-0.001101
78.924,66.0447,-0.001101
78.940,66.0605,-0.001101
78.957,66.0766,-0.001101
78.972,66.0915,-0.001101
78.989,66.1072,-0.001101
79.004,66.1220,-0.001101
79.022,66.1382,-0.001101
79.041,66.1558,-0.001101
79.057,66.1705,-0.001186
79.088,66.1981,-0.001186
79.104,66.2115,-0.001186
79.119,66.2245,-0.001186
79.135,66.2386,-0.001186
79.151,66.2516,-0.001186
79.167,66.2640,-0.001186
79.197,66.2887,-0.001186
79.226,66.3115,-0.001186
79.242,66.3231,-0.001186
79.258,66.3348,-0.001271
79.274,66.3468,-0.001271
79.289,66.3582,-0.001271
79.305,66.3693,-0.001271
79.322,66.3807,-0.001271
79.338,66.3920,-0.001271
79.354,66.4033,-0.001271
79.369,66.4129,-0.001271
79.388,66.4253,-0.001271
79.412,66.4407,-0.001271
79.433,66.4536,-0.001271
79.449,66.4633,-0.001271
79.465,66.4727,-0.001271
79.482,66.4823,-0.001271
79.497,66.4911,-0.001271
79.513,66.4999,-0.001271
79.529,66.5087,-0.001346
79.545,66.5174,-0.001346
79.561,66.5256,-0.001346
79.577,66.5336,-0.001346
79.593,66.5416,-0.001346
79.609,66.5492,-0.001346
79.625,66.5568,-0.001346
79.642,66.5647,-0.001346
79.657,66.5713,-0.001346
79.673,66.5784,-0.001346
79.689,66.5852,-0.001346
79.705,66.5917,-0.001346
79.721,66.5981,-0.001346
79.747,66.6080,-0.001346
79.763,66.6137,-0.001346
79.778,66.6192,-0.001403
79.794,66.6248,-0.001403
79.810,66.6300,-0.001403
79.827,66.6352,-0.001403
79.842,66.6400,-0.001403
79.858,66.6449,-0.001403
79.875,66.6497,-0.001403
79.890,66.6537,-0.001403
79.906,66.6579,-0.001403
79.923,66.6621,-0.001403
79.953,66.6690,-0.001403
79.970,66.6725,-0.001403
79.987,66.6757,-0.001403
80.015,66.6808,-0.001478
80.034,66.6841,-0.001478
80.050,66.6864,-0.001478
80.066,66.6886,-0.001478
80.082,66.6905,-0.001478
80.098,66.6924,-0.001478
80.114,66.6941,-0.001478
80.130,66.6955,-0.001478
80.146,66.6967,-0.001478
80.162,66.6978,-0.001478
80.179,66.6987,-0.001478
80.201,66.6994,-0.001478
80.232,66.7001,-0.001478
80.247,66.7001,-0.001478
80.277,66.7001,-0.001478
80.293,66.7001,-0.001553
80.324,66.7001,-0.001553
80.354,66.7001,-0.001553
80.370,66.7001,-0.001553
80.386,66.7001,-0.001553
80.402,66.7001,-0.001553
80.419,66.7001,-0.001553
80.447,66.7001,-0.001553
80.466,66.7001,-0.001553
80.483,66.7001,-0.001553
80.507,66.7001,-0.001553
80.538,66.7001,-0.001581
80.570,66.7001,-0.001581
80.600,66.7001,-0.001581
80.631,66.7001,-0.001581
80.646,66.7001,-0.001581
80.662,66.7001,-0.001581
80.693,66.7001,-0.001581
80.708,66.7001,-0.001581
80.739,66.7001,-0.001581
80.769,66.7001,-0.001544
80.787,66.7001,-0.001544
80.817,66.7001,-0.001544
80.844,66.7001,-0.001544
80.860,66.7001,-0.001544
80.876,66.7001,-0.001544
80.892,66.7001,-0.001544
80.908,66.7001,-0.001544
80.925,66.7001,-0.001544
80.956,66.7001,-0.001544
80.973,66.7001,-0.001544
80.988,66.7001,-0.001544
81.004,66.7001,-0.001497
81.020,66.7001,-0.001497
81.036,66.7001,-0.001497
81.052,66.7001,-0.001497
81.068,66.7001,-0.001497
81.084,66.7001,-0.001497
81.100,66.7001,-0.001497
81.116,66.7001,-0.001497
81.132,66.7001,-0.001497
81.148,66.7001,-0.001497
81.168,66.7001,-0.001497
81.190,66.7001,-0.001497
81.221,66.7001,-0.001497
81.252,66.7001,-0.001497
81.282,66.7001,-0.001478
81.299,66.7001,-0.001478
81.329,66.7001,-0.001478
81.345,66.7001,-0.001478
81.368,66.7001,-0.001478
81.384,66.7001,-0.001478
81.400,66.7001,-0.001478
81.416,66.7001,-0.001478
81.431,66.7001,-0.001478
81.448,66.7001,-0.001478
81.463,66.7001,-0.001478
81.480,66.7001,-0.001478
81.496,66.7001,-0.001478
81.512,66.7001,-0.001468
81.528,66.7001,-0.001468
81.544,66.7001,-0.001468
81.560,66.7001,-0.001468
81.576,66.7001,-0.001468
81.592,66.7001,-0.001468
81.607,66.7001,-0.001468
81.624,66.7001,-0.001468
81.639,66.7001,-0.001468
81.656,66.7001,-0.001468
81.672,66.7001,-0.001468
81.687,66.7001,-0.001468
81.704,66.7001,-0.001468
81.720,66.7001,-0.001468
81.735,66.7001,-0.001468
81.752,66.7001,-0.001487
81.768,66.7001,-0.001487
81.784,66.7001,-0.001487
81.799,66.7001,-0.001487
81.816,66.7001,-0.001487
81.832,66.7001,-0.001487
81.847,66.7001,-0.001487
81.864,66.7001,-0.001487
81.880,66.7001,-0.001487
81.905,66.7001,-0.001487
81.929,66.7001,-0.001487
81.951,66.7001,-0.001487
81.968,66.7001,-0.001487
81.985,66.7001,-0.001487
82.001,66.7001,-0.001506
82.017,66.7001,-0.001506
82.033,66.7001,-0.001506
82.049,66.7001,-0.001506
82.064,66.7001,-0.001506
82.080,66.7001,-0.001506
82.096,66.7001,-0.001506
82.113,66.7001,-0.001506
82.129,66.7001,-0.001506
82.145,66.7001,-0.001506
82.160,66.7001,-0.001506
82.176,66.7001,-0.001506
82.192,66.7001,-0.001506
82.209,66.7001,-0.001506
82.225,66.7001,-0.001506
82.240,66.7001,-0.001506
82.256,66.7001,-0.001506
82.272,66.7001,-0.001506
82.289,66.7001,-0.001506
82.305,66.7001,-0.001506
82.321,66.7001,-0.001506
82.337,66.7001,-0.001506
82.353,66.7001,-0.001506
82.368,66.7001,-0.001506
82.384,66.7001,-0.001506
82.401,66.7001,-0.001506
82.432,66.7001,-0.001506
82.459,66.7001,-0.001506
82.475,66.7001,-0.001506
82.491,66.7001,-0.001506
82.507,66.7001,-0.001497
82.523,66.7001,-0.001497
82.538,66.7001,-0.001497
82.554,66.7001,-0.001497
82.571,66.7001,-0.001497
82.587,66.7001,-0.001497
82.618,66.7001,-0.001497
82.639,66.7001,-0.001497
82.664,66.7001,-0.001497
82.682,66.7001,-0.001497
82.698,66.7001,-0.001497
82.714,66.7001,-0.001497
82.730,66.7001,-0.001497
82.746,66.7001,-0.001497
82.762,66.7001,-0.001497
82.779,66.7001,-0.001497
82.804,66.7001,-0.001506
82.834,66.7001,-0.001506
82.864,66.7001,-0.001506
82.895,66.7001,-0.001506
82.926,66.7001,-0.001506
82.943,66.7001,-0.001506
82.973,66.7001,-0.001506
83.001,66.7001,-0.001506
83.018,66.7001,-0.001506
83.033,66.7001,-0.001450
83.049,66.7001,-0.001450
83.065,66.7001,-0.001450
83.081,66.7001,-0.001450
83.097,66.7001,-0.001450
83.113,66.7001,-0.001450
83.130,66.7001,-0.001450
83.146,66.7001,-0.001450
83.175,66.7001,-0.001450
83.196,66.7001,-0.001450
83.221,66.7001,-0.001450
83.241,66.7001,-0.001450
83.257,66.7001,-0.001450
83.273,66.7001,-0.001450
83.289,66.7001,-0.001421
83.305,66.7001,-0.001421
83.321,66.7001,-0.001421
83.337,66.7001,-0.001421
83.353,66.7001,-0.001421
83.369,66.7001,-0.001421
83.386,66.7001,-0.001421
83.401,66.7001,-0.001421
83.417,66.7001,-0.001421
83.433,66.7001,-0.001421
83.449,66.7001,-0.001421
83.465,66.7001,-0.001421
83.482,66.7001,-0.001421
83.498,66.7001,-0.001421
83.514,66.7001,-0.001421
83.544,66.7001,-0.001431
83.568,66.7001,-0.001431
83.591,66.7001,-0.001431
83.607,66.7001,-0.001431
83.623,66.7001,-0.001431
83.639,66.7001,-0.001431
83.655,66.7001,-0.001431
83.673,66.7001,-0.001431
83.688,66.7001,-0.001431
83.704,66.7001,-0.001431
83.719,66.7001,-0.001431
83.739,66.7001,-0.001431
83.765,66.7001,-0.001431
83.783,66.7001,-0.001487
83.799,66.7001,-0.001487
83.815,66.7001,-0.001487
83.831,66.7001,-0.001487
83.847,66.7001,-0.001487
83.863,66.7001,-0.001487
83.879,66.7001,-0.001487
83.895,66.7001,-0.001487
83.911,66.7001,-0.001487
83.927,66.7001,-0.001487
83.943,66.7001,-0.001487
83.959,66.7001,-0.001487
83.975,66.7001,-0.001487
83.991,66.7001,-0.001487
84.007,66.7001,-0.001572
84.023,66.7001,-0.001572
84.039,66.7001,-0.001572
84.055,66.7001,-0.001572
84.085,66.7001,-0.001572
84.101,66.7001,-0.001572
84.117,66.7001,-0.001572
84.133,66.7001,-0.001572
84.149,66.7001,-0.001572
84.165,66.7001,-0.001572
84.181,66.7001,-0.001572
84.197,66.7001,-0.001572
84.213,66.7001,-0.001572
84.229,66.7001,-0.001572
84.245,66.7001,-0.001572
84.261,66.7001,-0.001638
84.276,66.7001,-0.001638
84.293,66.7001,-0.001638
84.309,66.7001,-0.001638
84.325,66.7001,-0.001638
84.341,66.7001,-0.001638
84.357,66.7001,-0.001638
84.373,66.7001,-0.001638
84.389,66.7001,-0.001638
84.405,66.7001,-0.001638
84.421,66.7001,-0.001638
84.436,66.7001,-0.001638
84.453,66.6999,-0.001638
84.469,66.6997,-0.001638
84.484,66.6992,-0.001638
84.502,66.6984,-0.001638
84.517,66.6976,-0.001638
84.532,66.6967,-0.001638
84.549,66.6953,-0.001704
84.564,66.6940,-0.001704
84.581,66.6922,-0.001704
84.596,66.6905,-0.001704
84.613,66.6885,-0.001704
84.630,66.6860,-0.001704
84.647,66.6833,-0.001704
84.663,66.6807,-0.001704
84.678,66.6781,-0.001704
84.693,66.6752,-0.001704
84.709,66.6721,-0.001704
84.724,66.6688,-0.001704
84.741,66.6653,-0.001704
84.757,66.6615,-0.001704
84.773,66.6575,-0.001704
84.789,66.6533,-0.001356
84.804,66.6492,-0.001356
84.821,66.6442,-0.001356
84.837,66.6398,-0.001356
84.853,66.6348,-0.001356
84.868,66.6299,-0.001356
84.885,66.6240,-0.001356
84.901,66.6188,-0.001356
84.916,66.6134,-0.001356
84.933,66.6070,-0.001356
84.949,66.6012,-0.001356
84.964,66.5950,-0.001356
84.980,66.5884,-0.001356
84.997,66.5817,-0.001356
85.012,66.5750,-0.001356
85.028,66.5678,0.000499
85.044,66.5608,0.000499
85.061,66.5526,0.000499
85.083,66.5423,0.000499
85.109,66.5293,0.000499
85.124,66.5217,0.000499
85.141,66.5129,0.000499
85.156,66.5045,0.000499
85.184,66.4888,0.000499
85.201,66.4795,0.000499
85.217,66.4701,0.000499
85.232,66.4609,0.000499
85.249,66.4505,0.000499
85.264,66.4413,0.000499
85.280,66.4314,0.004528
85.296,66.4211,0.004528
85.313,66.4102,0.004528
85.329,66.3994,0.004528
85.345,66.3884,0.004528
85.361,66.3772,0.004528
85.378,66.3654,0.004528
85.403,66.3476,0.004528
85.418,66.3358,0.004528
85.449,66.3130,0.004528
85.464,66.3009,0.004528
85.495,66.2758,0.004528
85.527,66.2508,0.010835
85.558,66.2248,0.010835
85.573,66.2118,0.010835
85.589,66.1984,0.010835
85.605,66.1844,0.010835
85.621,66.1695,0.010835
85.638,66.1550,0.010835
85.667,66.1277,0.010835
85.683,66.1119,0.010835
85.706,66.0908,0.010835
85.723,66.0750,0.010835
85.738,66.0598,0.010835
85.755,66.0430,0.010835
85.771,66.0277,0.010835
85.786,66.0118,0.019212
85.803,65.9950,0.019212
85.819,65.9781,0.019212
85.834,65.9620,0.019212
85.850,65.9446,0.019212
85.866,65.9278,0.019212
85.882,65.9103,0.019212
85.898,65.8922,0.019212
85.914,65.8748,0.019212
85.930,65.8568,0.019212
85.946,65.8382,0.019212
85.962,65.8197,0.019212
85.978,65.8014,0.019212
85.995,65.7814,0.019212
86.025,65.7464,0.031205
86.042,65.7258,0.031205
86.061,65.7028,0.031205
86.086,65.6719,0.031205
86.106,65.6460,0.031205
86.123,65.6244,0.031205
86.149,65.5914,0.031205
86.170,65.5637,0.031205
86.189,65.5382,0.031205
86.211,65.5096,0.031205
86.226,65.4895,0.031205
86.257,65.4470,0.031205
86.288,65.4048,0.046765
86.304,65.3809,0.046765
86.335,65.3380,0.046765
86.350,65.3152,0.046765
86.381,65.2712,0.046765
86.412,65.2244,0.046765
86.442,65.1780,0.046765
86.458,65.1548,0.046765
86.474,65.1304,0.046765
86.490,65.1047,0.046765
86.506,65.0812,0.046765
86.522,65.0559,0.027035
86.538,65.0301,0.027035
86.555,65.0035,0.027035
86.570,64.9785,0.027035
86.586,64.9536,0.027035
86.602,64.9274,0.027035
86.622,64.8933,0.027035
86.644,64.8576,0.027035
86.659,64.8309,0.027035
86.683,64.7916,0.027035
86.706,64.7519,0.027035
86.722,64.7236,0.027035
86.758,64.6614,0.027035
86.778,64.6271,0.027035
86.794,64.5967,0.027035
86.817,64.5569,-0.000828
86.833,64.5284,-0.000828
86.849,64.4991,-0.000828
86.865,64.4692,-0.000828
86.885,64.4319,-0.000828
86.909,64.3880,-0.000828
86.929,64.3514,-0.000828
86.945,64.3202,-0.000828
86.961,64.2895,-0.000828
86.977,64.2583,-0.000828
86.993,64.2286,-0.000828
87.009,64.1968,-0.000828
87.025,64.1661,-0.000706
87.041,64.1351,-0.000706
87.058,64.1013,-0.000706
87.074,64.0704,-0.000706
87.094,64.0287,-0.000706
87.109,63.9980,-0.000706
87.144,63.9263,-0.000706
87.171,63.8718,-0.000706
87.187,63.8388,-0.000706
87.202,63.8065,-0.000706
87.233,63.7409,-0.000706
87.249,63.7075,-0.000706
87.264,63.6752,-0.000706
87.281,63.6397,-0.000584
87.297,63.6072,-0.000584
87.313,63.5712,-0.000584
87.328,63.5399,-0.000584
87.345,63.5052,-0.000584
87.370,63.4540,-0.000584
87.386,63.4205,-0.000584
87.402,63.3881,-0.000584
87.417,63.3569,-0.000584
87.434,63.3226,-0.000584
87.450,63.2918,-0.000584
87.465,63.2604,-0.000584
87.481,63.2289,-0.000584
87.497,63.1966,-0.000584
87.514,63.1659,-0.000584
87.530,63.1340,-0.000546
87.546,63.1034,-0.000546
87.562,63.0731,-0.000546
87.578,63.0416,-0.000546
87.593,63.0126,-0.000546
87.610,62.9815,-0.000546
87.626,62.9509,-0.000546
87.641,62.9227,-0.000546
87.657,62.8933,-0.000546
87.674,62.8629,-0.000546
87.689,62.8344,-0.000546
87.705,62.8053,-0.000546
87.722,62.7760,-0.000546
87.738,62.7473,-0.000546
87.754,62.7184,-0.000546
87.769,62.6916,-0.000518
87.785,62.6636,-0.000518
87.802,62.6331,-0.000518
87.818,62.6058,-0.000518
87.834,62.5800,-0.000518
87.850,62.5513,-0.000518
87.867,62.5238,-0.000518
87.895,62.4759,-0.000518
87.925,62.4273,-0.000518
87.940,62.4014,-0.000518
87.956,62.3751,-0.000518
87.972,62.3504,-0.000518
87.996,62.3117,-0.000518
88.019,62.2765,-0.000518
88.037,62.2484,-0.000424
88.052,62.2237,-0.000424
88.069,62.1987,-0.000424
88.085,62.1738,-0.000424
88.101,62.1480,-0.000424
88.120,62.1211,-0.000424
88.143,62.0879,-0.000424
88.174,62.0412,-0.000424
88.196,62.0097,-0.000424
88.212,61.9862,-0.000424
88.228,61.9643,-0.000424
88.245,61.9413,-0.000424
88.260,61.9198,-0.000329
88.277,61.8956,-0.000329
88.297,61.8677,-0.000329
88.329,61.8268,-0.000329
88.360,61.7846,-0.000329
88.391,61.7446,-0.000329
88.422,61.7043,-0.000329
88.454,61.6654,-0.000329
88.482,61.6303,-0.000329
88.500,61.6089,-0.000329
88.531,61.5726,-0.000254
88.547,61.5537,-0.000254
88.578,61.5174,-0.000254
88.593,61.5002,-0.000254
88.611,61.4802,-0.000254
88.640,61.4480,-0.000254
88.657,61.4292,-0.000254
88.674,61.4103,-0.000254
88.701,61.3819,-0.000254
88.721,61.3613,-0.000254
88.739,61.3425,-0.000254
88.754,61.3274,-0.000254
88.769,61.3120,-0.000282
88.786,61.2951,-0.000282
88.801,61.2799,-0.000282
88.817,61.2652,-0.000282
88.833,61.2498,-0.000282
88.849,61.2347,-0.000282
88.865,61.2191,-0.000282
88.881,61.2049,-0.000282
88.897,61.1903,-0.000282
88.913,61.1758,-0.000282
88.929,61.1615,-0.000282
88.945,61.1475,-0.000282
88.961,61.1338,-0.000282
88.977,61.1202,-0.000282
88.993,61.1065,-0.000282
89.009,61.0934,-0.000282
89.038,61.0701,-0.000377
89.054,61.0572,-0.000377
89.070,61.0451,-0.000377
89.086,61.0328,-0.000377
89.102,61.0206,-0.000377
89.118,61.0087,-0.000377
89.134,60.9968,-0.000377
89.150,60.9859,-0.000377
89.167,60.9735,-0.000377
89.196,60.9536,-0.000377
89.214,60.9418,-0.000377
89.230,60.9312,-0.000377
89.246,60.9207,-0.000377
89.263,60.9100,-0.000508
89.288,60.8940,-0.000508
89.310,60.8815,-0.000508
89.326,60.8722,-0.000508
89.342,60.8629,-0.000508
89.359,60.8532,-0.000508
89.382,60.8408,-0.000508
89.413,60.8241,-0.000508
89.444,60.8088,-0.000508
89.459,60.8016,-0.000508
89.475,60.7938,-0.000508
89.506,60.7800,-0.000480
89.537,60.7664,-0.000480
89.568,60.7539,-0.000480
89.592,60.7447,-0.000480
89.608,60.7387,-0.000480
89.624,60.7330,-0.000480
89.640,60.7273,-0.000480
89.656,60.7219,-0.000480
89.672,60.7168,-0.000480
89.688,60.7118,-0.000480
89.704,60.7071,-0.000480
89.720,60.7024,-0.000480
89.736,60.6981,-0.000480
89.751,60.6938,-0.000471
89.768,60.6896,-0.000471
89.784,60.6859,-0.000471
89.800,60.6822,-0.000471
89.816,60.6788,-0.000471
89.832,60.6756,-0.000471
89.848,60.6726,-0.000471
89.864,60.6698,-0.000471
89.880,60.6669,-0.000471
89.896,60.6646,-0.000471
89.912,60.6623,-0.000471
89.928,60.6602,-0.000471
89.944,60.6584,-0.000471
89.960,60.6566,-0.000471
89.976,60.6550,-0.000471
89.992,60.6539,-0.000471
90.007,60.6527,-0.000471
90.024,60.6518,-0.000471
90.041,60.6511,-0.000480
90.056,60.6506,-0.000480
90.072,60.6502,-0.000480
90.088,60.6501,-0.000480
90.104,60.6501,-0.000480
90.126,60.6501,-0.000480
90.142,60.6501,-0.000480
90.158,60.6501,-0.000480
90.175,60.6501,-0.000480
90.191,60.6501,-0.000480
90.209,60.6504,-0.000480
90.235,60.6513,-0.000480
90.253,60.6522,-0.000480
90.270,60.6533,-0.000405
90.286,60.6544,-0.000405
90.306,60.6563,-0.000405
90.327,60.6585,-0.000405
90.350,60.6611,-0.000405
90.365,60.6632,-0.000405
90.381,60.6657,-0.000405
90.398,60.6682,-0.000405
90.413,60.6709,-0.000405
90.429,60.6739,-0.000405
90.445,60.6770,-0.000405
90.461,60.6803,-0.000405
90.478,60.6839,-0.000405
90.494,60.6878,-0.000405
90.510,60.6916,-0.000471
90.525,60.6956,-0.000471
90.541,60.6999,-0.000471
90.558,60.7044,-0.000471
90.574,60.7091,-0.000471
90.590,60.7142,-0.000471
90.605,60.7190,-0.000471
90.622,60.7245,-0.000471
90.638,60.7297,-0.000471
90.666,60.7400,-0.000471
90.684,60.7468,-0.000471
90.700,60.7530,-0.000471
90.716,60.7596,-0.000471
90.747,60.7721,-0.000471
90.763,60.7793,-0.000518
90.793,60.7934,-0.000518
90.809,60.8008,-0.000518
90.824,60.8078,-0.000518
90.840,60.8158,-0.000518
90.857,60.8244,-0.000518
90.873,60.8324,-0.000518
90.889,60.8413,-0.000518
90.904,60.8494,-0.000518
90.923,60.8598,-0.000518
90.947,60.8741,-0.000518
90.969,60.8863,-0.000518
90.985,60.8960,-0.000518
91.000,60.9058,-0.000518
91.016,60.9155,-0.000499
91.033,60.9260,-0.000499
91.049,60.9366,-0.000499
91.065,60.9471,-0.000499
91.080,60.9576,-0.000499
91.097,60.9691,-0.000499
91.113,60.9806,-0.000499
91.129,60.9915,-0.000499
91.145,61.0032,-0.000499
91.160,61.0147,-0.000499
91.187,61.0350,-0.000499
91.204,61.0478,-0.000499
91.220,61.0602,-0.000499
91.236,61.0729,-0.000499
91.252,61.0856,-0.000555
91.267,61.0984,-0.000555
91.283,61.1125,-0.000555
91.310,61.1341,-0.000555
91.335,61.1565,-0.000555
91.366,61.1836,-0.000555
91.396,61.2114,-0.000555
91.411,61.2254,-0.000555
91.427,61.2403,-0.000555
91.443,61.2551,-0.000555
91.459,61.2708,-0.000555
91.475,61.2864,-0.000555
91.491,61.3022,-0.000555
91.508,61.3183,-0.000546
91.523,61.3341,-0.000546
91.540,61.3518,-0.000546
91.567,61.3790,-0.000546
91.587,61.4007,-0.000546
91.604,61.4193,-0.000546
91.620,61.4359,-0.000546
91.635,61.4527,-0.000546
91.651,61.4709,-0.000546
91.667,61.4887,-0.000546
91.684,61.5076,-0.000546
91.699,61.5254,-0.000546
91.721,61.5515,-0.000546
91.737,61.5697,-0.000546
91.753,61.5881,-0.000461
91.769,61.6075,-0.000461
91.785,61.6270,-0.000461
91.801,61.6473,-0.000461
91.818,61.6674,-0.000461
91.833,61.6857,-0.000461
91.849,61.7072,-0.000461
91.865,61.7272,-0.000461
91.881,61.7466,-0.000461
91.897,61.7674,-0.000461
91.914,61.7911,-0.000461
91.929,61.8109,-0.000461
91.945,61.8308,-0.000461
91.961,61.8525,-0.000461
91.979,61.8767,-0.000461
92.000,61.9065,-0.000461
92.031,61.9483,-0.000377
92.061,61.9910,-0.000377
92.076,62.0136,-0.000377
92.093,62.0375,-0.000377
92.123,62.0815,-0.000377
92.139,62.1055,-0.000377
92.155,62.1287,-0.000377
92.185,62.1743,-0.000377
92.201,62.1984,-0.000377
92.218,62.2240,-0.000377
92.234,62.2490,-0.000377
92.262,62.2934,-0.000329
92.281,62.3233,-0.000329
92.297,62.3501,-0.000329
92.313,62.3744,-0.000329
92.329,62.3997,-0.000329
92.346,62.4287,-0.000329
92.362,62.4541,-0.000329
92.385,62.4931,-0.000329
92.416,62.5450,-0.000329
92.447,62.5970,-0.000329
92.462,62.6240,-0.000329
92.478,62.6517,-0.000329
92.509,62.7046,-0.000395
92.540,62.7603,-0.000395
92.569,62.8145,-0.000395
92.586,62.8439,-0.000395
92.616,62.8976,-0.000395
92.633,62.9299,-0.000395
92.649,62.9600,-0.000395
92.665,62.9900,-0.000395
92.681,63.0200,-0.000395
92.697,63.0503,-0.000395
92.713,63.0827,-0.000395
92.729,63.1124,-0.000395
92.745,63.1419,-0.000395
92.761,63.1741,-0.000518
92.777,63.2052,-0.000518
92.793,63.2362,-0.000518
92.821,63.2916,-0.000518
92.836,63.3236,-0.000518
92.853,63.3560,-0.000518
92.869,63.3885,-0.000518
92.885,63.4220,-0.000518
92.901,63.4549,-0.000518
92.917,63.4871,-0.000518
92.933,63.5202,-0.000518
92.949,63.5556,-0.000518
92.964,63.5879,-0.000518
92.981,63.6212,-0.000518
92.997,63.6552,-0.000518
93.013,63.6894,-0.000518
93.028,63.7231,-0.000640
93.045,63.7565,-0.000640
93.061,63.7898,-0.000640
93.076,63.8233,-0.000640
93.092,63.8561,-0.000640
93.109,63.8893,-0.000640
93.125,63.9232,-0.000640
93.141,63.9549,-0.000640
93.156,63.9858,-0.000640
93.172,64.0180,-0.000640
93.189,64.0510,-0.000640
93.204,64.0820,-0.000640
93.221,64.1143,-0.000640
93.237,64.1450,-0.000640
93.253,64.1768,-0.000640
93.268,64.2073,-0.000640
93.284,64.2368,-0.000678
93.301,64.2675,-0.000678
93.317,64.2987,-0.000678
93.333,64.3288,-0.000678
93.348,64.3580,-0.000678
93.371,64.4003,-0.000678
93.386,64.4281,-0.000678
93.402,64.4583,-0.000678
93.418,64.4860,-0.000678
93.435,64.5169,-0.000678
93.451,64.5456,-0.000678
93.467,64.5744,-0.000678
93.482,64.6001,-0.000678
93.500,64.6315,-0.000678
93.516,64.6585,-0.000678
93.542,64.7038,-0.000687
93.566,64.7457,-0.000687
93.589,64.7849,-0.000687
93.610,64.8197,-0.000687
93.627,64.8473,-0.000687
93.643,64.8736,-0.000687
93.658,64.8989,-0.000687
93.675,64.9252,-0.000687
93.691,64.9514,-0.000687
93.706,64.9760,-0.000687
93.722,65.0016,-0.000687
93.739,65.0286,-0.000687
93.755,65.0525,-0.000687
93.771,65.0767,-0.000828
93.786,65.1006,-0.000828
93.802,65.1250,-0.000828
93.818,65.1499,-0.000828
93.835,65.1747,-0.000828
93.851,65.1991,-0.000828
93.867,65.2227,-0.000828
93.894,65.2622,-0.000828
93.910,65.2858,-0.000828
93.926,65.3080,-0.000828
93.943,65.3310,-0.000828
93.959,65.3538,-0.000828
93.974,65.3751,-0.000828
93.991,65.3993,-0.000828
94.013,65.4282,-0.000828
94.037,65.4611,-0.000904
94.055,65.4849,-0.000904
94.071,65.5062,-0.000904
94.087,65.5268,-0.000904
94.102,65.5479,-0.000904
94.122,65.5723,-0.000904
94.138,65.5931,-0.000904
94.163,65.6240,-0.000904
94.182,65.6478,-0.000904
94.198,65.6676,-0.000904
94.214,65.6867,-0.000904
94.230,65.7061,-0.000904
94.248,65.7271,-0.000904
94.271,65.7545,-0.000904
94.287,65.7727,-0.000960
94.303,65.7917,-0.000960
94.333,65.8249,-0.000960
94.363,65.8582,-0.000960
94.379,65.8759,-0.000960
94.409,65.9079,-0.000960
94.424,65.9240,-0.000960
94.441,65.9415,-0.000960
94.457,65.9578,-0.000960
94.487,65.9887,-0.000960
94.509,66.0107,-0.000960
94.533,66.0338,-0.001045
94.551,66.0508,-0.001045
94.567,66.0654,-0.001045
94.582,66.0803,-0.001045
94.598,66.0946,-0.001045
94.616,66.1107,-0.001045
94.643,66.1349,-0.001045
94.662,66.1520,-0.001045
94.680,66.1675,-0.001045
94.704,66.1877,-0.001045
94.735,66.2138,-0.001045
94.767,66.2384,-0.001045
94.796,66.2622,-0.001120
94.827,66.2846,-0.001120
94.842,66.2962,-0.001120
94.873,66.3188,-0.001120
94.903,66.3394,-0.001120
94.918,66.3497,-0.001120
94.946,66.3675,-0.001120
94.961,66.3777,-0.001120
94.978,66.3886,-0.001120
94.993,66.3984,-0.001120
95.009,66.4075,-0.001233
95.025,66.4173,-0.001233
95.042,66.4270,-0.001233
95.059,66.4379,-0.001233
95.089,66.4534,-0.001233
95.106,66.4629,-0.001233
95.122,66.4715,-0.001233
95.151,66.4860,-0.001233
95.170,66.4952,-0.001233
95.196,66.5078,-0.001233
95.217,66.5172,-0.001233
95.233,66.5246,-0.001233
95.249,66.5311,-0.001233
95.265,66.5377,-0.001346
95.281,66.5443,-0.001346
95.297,66.5510,-0.001346
95.313,66.5567,-0.001346
95.329,66.5626,-0.001346
95.345,66.5683,-0.001346
95.361,66.5742,-0.001346
95.377,66.5793,-0.001346
95.393,66.5843,-0.001346
95.409,66.5894,-0.001346
95.425,66.5943,-0.001346
95.441,66.5986,-0.001346
95.456,66.6029,-0.001346
95.481,66.6094,-0.001346
95.504,66.6148,-0.001346
95.521,66.6186,-0.001346
95.552,66.6249,-0.001412
95.582,66.6305,-0.001412
95.613,66.6353,-0.001412
95.628,66.6377,-0.001412
95.659,66.6416,-0.001412
95.689,66.6446,-0.001412
95.720,66.6470,-0.001412
95.736,66.6480,-0.001412
95.752,66.6488,-0.001459
95.768,66.6495,-0.001459
95.790,66.6499,-0.001459
95.813,66.6501,-0.001459
95.831,66.6501,-0.001459
95.848,66.6501,-0.001459
95.864,66.6501,-0.001459
95.880,66.6501,-0.001459
95.896,66.6501,-0.001459
95.912,66.6501,-0.001459
