Elapsed Time (s),Position (mm),Force (N)
-0.018,64.9501,-0.001243
0.000,64.9501,-0.001243
0.018,64.9501,-0.001243
0.048,64.9501,-0.001243
0.079,64.9501,-0.001243
0.110,64.9501,-0.001243
0.138,64.9501,-0.001243
0.154,64.9501,-0.001243
0.170,64.9501,-0.001243
0.186,64.9501,-0.001243
0.202,64.9501,-0.001243
0.218,64.9501,-0.001243
0.234,64.9501,-0.001243
0.250,64.9501,-0.001243
0.273,64.9501,-0.001243
0.289,64.9501,-0.001243
0.312,64.9501,-0.001243
0.331,64.9501,-0.001243
0.358,64.9501,-0.001243
0.378,64.9501,-0.001243
0.395,64.9501,-0.001243
0.411,64.9501,-0.001243
0.427,64.9501,-0.001243
0.452,64.9501,-0.001243
0.468,64.9501,-0.001243
0.483,64.9501,-0.001243
0.499,64.9501,-0.001158
0.530,64.9501,-0.001158
0.560,64.9501,-0.001158
0.591,64.9501,-0.001158
0.622,64.9501,-0.001158
0.653,64.9501,-0.001158
0.684,64.9501,-0.001158
0.715,64.9501,-0.001158
0.745,64.9501,-0.001214
0.767,64.9501,-0.001214
0.791,64.9501,-0.001214
0.810,64.9501,-0.001214
0.826,64.9501,-0.001214
0.841,64.9501,-0.001214
0.858,64.9501,-0.001214
0.874,64.9501,-0.001214
0.890,64.9501,-0.001214
0.907,64.9501,-0.001214
0.931,64.9501,-0.001214
0.947,64.9501,-0.001214
0.962,64.9501,-0.001214
0.993,64.9501,-0.001318
1.009,64.9501,-0.001318
1.039,64.9501,-0.001318
1.055,64.9501,-0.001318
1.087,64.9501,-0.001318
1.118,64.9501,-0.001318
1.134,64.9501,-0.001318
1.165,64.9501,-0.001318
1.192,64.9501,-0.001318
1.208,64.9501,-0.001318
1.223,64.9501,-0.001195
1.239,64.9501,-0.001195
1.256,64.9501,-0.001195
1.272,64.9501,-0.001195
1.287,64.9501,-0.001195
1.304,64.9501,-0.001195
1.321,64.9501,-0.001195
1.336,64.9501,-0.001195
1.351,64.9501,-0.001195
1.367,64.9501,-0.001195
1.385,64.9501,-0.001195
1.412,64.9501,-0.001195
1.432,64.9501,-0.001195
1.452,64.9501,-0.001195
1.475,64.9501,-0.001195
1.496,64.9501,-0.001148
1.511,64.9501,-0.001148
1.527,64.9501,-0.001148
1.543,64.9501,-0.001148
1.559,64.9501,-0.001148
1.576,64.9501,-0.001148
1.597,64.9501,-0.001148
1.614,64.9501,-0.001148
1.645,64.9501,-0.001148
1.660,64.9501,-0.001148
1.676,64.9501,-0.001148
1.707,64.9501,-0.001148
1.738,64.9501,-0.001177
1.754,64.9501,-0.001177
1.785,64.9501,-0.001177
1.816,64.9501,-0.001177
1.831,64.9501,-0.001177
1.847,64.9501,-0.001177
1.864,64.9501,-0.001177
1.886,64.9501,-0.001177
1.909,64.9501,-0.001177
1.928,64.9501,-0.001177
1.944,64.9501,-0.001177
1.959,64.9501,-0.001177
1.975,64.9501,-0.001120
1.991,64.9501,-0.001120
2.007,64.9501,-0.001120
2.023,64.9501,-0.001120
2.039,64.9501,-0.001120
2.055,64.9501,-0.001120
2.071,64.9501,-0.001120
2.087,64.9501,-0.001120
2.103,64.9501,-0.001120
2.120,64.9501,-0.001120
2.141,64.9501,-0.001120
2.172,64.9501,-0.001120
2.190,64.9501,-0.001120
2.219,64.9501,-0.001120
2.235,64.9501,-0.001120
2.265,64.9501,-0.001195
2.296,64.9501,-0.001195
2.311,64.9501,-0.001195
2.327,64.9501,-0.001195
2.343,64.9501,-0.001195
2.359,64.9501,-0.001195
2.375,64.9501,-0.001195
2.392,64.9501,-0.001195
2.420,64.9501,-0.001195
2.439,64.9501,-0.001195
2.455,64.9501,-0.001195
2.471,64.9501,-0.001195
2.487,64.9501,-0.001214
2.503,64.9501,-0.001214
2.520,64.9501,-0.001214
2.535,64.9501,-0.001214
2.551,64.9501,-0.001214
2.567,64.9501,-0.001214
2.583,64.9501,-0.001214
2.599,64.9501,-0.001214
2.615,64.9501,-0.001214
2.631,64.9501,-0.001214
2.647,64.9501,-0.001214
2.663,64.9501,-0.001214
2.679,64.9501,-0.001214
2.695,64.9501,-0.001214
2.711,64.9501,-0.001214
2.727,64.9501,-0.001177
2.744,64.9501,-0.001177
2.760,64.9501,-0.001177
2.791,64.9501,-0.001177
2.818,64.9501,-0.001177
2.834,64.9501,-0.001177
2.850,64.9501,-0.001177
2.867,64.9501,-0.001177
2.882,64.9501,-0.001177
2.897,64.9501,-0.001177
2.915,64.9501,-0.001177
2.945,64.9501,-0.001177
2.966,64.9501,-0.001177
2.992,64.9501,-0.001130
3.010,64.9501,-0.001130
3.026,64.9501,-0.001130
3.042,64.9501,-0.001130
3.058,64.9501,-0.001130
3.074,64.9501,-0.001130
3.091,64.9501,-0.001130
3.106,64.9501,-0.001130
3.122,64.9501,-0.001130
3.139,64.9501,-0.001130
3.163,64.9501,-0.001130
3.179,64.9501,-0.001130
3.195,64.9501,-0.001130
3.225,64.9501,-0.001214
3.257,64.9501,-0.001214
3.286,64.9501,-0.001214
3.302,64.9501,-0.001214
3.318,64.9501,-0.001214
3.343,64.9501,-0.001214
3.358,64.9501,-0.001214
3.373,64.9501,-0.001214
3.390,64.9501,-0.001214
3.405,64.9501,-0.001214
3.422,64.9501,-0.001214
3.438,64.9501,-0.001214
3.453,64.9501,-0.001214
3.469,64.9501,-0.001299
3.486,64.9501,-0.001299
3.502,64.9501,-0.001299
3.518,64.9501,-0.001299
3.534,64.9501,-0.001299
3.551,64.9501,-0.001299
3.573,64.9501,-0.001299
3.596,64.9501,-0.001299
3.614,64.9501,-0.001299
3.630,64.9501,-0.001299
3.646,64.9501,-0.001299
3.662,64.9501,-0.001299
3.678,64.9501,-0.001299
3.695,64.9501,-0.001299
3.721,64.9501,-0.001252
3.742,64.9501,-0.001252
3.757,64.9501,-0.001252
3.773,64.9501,-0.001252
3.790,64.9501,-0.001252
3.805,64.9501,-0.001252
3.822,64.9501,-0.001252
3.837,64.9501,-0.001252
3.854,64.9501,-0.001252
3.870,64.9501,-0.001252
3.886,64.9501,-0.001252
3.901,64.9501,-0.001252
3.917,64.9501,-0.001252
3.933,64.9501,-0.001252
3.950,64.9501,-0.001252
3.966,64.9501,-0.001280
3.982,64.9501,-0.001280
3.997,64.9501,-0.001280
4.013,64.9501,-0.001280
4.030,64.9501,-0.001280
4.046,64.9501,-0.001280
4.062,64.9501,-0.001280
4.078,64.9501,-0.001280
4.093,64.9501,-0.001280
4.111,64.9500,-0.001280
4.126,64.9496,-0.001280
4.142,64.9491,-0.001280
4.157,64.9483,-0.001280
4.174,64.9474,-0.001280
4.191,64.9461,-0.001280
4.215,64.9441,-0.001384
4.246,64.9408,-0.001384
4.261,64.9389,-0.001384
4.277,64.9368,-0.001384
4.293,64.9343,-0.001384
4.324,64.9291,-0.001384
4.354,64.9235,-0.001384
4.385,64.9171,-0.001384
4.411,64.9106,-0.001384
4.433,64.9053,-0.001384
4.463,64.8972,-0.000668
4.479,64.8928,-0.000668
4.495,64.8878,-0.000668
4.525,64.8781,-0.000668
4.540,64.8731,-0.000668
4.555,64.8680,-0.000668
4.571,64.8620,-0.000668
4.587,64.8564,-0.000668
4.611,64.8471,-0.000668
4.634,64.8380,-0.000668
4.651,64.8308,-0.000668
4.667,64.8237,-0.000668
4.683,64.8166,-0.000668
4.700,64.8088,-0.000668
4.727,64.7960,0.002485
4.747,64.7862,0.002485
4.764,64.7779,0.002485
4.782,64.7675,0.002485
4.798,64.7600,0.002485
4.821,64.7478,0.002485
4.836,64.7392,0.002485
4.867,64.7209,0.002485
4.899,64.7020,0.002485
4.915,64.6919,0.002485
4.945,64.6729,0.002485
4.966,64.6590,0.002485
4.983,64.6481,0.002485
4.998,64.6377,0.008717
5.014,64.6263,0.008717
5.030,64.6151,0.008717
5.046,64.6037,0.008717
5.062,64.5919,0.008717
5.078,64.5802,0.008717
5.094,64.5677,0.008717
5.110,64.5559,0.008717
5.126,64.5432,0.008717
5.142,64.5306,0.008717
5.158,64.5177,0.008717
5.174,64.5047,0.008717
5.190,64.4913,0.008717
5.206,64.4780,0.008717
5.222,64.4635,0.008717
5.239,64.4504,0.018619
5.254,64.4365,0.018619
5.271,64.4211,0.018619
5.286,64.4081,0.018619
5.302,64.3937,0.018619
5.318,64.3791,0.018619
5.335,64.3626,0.018619
5.363,64.3359,0.018619
5.382,64.3176,0.018619
5.398,64.3018,0.018619
5.414,64.2863,0.018619
5.430,64.2702,0.018619
5.446,64.2539,0.018619
5.463,64.2362,0.018619
5.478,64.2207,0.018619
5.494,64.2035,0.018619
5.517,64.1782,0.033360
5.547,64.1454,0.033360
5.564,64.1274,0.033360
5.580,64.1083,0.033360
5.596,64.0906,0.033360
5.612,64.0722,0.033360
5.629,64.0533,0.033360
5.644,64.0357,0.033360
5.660,64.0163,0.033360
5.676,63.9977,0.033360
5.692,63.9776,0.033360
5.708,63.9583,0.033360
5.725,63.9372,0.033360
5.749,63.9072,0.054135
5.780,63.8675,0.054135
5.811,63.8279,0.054135
5.842,63.7864,0.054135
5.873,63.7459,0.054135
5.890,63.7224,0.054135
5.919,63.6829,0.054135
5.934,63.6628,0.054135
5.949,63.6411,0.054135
5.979,63.5980,0.083072
5.996,63.5733,0.083072
6.019,63.5399,0.083072
6.042,63.5063,0.083072
6.060,63.4810,0.083072
6.077,63.4558,0.083072
6.093,63.4313,0.083072
6.108,63.4085,0.083072
6.124,63.3842,0.083072
6.140,63.3577,0.083072
6.156,63.3336,0.083072
6.172,63.3085,0.083072
6.188,63.2832,0.083072
6.204,63.2567,0.083072
6.222,63.2288,0.050229
6.242,63.1970,0.050229
6.258,63.1710,0.050229
6.273,63.1442,0.050229
6.304,63.0946,0.050229
6.320,63.0672,0.050229
6.351,63.0141,0.050229
6.382,62.9609,0.050229
6.412,62.9077,0.050229
6.427,62.8809,0.050229
6.444,62.8512,0.050229
6.460,62.8212,0.050229
6.476,62.7946,0.050229
6.492,62.7655,0.000000
6.508,62.7364,0.000000
6.525,62.7051,0.000000
6.550,62.6580,0.000000
6.566,62.6281,0.000000
6.587,62.5884,0.000000
6.611,62.5430,0.000000
6.627,62.5131,0.000000
6.658,62.4532,0.000000
6.689,62.3922,0.000000
6.720,62.3312,0.000000
6.735,62.3001,-0.000405
6.766,62.2368,-0.000405
6.797,62.1767,-0.000405
6.813,62.1429,-0.000405
6.844,62.0778,-0.000405
6.875,62.0146,-0.000405
6.905,61.9477,-0.000405
6.921,61.9146,-0.000405
6.938,61.8790,-0.000405
6.957,61.8393,-0.000405
6.984,61.7815,-0.000282
7.001,61.7466,-0.000282
7.019,61.7089,-0.000282
7.046,61.6535,-0.000282
7.065,61.6155,-0.000282
7.083,61.5795,-0.000282
7.109,61.5278,-0.000282
7.141,61.4632,-0.000282
7.157,61.4323,-0.000282
7.172,61.4025,-0.000282
7.189,61.3709,-0.000282
7.204,61.3394,-0.000282
7.220,61.3102,-0.000282
7.236,61.2795,-0.000414
7.252,61.2493,-0.000414
7.269,61.2187,-0.000414
7.285,61.1873,-0.000414
7.300,61.1597,-0.000414
7.316,61.1300,-0.000414
7.334,61.0962,-0.000414
7.355,61.0597,-0.000414
7.386,61.0028,-0.000414
7.402,60.9750,-0.000414
7.417,60.9490,-0.000414
7.433,60.9214,-0.000414
7.449,60.8934,-0.000414
7.479,60.8418,-0.000602
7.509,60.7892,-0.000602
7.526,60.7592,-0.000602
7.556,60.7113,-0.000602
7.573,60.6832,-0.000602
7.589,60.6575,-0.000602
7.604,60.6315,-0.000602
7.620,60.6062,-0.000602
7.637,60.5792,-0.000602
7.653,60.5548,-0.000602
7.669,60.5298,-0.000602
7.692,60.4916,-0.000602
7.709,60.4680,-0.000602
7.724,60.4437,-0.000640
7.740,60.4194,-0.000640
7.756,60.3942,-0.000640
7.772,60.3714,-0.000640
7.789,60.3462,-0.000640
7.804,60.3240,-0.000640
7.822,60.2962,-0.000640
7.849,60.2588,-0.000640
7.868,60.2311,-0.000640
7.885,60.2080,-0.000640
7.900,60.1862,-0.000640
7.916,60.1645,-0.000640
7.932,60.1417,-0.000640
7.949,60.1185,-0.000640
7.964,60.0983,-0.000640
7.980,60.0774,-0.000668
7.996,60.0556,-0.000668
8.012,60.0342,-0.000668
8.028,60.0137,-0.000668
8.044,59.9929,-0.000668
8.060,59.9725,-0.000668
8.076,59.9527,-0.000668
8.092,59.9325,-0.000668
8.108,59.9121,-0.000668
8.124,59.8929,-0.000668
8.140,59.8728,-0.000668
8.156,59.8541,-0.000668
8.172,59.8345,-0.000668
8.188,59.8156,-0.000668
8.204,59.7972,-0.000668
8.220,59.7788,-0.000668
8.250,59.7437,-0.000593
8.269,59.7229,-0.000593
8.300,59.6888,-0.000593
8.331,59.6556,-0.000593
8.361,59.6227,-0.000593
8.378,59.6058,-0.000593
8.393,59.5900,-0.000593
8.409,59.5742,-0.000593
8.425,59.5580,-0.000593
8.442,59.5417,-0.000593
8.469,59.5145,-0.000518
8.489,59.4959,-0.000518
8.509,59.4753,-0.000518
8.531,59.4567,-0.000518
8.563,59.4274,-0.000518
8.592,59.4018,-0.000518
8.623,59.3754,-0.000518
8.654,59.3493,-0.000518
8.685,59.3241,-0.000518
8.701,59.3107,-0.000518
8.732,59.2875,-0.000518
8.747,59.2758,-0.000518
8.763,59.2634,-0.000518
8.794,59.2415,-0.000518
8.824,59.2200,-0.000518
8.841,59.2084,-0.000518
8.857,59.1979,-0.000518
8.874,59.1862,-0.000518
8.903,59.1679,-0.000518
8.921,59.1566,-0.000518
8.937,59.1459,-0.000518
8.953,59.1367,-0.000518
8.969,59.1274,-0.000527
8.985,59.1183,-0.000527
9.002,59.1086,-0.000527
9.017,59.1001,-0.000527
9.033,59.0915,-0.000527
9.048,59.0830,-0.000527
9.065,59.0742,-0.000527
9.081,59.0663,-0.000527
9.096,59.0586,-0.000527
9.112,59.0509,-0.000527
9.128,59.0432,-0.000527
9.145,59.0360,-0.000527
9.161,59.0288,-0.000527
9.176,59.0219,-0.000527
9.193,59.0147,-0.000527
9.208,59.0085,-0.000527
9.225,59.0020,-0.000499
9.241,58.9960,-0.000499
9.256,58.9900,-0.000499
9.273,58.9841,-0.000499
9.288,58.9785,-0.000499
9.304,58.9731,-0.000499
9.328,58.9657,-0.000499
9.343,58.9607,-0.000499
9.359,58.9559,-0.000499
9.376,58.9514,-0.000499
9.391,58.9471,-0.000499
9.408,58.9428,-0.000499
9.423,58.9389,-0.000499
9.439,58.9352,-0.000499
9.456,58.9315,-0.000499
9.471,58.9281,-0.000471
9.487,58.9250,-0.000471
9.503,58.9219,-0.000471
9.519,58.9192,-0.000471
9.535,58.9166,-0.000471
9.551,58.9141,-0.000471
9.567,58.9119,-0.000471
9.583,58.9098,-0.000471
9.599,58.9079,-0.000471
9.615,58.9063,-0.000471
9.631,58.9049,-0.000471
9.647,58.9036,-0.000471
9.663,58.9026,-0.000471
9.679,58.9017,-0.000471
9.696,58.9010,-0.000471
9.711,58.9005,-0.000471
9.727,58.9002,-0.000442
9.743,58.9001,-0.000442
9.760,58.9001,-0.000442
9.775,58.9001,-0.000442
9.791,58.9001,-0.000442
9.807,58.9001,-0.000442
9.823,58.9002,-0.000442
9.839,58.9003,-0.000442
9.866,58.9013,-0.000442
9.883,58.9021,-0.000442
9.898,58.9029,-0.000442
9.914,58.9042,-0.000442
9.931,58.9056,-0.000442
9.958,58.9083,-0.000348
9.979,58.9108,-0.000348
9.994,58.9129,-0.000348
10.011,58.9152,-0.000348
10.036,58.9194,-0.000348
10.060,58.9235,-0.000348
10.076,58.9269,-0.000348
10.098,58.9315,-0.000348
10.129,58.9385,-0.000348
10.160,58.9466,-0.000348
10.191,58.9548,-0.000348
10.207,58.9595,-0.000348
10.238,58.9691,-0.000377
10.254,58.9743,-0.000377
10.285,58.9855,-0.000377
10.301,58.9910,-0.000377
10.317,58.9968,-0.000377
10.347,59.0092,-0.000377
10.379,59.0223,-0.000377
10.407,59.0348,-0.000377
10.424,59.0422,-0.000377
10.440,59.0498,-0.000377
10.455,59.0574,-0.000461
10.471,59.0650,-0.000461
10.487,59.0731,-0.000461
10.503,59.0817,-0.000461
10.519,59.0899,-0.000461
10.536,59.0989,-0.000461
10.551,59.1077,-0.000461
10.568,59.1168,-0.000461
10.583,59.1261,-0.000461
10.600,59.1356,-0.000461
10.615,59.1449,-0.000461
10.631,59.1548,-0.000461
10.647,59.1646,-0.000461
10.664,59.1756,-0.000461
10.679,59.1855,-0.000461
10.695,59.1959,-0.000461
10.711,59.2067,-0.000489
10.727,59.2182,-0.000489
10.743,59.2289,-0.000489
10.759,59.2403,-0.000489
10.775,59.2518,-0.000489
10.791,59.2637,-0.000489
10.807,59.2758,-0.000489
10.823,59.2878,-0.000489
10.839,59.3004,-0.000489
10.856,59.3133,-0.000489
10.871,59.3260,-0.000489
10.887,59.3383,-0.000489
10.903,59.3514,-0.000489
10.919,59.3651,-0.000489
10.936,59.3789,-0.000489
10.959,59.3989,-0.000489
10.976,59.4136,-0.000489
10.991,59.4278,-0.000555
11.007,59.4413,-0.000555
11.023,59.4560,-0.000555
11.039,59.4713,-0.000555
11.055,59.4857,-0.000555
11.074,59.5042,-0.000555
11.103,59.5317,-0.000555
11.119,59.5480,-0.000555
11.136,59.5646,-0.000555
11.164,59.5930,-0.000555
11.183,59.6130,-0.000555
11.200,59.6302,-0.000555
11.226,59.6590,-0.000574
11.247,59.6805,-0.000574
11.263,59.6988,-0.000574
11.279,59.7157,-0.000574
11.295,59.7337,-0.000574
11.311,59.7519,-0.000574
11.327,59.7697,-0.000574
11.343,59.7885,-0.000574
11.359,59.8070,-0.000574
11.375,59.8261,-0.000574
11.391,59.8461,-0.000574
11.407,59.8640,-0.000574
11.423,59.8841,-0.000574
11.439,59.9032,-0.000574
11.455,59.9234,-0.000574
11.471,59.9431,-0.000574
11.499,59.9790,-0.000668
11.515,59.9999,-0.000668
11.531,60.0199,-0.000668
11.547,60.0410,-0.000668
11.563,60.0623,-0.000668
11.579,60.0838,-0.000668
11.595,60.1049,-0.000668
11.611,60.1266,-0.000668
11.627,60.1484,-0.000668
11.643,60.1713,-0.000668
11.658,60.1922,-0.000668
11.675,60.2154,-0.000668
11.691,60.2386,-0.000668
11.707,60.2605,-0.000734
11.723,60.2836,-0.000734
11.740,60.3089,-0.000734
11.769,60.3528,-0.000734
11.787,60.3778,-0.000734
11.805,60.4046,-0.000734
11.832,60.4458,-0.000734
11.851,60.4752,-0.000734
11.867,60.5010,-0.000734
11.883,60.5248,-0.000734
11.899,60.5501,-0.000734
11.915,60.5757,-0.000734
11.931,60.6021,-0.000734
11.947,60.6275,-0.000734
11.963,60.6522,-0.000715
11.979,60.6793,-0.000715
11.995,60.7051,-0.000715
12.011,60.7334,-0.000715
12.027,60.7586,-0.000715
12.049,60.7970,-0.000715
12.065,60.8231,-0.000715
12.081,60.8505,-0.000715
12.097,60.8779,-0.000715
12.113,60.9062,-0.000715
12.129,60.9342,-0.000715
12.145,60.9615,-0.000715
12.161,60.9904,-0.000715
12.177,61.0200,-0.000715
12.193,61.0484,-0.000715
12.209,61.0768,-0.000753
12.225,61.1049,-0.000753
12.241,61.1362,-0.000753
12.256,61.1643,-0.000753
12.273,61.1938,-0.000753
12.289,61.2235,-0.000753
12.306,61.2567,-0.000753
12.327,61.2976,-0.000753
12.358,61.3554,-0.000753
12.373,61.3853,-0.000753
12.389,61.4170,-0.000753
12.420,61.4763,-0.000753
12.451,61.5387,-0.000753
12.467,61.5692,-0.000744
12.498,61.6322,-0.000744
12.528,61.6961,-0.000744
12.545,61.7303,-0.000744
12.561,61.7623,-0.000744
12.577,61.7965,-0.000744
12.603,61.8521,-0.000744
12.620,61.8879,-0.000744
12.651,61.9532,-0.000744
12.675,62.0055,-0.000744
12.697,62.0497,-0.000744
12.715,62.0858,-0.000659
12.731,62.1199,-0.000659
12.746,62.1507,-0.000659
12.762,62.1835,-0.000659
12.779,62.2162,-0.000659
12.794,62.2490,-0.000659
12.810,62.2794,-0.000659
12.826,62.3111,-0.000659
12.844,62.3458,-0.000659
12.859,62.3745,-0.000659
12.874,62.4054,-0.000659
12.891,62.4372,-0.000659
12.906,62.4678,-0.000659
12.923,62.4996,-0.000659
12.939,62.5285,-0.000659
12.954,62.5588,-0.000508
12.970,62.5886,-0.000508
12.986,62.6186,-0.000508
13.002,62.6485,-0.000508
13.020,62.6802,-0.000508
13.036,62.7098,-0.000508
13.052,62.7384,-0.000508
13.067,62.7663,-0.000508
13.087,62.8021,-0.000508
13.105,62.8334,-0.000508
13.129,62.8763,-0.000508
13.160,62.9302,-0.000508
13.176,62.9569,-0.000508
13.191,62.9837,-0.000508
13.208,63.0112,-0.000499
13.224,63.0389,-0.000499
13.240,63.0653,-0.000499
13.255,63.0905,-0.000499
13.274,63.1215,-0.000499
13.301,63.1665,-0.000499
13.319,63.1956,-0.000499
13.336,63.2216,-0.000499
13.352,63.2470,-0.000499
13.368,63.2718,-0.000499
13.383,63.2961,-0.000499
13.403,63.3276,-0.000499
13.425,63.3605,-0.000499
13.456,63.4093,-0.000499
13.487,63.4540,-0.000555
13.503,63.4768,-0.000555
13.533,63.5217,-0.000555
13.549,63.5444,-0.000555
13.565,63.5675,-0.000555
13.581,63.5914,-0.000555
13.597,63.6122,-0.000555
13.628,63.6558,-0.000555
13.659,63.6978,-0.000555
13.675,63.7193,-0.000555
13.701,63.7534,-0.000555
13.717,63.7756,-0.000555
13.733,63.7962,-0.000602
13.749,63.8156,-0.000602
13.766,63.8380,-0.000602
13.784,63.8595,-0.000602
13.814,63.8981,-0.000602
13.830,63.9172,-0.000602
13.846,63.9358,-0.000602
13.862,63.9549,-0.000602
13.877,63.9734,-0.000602
13.893,63.9925,-0.000602
13.909,64.0117,-0.000602
13.925,64.0295,-0.000602
13.941,64.0476,-0.000602
13.957,64.0662,-0.000602
13.974,64.0845,-0.000602
13.999,64.1134,-0.000697
14.021,64.1370,-0.000697
14.037,64.1532,-0.000697
14.053,64.1705,-0.000697
14.069,64.1871,-0.000697
14.085,64.2043,-0.000697
14.101,64.2202,-0.000697
14.117,64.2360,-0.000697
14.133,64.2518,-0.000697
14.149,64.2676,-0.000697
14.165,64.2831,-0.000697
14.181,64.2991,-0.000697
14.197,64.3147,-0.000697
14.214,64.3296,-0.000697
14.229,64.3436,-0.000697
14.245,64.3582,-0.000697
14.261,64.3731,-0.000838
14.277,64.3868,-0.000838
14.293,64.4005,-0.000838
14.309,64.4145,-0.000838
14.326,64.4292,-0.000838
14.341,64.4420,-0.000838
14.357,64.4546,-0.000838
14.373,64.4676,-0.000838
14.389,64.4809,-0.000838
14.405,64.4933,-0.000838
14.421,64.5058,-0.000838
14.437,64.5181,-0.000838
14.453,64.5300,-0.000838
14.469,64.5423,-0.000838
14.485,64.5535,-0.000894
14.501,64.5650,-0.000894
14.517,64.5769,-0.000894
14.533,64.5873,-0.000894
14.549,64.5982,-0.000894
14.565,64.6090,-0.000894
14.581,64.6197,-0.000894
14.597,64.6297,-0.000894
14.613,64.6400,-0.000894
14.629,64.6499,-0.000894
14.645,64.6600,-0.000894
14.661,64.6694,-0.000894
14.677,64.6791,-0.000894
14.694,64.6889,-0.000894
14.725,64.7056,-0.000894
14.751,64.7199,-0.000960
14.767,64.7278,-0.000960
14.783,64.7356,-0.000960
14.800,64.7443,-0.000960
14.816,64.7524,-0.000960
14.837,64.7617,-0.000960
14.864,64.7737,-0.000960
14.880,64.7808,-0.000960
14.895,64.7872,-0.000960
14.911,64.7933,-0.000960
14.928,64.8001,-0.000960
14.943,64.8062,-0.000960
14.958,64.8117,-0.000960
14.975,64.8179,-0.001035
14.991,64.8232,-0.001035
15.007,64.8285,-0.001035
15.023,64.8337,-0.001035
15.039,64.8386,-0.001035
15.055,64.8434,-0.001035
15.071,64.8481,-0.001035
15.088,64.8526,-0.001035
15.111,64.8588,-0.001035
15.128,64.8629,-0.001035
15.157,64.8695,-0.001035
15.173,64.8729,-0.001035
15.203,64.8784,-0.001035
15.220,64.8814,-0.001092
15.249,64.8861,-0.001092
15.276,64.8897,-0.001092
15.292,64.8917,-0.001092
15.307,64.8933,-0.001092
15.323,64.8948,-0.001092
15.340,64.8961,-0.001092
15.356,64.8972,-0.001092
15.373,64.8984,-0.001092
15.402,64.8995,-0.001092
15.420,64.9000,-0.001092
15.436,64.9001,-0.001092
15.451,64.9001,-0.001092
15.467,64.9001,-0.001252
15.483,64.9001,-0.001252
15.501,64.9001,-0.001252
15.527,64.9001,-0.001252
15.548,64.9001,-0.001252
15.564,64.9001,-0.001252
15.580,64.9001,-0.001252
15.595,64.9001,-0.001252
15.611,64.9001,-0.001252
15.628,64.9001,-0.001252
15.643,64.9001,-0.001252
15.659,64.9001,-0.001252
15.676,64.9001,-0.001252
15.694,64.9001,-0.001252
15.714,64.9001,-0.001252
15.744,64.9001,-0.001384
15.776,64.9001,-0.001384
15.798,64.9001,-0.001384
15.814,64.9001,-0.001384
15.831,64.9001,-0.001384
15.846,64.9001,-0.001384
15.863,64.9001,-0.001384
15.878,64.9001,-0.001384
15.894,64.9001,-0.001384
15.910,64.9001,-0.001384
15.926,64.9001,-0.001384
15.943,64.9001,-0.001384
15.959,64.9001,-0.001356
15.975,64.9001,-0.001356
15.991,64.9001,-0.001356
16.006,64.9001,-0.001356
16.027,64.9001,-0.001356
16.052,64.9001,-0.001356
16.070,64.9001,-0.001356
16.087,64.9001,-0.001356
16.102,64.9001,-0.001356
16.119,64.9001,-0.001356
16.134,64.9001,-0.001356
16.151,64.9001,-0.001356
16.166,64.9001,-0.001356
16.182,64.9001,-0.001356
16.198,64.9001,-0.001356
16.214,64.9001,-0.001356
16.230,64.9001,-0.001290
16.246,64.9001,-0.001290
16.262,64.9001,-0.001290
16.279,64.9001,-0.001290
16.301,64.9001,-0.001290
16.316,64.9001,-0.001290
16.337,64.9001,-0.001290
16.354,64.9001,-0.001290
16.378,64.9001,-0.001290
16.409,64.9001,-0.001290
16.439,64.9001,-0.001290
16.455,64.9001,-0.001290
16.486,64.9001,-0.001308
16.516,64.9001,-0.001308
16.548,64.9001,-0.001308
16.563,64.9001,-0.001308
16.593,64.9001,-0.001308
16.609,64.9001,-0.001308
16.625,64.9001,-0.001308
16.641,64.9001,-0.001308
16.657,64.9001,-0.001308
16.673,64.9001,-0.001308
16.689,64.9001,-0.001308
16.705,64.9001,-0.001308
16.721,64.9001,-0.001308
16.737,64.9001,-0.001243
16.753,64.9001,-0.001243
16.770,64.9001,-0.001243
16.786,64.9001,-0.001243
16.801,64.9001,-0.001243
16.817,64.9001,-0.001243
16.833,64.9001,-0.001243
16.849,64.9001,-0.001243
16.880,64.9001,-0.001243
16.896,64.9001,-0.001243
16.912,64.9001,-0.001243
16.928,64.9001,-0.001243
16.944,64.9001,-0.001243
16.960,64.9001,-0.001139
16.976,64.9001,-0.001139
16.993,64.9001,-0.001139
17.008,64.9001,-0.001139
17.024,64.9001,-0.001139
17.040,64.9001,-0.001139
17.058,64.9001,-0.001139
17.085,64.9001,-0.001139
17.104,64.9001,-0.001139
17.125,64.9001,-0.001139
17.148,64.9001,-0.001139
17.168,64.9001,-0.001139
17.184,64.9001,-0.001139
17.200,64.9001,-0.001139
17.216,64.9001,-0.001167
17.232,64.9001,-0.001167
17.248,64.9001,-0.001167
17.264,64.9001,-0.001167
17.280,64.9001,-0.001167
17.296,64.9001,-0.001167
17.312,64.9001,-0.001167
17.328,64.9001,-0.001167
17.343,64.9001,-0.001167
17.360,64.9001,-0.001167
17.376,64.9001,-0.001167
17.393,64.9001,-0.001167
17.422,64.9001,-0.001167
17.439,64.9001,-0.001167
17.456,64.9001,-0.001158
17.487,64.9001,-0.001158
17.509,64.9001,-0.001158
17.533,64.9001,-0.001158
17.550,64.9001,-0.001158
17.566,64.9001,-0.001158
17.582,64.9001,-0.001158
17.598,64.9001,-0.001158
17.614,64.9001,-0.001158
17.630,64.9001,-0.001158
17.646,64.9001,-0.001158
17.662,64.9001,-0.001158
17.678,64.9001,-0.001158
17.694,64.9001,-0.001158
17.719,64.9001,-0.001120
17.749,64.9001,-0.001120
17.765,64.9001,-0.001120
17.781,64.9001,-0.001120
17.812,64.9001,-0.001120
17.842,64.9001,-0.001120
17.857,64.9001,-0.001120
17.873,64.9001,-0.001120
17.904,64.9001,-0.001120
17.934,64.9001,-0.001120
17.951,64.9001,-0.001120
17.981,64.9001,-0.001205
17.998,64.9001,-0.001205
18.014,64.9001,-0.001205
18.030,64.9001,-0.001205
18.047,64.9001,-0.001205
18.075,64.9001,-0.001205
18.094,64.9001,-0.001205
18.111,64.9001,-0.001205
18.139,64.9001,-0.001205
18.158,64.9001,-0.001205
18.174,64.9001,-0.001205
18.189,64.9001,-0.001205
18.205,64.9001,-0.001290
18.222,64.9001,-0.001290
18.238,64.9001,-0.001290
18.254,64.9001,-0.001290
18.269,64.9001,-0.001290
18.285,64.9001,-0.001290
18.302,64.9001,-0.001290
18.318,64.9001,-0.001290
18.334,64.9001,-0.001290
18.350,64.9001,-0.001290
18.365,64.9001,-0.001290
18.381,64.9001,-0.001290
18.397,64.9001,-0.001290
18.414,64.9001,-0.001290
18.429,64.9001,-0.001290
18.446,64.9001,-0.001290
18.476,64.9001,-0.001290
18.492,64.9001,-0.001290
18.507,64.9001,-0.001280
18.524,64.9001,-0.001280
18.540,64.9001,-0.001280
18.556,64.9001,-0.001280
18.572,64.9001,-0.001280
18.588,64.9001,-0.001280
18.604,64.9001,-0.001280
18.620,64.9001,-0.001280
18.636,64.9001,-0.001280
18.652,64.9001,-0.001280
18.668,64.9001,-0.001280
18.684,64.9001,-0.001280
18.700,64.9001,-0.001280
18.716,64.9001,-0.001186
18.731,64.9001,-0.001186
18.748,64.9001,-0.001186
18.763,64.9001,-0.001186
18.782,64.9001,-0.001186
18.803,64.9001,-0.001186
18.834,64.9001,-0.001186
18.850,64.9001,-0.001186
18.865,64.9001,-0.001186
18.896,64.9001,-0.001186
18.912,64.9001,-0.001186
18.942,64.9001,-0.001186
18.973,64.9001,-0.001186
18.988,64.9001,-0.001186
19.017,64.9001,-0.001130
19.035,64.9001,-0.001130
19.052,64.9001,-0.001130
19.082,64.9001,-0.001130
19.099,64.9001,-0.001130
19.129,64.9001,-0.001130
19.144,64.9001,-0.001130
19.159,64.9001,-0.001130
19.176,64.9001,-0.001130
19.192,64.9001,-0.001130
19.210,64.9001,-0.001130
19.240,64.9001,-0.001130
19.256,64.9001,-0.001130
19.272,64.9001,-0.001101
19.287,64.9001,-0.001101
19.304,64.9001,-0.001101
19.319,64.9001,-0.001101
19.336,64.9001,-0.001101
19.351,64.9001,-0.001101
19.367,64.9001,-0.001101
19.383,64.9001,-0.001101
19.401,64.9001,-0.001101
19.424,64.9001,-0.001101
19.456,64.9001,-0.001101
19.486,64.9001,-0.001083
19.517,64.9001,-0.001083
19.540,64.9001,-0.001083
19.557,64.9001,-0.001083
19.578,64.9001,-0.001083
19.593,64.9001,-0.001083
19.624,64.9001,-0.001083
19.655,64.9001,-0.001083
19.670,64.9001,-0.001083
19.686,64.9001,-0.001083
19.701,64.9001,-0.001083
19.717,64.9001,-0.001083
19.748,64.9001,-0.001148
19.765,64.9001,-0.001148
19.794,64.9001,-0.001148
19.812,64.9001,-0.001148
19.828,64.9001,-0.001148
19.844,64.9001,-0.001148
19.860,64.9001,-0.001148
19.876,64.9001,-0.001148
19.892,64.9001,-0.001148
19.908,64.9001,-0.001148
19.924,64.9001,-0.001148
19.940,64.9001,-0.001148
19.956,64.9001,-0.001148
19.972,64.9001,-0.001148
19.988,64.9001,-0.001158
20.004,64.9001,-0.001158
20.021,64.9001,-0.001158
20.043,64.9001,-0.001158
20.074,64.9001,-0.001158
20.104,64.9001,-0.001158
20.135,64.9001,-0.001158
20.165,64.9001,-0.001158
20.182,64.9001,-0.001158
20.197,64.9001,-0.001158
20.228,64.9001,-0.001167
20.244,64.9001,-0.001167
20.260,64.9001,-0.001167
20.276,64.9001,-0.001167
20.292,64.9001,-0.001167
20.310,64.9001,-0.001167
20.327,64.9001,-0.001167
20.351,64.9001,-0.001167
20.372,64.9001,-0.001167
20.388,64.9001,-0.001167
20.404,64.9001,-0.001167
20.420,64.9001,-0.001167
20.437,64.9001,-0.001167
20.452,64.9001,-0.001167
20.468,64.9001,-0.001271
20.484,64.9001,-0.001271
20.500,64.9001,-0.001271
20.516,64.9001,-0.001271
20.532,64.9001,-0.001271
20.548,64.9001,-0.001271
20.564,64.9001,-0.001271
20.580,64.9001,-0.001271
20.610,64.9001,-0.001271
20.626,64.9001,-0.001271
20.642,64.9001,-0.001271
20.658,64.9001,-0.001271
20.674,64.9001,-0.001271
20.690,64.9001,-0.001271
20.705,64.9001,-0.001365
20.722,64.9000,-0.001365
20.738,64.8997,-0.001365
20.754,64.8992,-0.001365
20.770,64.8986,-0.001365
20.786,64.8977,-0.001365
20.802,64.8966,-0.001365
20.818,64.8955,-0.001365
20.841,64.8933,-0.001365
20.864,64.8907,-0.001365
20.883,64.8884,-0.001365
20.899,64.8862,-0.001365
20.914,64.8839,-0.001365
20.930,64.8814,-0.001365
20.946,64.8785,-0.001365
20.963,64.8754,-0.001365
20.978,64.8723,-0.001365
20.993,64.8691,-0.001195
21.010,64.8655,-0.001195
21.026,64.8615,-0.001195
21.041,64.8578,-0.001195
21.057,64.8536,-0.001195
21.074,64.8491,-0.001195
21.091,64.8444,-0.001195
21.106,64.8398,-0.001195
21.122,64.8350,-0.001195
21.147,64.8269,-0.001195
21.162,64.8215,-0.001195
21.179,64.8160,-0.001195
21.209,64.8049,-0.001195
21.228,64.7975,-0.001195
21.254,64.7865,0.000697
21.274,64.7784,0.000697
21.290,64.7715,0.000697
21.305,64.7647,0.000697
21.321,64.7572,0.000697
21.339,64.7489,0.000697
21.361,64.7384,0.000697
21.392,64.7224,0.000697
21.407,64.7146,0.000697
21.437,64.6981,0.000697
21.468,64.6808,0.000697
21.484,64.6715,0.000697
21.499,64.6625,0.005591
21.530,64.6435,0.005591
21.545,64.6341,0.005591
21.562,64.6238,0.005591
21.578,64.6129,0.005591
21.607,64.5933,0.005591
21.625,64.5810,0.005591
21.643,64.5682,0.005591
21.669,64.5500,0.005591
21.701,64.5260,0.005591
21.717,64.5138,0.005591
21.734,64.5012,0.013659
21.750,64.4881,0.013659
21.771,64.4714,0.013659
21.793,64.4537,0.013659
21.814,64.4361,0.013659
21.829,64.4229,0.013659
21.847,64.4085,0.013659
21.871,64.3873,0.013659
21.903,64.3590,0.013659
21.933,64.3315,0.013659
21.963,64.3022,0.013659
21.994,64.2735,0.025924
22.009,64.2584,0.025924
22.025,64.2419,0.025924
22.042,64.2259,0.025924
22.073,64.1944,0.025924
22.104,64.1618,0.025924
22.119,64.1452,0.025924
22.136,64.1277,0.025924
22.151,64.1101,0.025924
22.167,64.0932,0.025924
22.183,64.0760,0.025924
22.199,64.0581,0.025924
22.214,64.0399,0.025924
22.229,64.0228,0.025924
22.257,63.9911,0.043687
22.273,63.9727,0.043687
22.288,63.9538,0.043687
22.304,63.9343,0.043687
22.320,63.9151,0.043687
22.336,63.8953,0.043687
22.353,63.8755,0.043687
22.368,63.8562,0.043687
22.384,63.8350,0.043687
22.401,63.8146,0.043687
22.417,63.7938,0.043687
22.432,63.7729,0.043687
22.448,63.7529,0.043687
22.464,63.7313,0.043687
22.481,63.7097,0.068782
22.496,63.6889,0.068782
22.512,63.6672,0.068782
22.528,63.6445,0.068782
22.544,63.6232,0.068782
22.560,63.6007,0.068782
22.576,63.5775,0.068782
22.592,63.5553,0.068782
22.608,63.5325,0.068782
22.624,63.5095,0.068782
22.640,63.4855,0.068782
22.656,63.4628,0.068782
22.672,63.4385,0.068782
22.688,63.4147,0.068782
22.710,63.3809,0.068782
22.727,63.3555,0.068782
22.756,63.3104,0.068782
22.781,63.2719,0.078911
22.797,63.2461,0.078911
22.813,63.2218,0.078911
22.829,63.1958,0.078911
22.845,63.1702,0.078911
22.861,63.1438,0.078911
22.877,63.1178,0.078911
22.893,63.0908,0.078911
22.909,63.0649,0.078911
22.925,63.0370,0.078911
22.941,63.0120,0.078911
22.957,62.9843,0.078911
22.973,62.9568,0.036853
22.990,62.9276,0.036853
23.006,62.8987,0.036853
23.035,62.8492,0.036853
23.053,62.8169,0.036853
23.069,62.7884,0.036853
23.085,62.7602,0.036853
23.101,62.7303,0.036853
23.117,62.7020,0.036853
23.134,62.6704,0.036853
23.159,62.6232,0.036853
23.181,62.5843,0.036853
23.197,62.5533,0.036853
23.213,62.5241,-0.000461
23.229,62.4938,-0.000461
23.245,62.4629,-0.000461
23.261,62.4302,-0.000461
23.277,62.4009,-0.000461
23.307,62.3416,-0.000461
23.323,62.3102,-0.000461
23.339,62.2789,-0.000461
23.355,62.2462,-0.000461
23.371,62.2147,-0.000461
23.387,62.1825,-0.000461
23.403,62.1500,-0.000461
23.420,62.1145,-0.000461
23.435,62.0827,-0.000461
23.451,62.0504,-0.000461
23.467,62.0172,-0.000311
23.485,61.9801,-0.000311
23.514,61.9173,-0.000311
23.531,61.8817,-0.000311
23.547,61.8480,-0.000311
23.563,61.8132,-0.000311
23.579,61.7807,-0.000311
23.595,61.7471,-0.000311
23.618,61.6972,-0.000311
23.639,61.6525,-0.000311
23.659,61.6150,-0.000311
23.675,61.5821,-0.000311
23.695,61.5402,-0.000311
23.718,61.4940,-0.000311
23.739,61.4527,-0.000329
23.755,61.4215,-0.000329
23.771,61.3904,-0.000329
23.787,61.3594,-0.000329
23.802,61.3283,-0.000329
23.820,61.2950,-0.000329
23.844,61.2495,-0.000329
23.860,61.2178,-0.000329
23.876,61.1887,-0.000329
23.891,61.1588,-0.000329
23.908,61.1281,-0.000329
23.924,61.0994,-0.000329
23.940,61.0690,-0.000329
23.956,61.0395,-0.000329
23.971,61.0118,-0.000424
23.988,60.9827,-0.000424
24.004,60.9528,-0.000424
24.019,60.9258,-0.000424
24.035,60.8972,-0.000424
24.052,60.8691,-0.000424
24.069,60.8392,-0.000424
24.088,60.8057,-0.000424
24.104,60.7771,-0.000424
24.121,60.7490,-0.000424
24.150,60.6992,-0.000424
24.166,60.6734,-0.000424
24.181,60.6492,-0.000424
24.212,60.5982,-0.000471
24.228,60.5729,-0.000471
24.245,60.5453,-0.000471
24.260,60.5207,-0.000471
24.290,60.4741,-0.000471
24.309,60.4421,-0.000471
24.337,60.4009,-0.000471
24.365,60.3581,-0.000471
24.380,60.3345,-0.000471
24.396,60.3117,-0.000471
24.413,60.2859,-0.000471
24.430,60.2615,-0.000471
24.460,60.2167,-0.000602
24.476,60.1949,-0.000602
24.493,60.1710,-0.000602
24.508,60.1496,-0.000602
24.524,60.1272,-0.000602
24.540,60.1052,-0.000602
24.557,60.0814,-0.000602
24.573,60.0610,-0.000602
24.588,60.0401,-0.000602
24.604,60.0184,-0.000602
24.621,59.9961,-0.000602
24.644,59.9658,-0.000602
24.660,59.9456,-0.000602
24.691,59.9064,-0.000602
24.722,59.8675,-0.000800
24.752,59.8305,-0.000800
24.783,59.7936,-0.000800
24.814,59.7561,-0.000800
24.830,59.7373,-0.000800
24.845,59.7201,-0.000800
24.877,59.6839,-0.000800
24.893,59.6663,-0.000800
24.917,59.6396,-0.000800
24.934,59.6209,-0.000800
24.949,59.6043,-0.000800
24.965,59.5878,-0.000857
24.981,59.5709,-0.000857
24.998,59.5537,-0.000857
25.013,59.5381,-0.000857
25.031,59.5201,-0.000857
25.060,59.4907,-0.000857
25.077,59.4740,-0.000857
25.094,59.4580,-0.000857
25.109,59.4436,-0.000857
25.125,59.4286,-0.000857
25.141,59.4134,-0.000857
25.158,59.3985,-0.000857
25.173,59.3845,-0.000857
25.190,59.3699,-0.000857
25.205,59.3561,-0.000857
25.221,59.3420,-0.000857
25.237,59.3285,-0.000857
25.253,59.3151,-0.000715
25.269,59.3014,-0.000715
25.285,59.2877,-0.000715
25.301,59.2750,-0.000715
25.317,59.2630,-0.000715
25.334,59.2493,-0.000715
25.351,59.2362,-0.000715
25.372,59.2207,-0.000715
25.402,59.1982,-0.000715
25.433,59.1763,-0.000715
25.460,59.1573,-0.000715
25.476,59.1463,-0.000715
25.492,59.1361,-0.000546
25.508,59.1256,-0.000546
25.524,59.1152,-0.000546
25.540,59.1052,-0.000546
25.556,59.0957,-0.000546
25.572,59.0858,-0.000546
25.589,59.0758,-0.000546
25.605,59.0669,-0.000546
25.620,59.0579,-0.000546
25.636,59.0493,-0.000546
25.653,59.0400,-0.000546
25.681,59.0251,-0.000546
25.700,59.0158,-0.000546
25.716,59.0079,-0.000546
25.732,59.0001,-0.000546
25.748,58.9925,-0.000471
25.764,58.9849,-0.000471
25.780,58.9780,-0.000471
25.796,58.9712,-0.000471
25.812,58.9643,-0.000471
25.829,58.9571,-0.000471
25.845,58.9512,-0.000471
25.860,58.9454,-0.000471
25.876,58.9393,-0.000471
25.892,58.9332,-0.000471
25.908,58.9279,-0.000471
25.924,58.9224,-0.000471
25.940,58.9172,-0.000471
25.956,58.9122,-0.000471
25.972,58.9074,-0.000471
26.001,58.8992,-0.000461
26.017,58.8949,-0.000461
26.033,58.8909,-0.000461
26.049,58.8871,-0.000461
26.065,58.8834,-0.000461
26.081,58.8799,-0.000461
26.097,58.8765,-0.000461
26.113,58.8734,-0.000461
26.129,58.8705,-0.000461
26.145,58.8677,-0.000461
26.161,58.8652,-0.000461
26.177,58.8630,-0.000461
26.195,58.8605,-0.000461
26.221,58.8576,-0.000461
26.241,58.8556,-0.000461
26.257,58.8542,-0.000461
26.273,58.8531,-0.000461
26.289,58.8521,-0.000461
26.305,58.8514,-0.000461
26.322,58.8507,-0.000461
26.342,58.8502,-0.000461
26.359,58.8501,-0.000461
26.390,58.8501,-0.000461
26.421,58.8501,-0.000461
26.451,58.8501,-0.000461
26.482,58.8501,-0.000377
26.497,58.8504,-0.000377
26.513,58.8506,-0.000377
26.528,58.8512,-0.000377
26.557,58.8527,-0.000377
26.574,58.8538,-0.000377
26.604,58.8564,-0.000377
26.621,58.8582,-0.000377
26.636,58.8600,-0.000377
26.652,58.8620,-0.000377
26.668,58.8643,-0.000377
26.683,58.8667,-0.000377
26.699,58.8693,-0.000377
26.716,58.8722,-0.000433
26.732,58.8750,-0.000433
26.748,58.8785,-0.000433
26.764,58.8819,-0.000433
26.779,58.8852,-0.000433
26.795,58.8891,-0.000433
26.812,58.8931,-0.000433
26.827,58.8972,-0.000433
26.844,58.9017,-0.000433
26.860,58.9063,-0.000433
26.876,58.9111,-0.000433
26.891,58.9158,-0.000433
26.908,58.9212,-0.000433
26.924,58.9265,-0.000433
26.940,58.9321,-0.000433
26.955,58.9377,-0.000471
26.972,58.9438,-0.000471
26.988,58.9497,-0.000471
27.003,58.9563,-0.000471
27.019,58.9625,-0.000471
27.035,58.9694,-0.000471
27.051,58.9761,-0.000471
27.067,58.9831,-0.000471
27.084,58.9906,-0.000471
27.109,59.0027,-0.000471
27.125,59.0101,-0.000471
27.140,59.0178,-0.000471
27.157,59.0266,-0.000471
27.172,59.0344,-0.000471
27.189,59.0435,-0.000471
27.205,59.0520,-0.000471
27.221,59.0608,-0.000471
27.237,59.0700,-0.000471
27.253,59.0794,-0.000471
27.268,59.0887,-0.000471
27.284,59.0982,-0.000471
27.301,59.1091,-0.000471
27.317,59.1186,-0.000471
27.333,59.1289,-0.000471
27.350,59.1400,-0.000471
27.370,59.1537,-0.000471
27.392,59.1689,-0.000471
27.412,59.1830,-0.000471
27.428,59.1944,-0.000471
27.445,59.2066,-0.000471
27.460,59.2177,-0.000508
27.477,59.2301,-0.000508
27.493,59.2425,-0.000508
27.509,59.2554,-0.000508
27.524,59.2673,-0.000508
27.540,59.2801,-0.000508
27.556,59.2935,-0.000508
27.573,59.3064,-0.000508
27.588,59.3195,-0.000508
27.604,59.3333,-0.000508
27.632,59.3569,-0.000508
27.648,59.3711,-0.000508
27.663,59.3852,-0.000508
27.680,59.3998,-0.000508
27.695,59.4143,-0.000508
27.711,59.4289,-0.000565
27.727,59.4441,-0.000565
27.743,59.4594,-0.000565
27.759,59.4748,-0.000565
27.775,59.4906,-0.000565
27.791,59.5062,-0.000565
27.808,59.5224,-0.000565
27.824,59.5393,-0.000565
27.840,59.5553,-0.000565
27.855,59.5722,-0.000565
27.872,59.5892,-0.000565
27.888,59.6059,-0.000565
27.903,59.6229,-0.000565
27.921,59.6437,-0.000565
27.950,59.6736,-0.000565
27.967,59.6933,-0.000593
27.984,59.7124,-0.000593
27.999,59.7303,-0.000593
28.015,59.7483,-0.000593
28.031,59.7671,-0.000593
28.049,59.7903,-0.000593
28.072,59.8155,-0.000593
28.087,59.8344,-0.000593
28.103,59.8543,-0.000593
28.133,59.8918,-0.000593
28.164,59.9315,-0.000593
28.180,59.9511,-0.000593
28.196,59.9709,-0.000593
28.211,59.9920,-0.000593
28.241,60.0324,-0.000621
28.272,60.0735,-0.000621
28.288,60.0947,-0.000621
28.303,60.1158,-0.000621
28.319,60.1387,-0.000621
28.336,60.1620,-0.000621
28.351,60.1827,-0.000621
28.367,60.2067,-0.000621
28.383,60.2286,-0.000621
28.400,60.2537,-0.000621
28.427,60.2928,-0.000621
28.447,60.3231,-0.000621
28.464,60.3474,-0.000621
28.479,60.3710,-0.000621
28.495,60.3947,-0.000631
28.511,60.4202,-0.000631
28.527,60.4458,-0.000631
28.543,60.4700,-0.000631
28.559,60.4948,-0.000631
28.575,60.5203,-0.000631
28.591,60.5471,-0.000631
28.607,60.5712,-0.000631
28.623,60.5966,-0.000631
28.640,60.6251,-0.000631
28.656,60.6507,-0.000631
28.676,60.6849,-0.000631
28.707,60.7377,-0.000631
28.738,60.7896,-0.000659
28.769,60.8425,-0.000659
28.784,60.8706,-0.000659
28.800,60.8981,-0.000659
28.831,60.9518,-0.000659
28.847,60.9810,-0.000659
28.863,61.0100,-0.000659
28.879,61.0397,-0.000659
28.898,61.0736,-0.000659
28.926,61.1251,-0.000659
28.943,61.1566,-0.000659
28.960,61.1881,-0.000659
28.975,61.2165,-0.000659
28.991,61.2469,-0.000753
29.006,61.2768,-0.000753
29.025,61.3114,-0.000753
29.050,61.3596,-0.000753
29.080,61.4206,-0.000753
29.111,61.4809,-0.000753
29.142,61.5450,-0.000753
29.173,61.6049,-0.000753
29.203,61.6703,-0.000753
29.226,61.7148,-0.000800
29.242,61.7493,-0.000800
29.258,61.7825,-0.000800
29.274,61.8155,-0.000800
29.290,61.8495,-0.000800
29.306,61.8837,-0.000800
29.322,61.9187,-0.000800
29.338,61.9513,-0.000800
29.354,61.9849,-0.000800
29.370,62.0182,-0.000800
29.386,62.0512,-0.000800
29.402,62.0837,-0.000800
29.418,62.1173,-0.000800
29.433,62.1483,-0.000800
29.450,62.1818,-0.000800
29.466,62.2133,-0.000800
29.482,62.2455,-0.000602
29.498,62.2763,-0.000602
29.515,62.3095,-0.000602
29.542,62.3637,-0.000602
29.562,62.4014,-0.000602
29.578,62.4336,-0.000602
29.595,62.4647,-0.000602
29.619,62.5110,-0.000602
29.650,62.5688,-0.000602
29.681,62.6254,-0.000602
29.713,62.6837,-0.000602
29.742,62.7364,-0.000602
29.758,62.7664,-0.000414
29.774,62.7933,-0.000414
29.790,62.8213,-0.000414
29.821,62.8759,-0.000414
29.836,62.9020,-0.000414
29.852,62.9274,-0.000414
29.887,62.9911,-0.000414
29.913,63.0306,-0.000414
29.930,63.0597,-0.000414
29.946,63.0851,-0.000414
29.962,63.1127,-0.000442
29.978,63.1379,-0.000442
29.994,63.1636,-0.000442
30.009,63.1872,-0.000442
30.026,63.2138,-0.000442
30.042,63.2397,-0.000442
30.058,63.2639,-0.000442
30.074,63.2878,-0.000442
30.089,63.3119,-0.000442
30.106,63.3368,-0.000442
30.122,63.3612,-0.000442
30.138,63.3853,-0.000442
30.153,63.4079,-0.000442
30.169,63.4315,-0.000442
30.186,63.4558,-0.000442
30.201,63.4784,-0.000442
30.218,63.5015,-0.000518
30.234,63.5243,-0.000518
30.250,63.5470,-0.000518
30.265,63.5692,-0.000518
30.298,63.6141,-0.000518
30.316,63.6382,-0.000518
30.332,63.6602,-0.000518
30.347,63.6814,-0.000518
30.378,63.7213,-0.000518
30.394,63.7413,-0.000518
30.410,63.7621,-0.000518
30.426,63.7825,-0.000518
30.457,63.8215,-0.000659
30.472,63.8408,-0.000659
30.489,63.8617,-0.000659
30.505,63.8806,-0.000659
30.521,63.8996,-0.000659
30.537,63.9198,-0.000659
30.553,63.9378,-0.000659
30.568,63.9559,-0.000659
30.584,63.9743,-0.000659
30.600,63.9926,-0.000659
30.617,64.0115,-0.000659
30.632,64.0287,-0.000659
30.648,64.0466,-0.000659
30.665,64.0653,-0.000659
30.680,64.0814,-0.000659
30.696,64.0985,-0.000659
30.712,64.1155,-0.000791
30.729,64.1336,-0.000791
30.755,64.1597,-0.000791
30.781,64.1861,-0.000791
30.812,64.2171,-0.000791
30.827,64.2322,-0.000791
30.853,64.2564,-0.000791
30.874,64.2765,-0.000791
30.905,64.3059,-0.000791
30.936,64.3331,-0.000791
30.951,64.3460,-0.000791
30.982,64.3729,-0.000791
30.997,64.3855,-0.000894
31.013,64.3984,-0.000894
31.043,64.4239,-0.000894
31.059,64.4360,-0.000894
31.076,64.4488,-0.000894
31.093,64.4622,-0.000894
31.122,64.4847,-0.000894
31.139,64.4970,-0.000894
31.157,64.5099,-0.000894
31.183,64.5284,-0.000894
31.203,64.5419,-0.000894
31.220,64.5538,-0.000894
31.235,64.5636,-0.000941
31.251,64.5738,-0.000941
31.267,64.5841,-0.000941
31.285,64.5955,-0.000941
31.306,64.6085,-0.000941
31.337,64.6268,-0.000941
31.368,64.6442,-0.000941
31.384,64.6533,-0.000941
31.403,64.6636,-0.000941
31.419,64.6720,-0.000941
31.435,64.6801,-0.000941
31.451,64.6880,-0.000941
31.469,64.6967,-0.000941
31.492,64.7076,-0.000941
31.508,64.7151,-0.000951
31.538,64.7286,-0.000951
31.554,64.7350,-0.000951
31.570,64.7416,-0.000951
31.586,64.7482,-0.000951
31.602,64.7544,-0.000951
31.632,64.7653,-0.000951
31.648,64.7711,-0.000951
31.679,64.7812,-0.000951
31.694,64.7862,-0.000951
31.710,64.7912,-0.000951
31.726,64.7955,-0.000951
31.756,64.8040,-0.001045
31.771,64.8078,-0.001045
31.787,64.8118,-0.001045
31.803,64.8155,-0.001045
31.819,64.8191,-0.001045
31.835,64.8227,-0.001045
31.851,64.8257,-0.001045
31.867,64.8285,-0.001045
31.883,64.8314,-0.001045
31.901,64.8342,-0.001045
31.926,64.8380,-0.001045
31.958,64.8419,-0.001045
31.974,64.8437,-0.001045
31.990,64.8450,-0.001205
32.007,64.8465,-0.001205
32.024,64.8476,-0.001205
32.050,64.8490,-0.001205
32.070,64.8496,-0.001205
32.086,64.8500,-0.001205
32.102,64.8501,-0.001205
32.118,64.8501,-0.001205
32.134,64.8501,-0.001205
32.151,64.8501,-0.001205
32.166,64.8501,-0.001205
32.182,64.8501,-0.001205
32.198,64.8501,-0.001205
32.215,64.8501,-0.001205
32.235,64.8501,-0.001374
32.265,64.8501,-0.001374
32.296,64.8501,-0.001374
32.312,64.8501,-0.001374
32.343,64.8501,-0.001374
32.358,64.8501,-0.001374
32.374,64.8501,-0.001374
32.397,64.8501,-0.001374
32.420,64.8501,-0.001374
32.438,64.8501,-0.001374
32.454,64.8501,-0.001374
32.470,64.8501,-0.001374
32.486,64.8501,-0.001374
32.510,64.8501,-0.001421
32.526,64.8501,-0.001421
32.542,64.8501,-0.001421
32.558,64.8501,-0.001421
32.577,64.8501,-0.001421
32.596,64.8501,-0.001421
32.621,64.8501,-0.001421
32.638,64.8501,-0.001421
32.654,64.8501,-0.001421
32.670,64.8501,-0.001421
32.686,64.8501,-0.001421
32.702,64.8501,-0.001421
32.718,64.8501,-0.001421
32.734,64.8501,-0.001412
32.750,64.8501,-0.001412
32.766,64.8501,-0.001412
32.782,64.8501,-0.001412
32.798,64.8501,-0.001412
32.814,64.8501,-0.001412
32.830,64.8501,-0.001412
32.846,64.8501,-0.001412
32.862,64.8501,-0.001412
32.878,64.8501,-0.001412
32.894,64.8501,-0.001412
32.910,64.8501,-0.001412
32.926,64.8501,-0.001412
32.942,64.8501,-0.001412
32.958,64.8501,-0.001412
32.974,64.8501,-0.001299
32.989,64.8501,-0.001299
33.012,64.8501,-0.001299
33.036,64.8501,-0.001299
33.054,64.8501,-0.001299
33.082,64.8501,-0.001299
33.098,64.8501,-0.001299
33.115,64.8501,-0.001299
33.131,64.8501,-0.001299
33.147,64.8501,-0.001299
33.162,64.8501,-0.001299
33.178,64.8501,-0.001299
33.194,64.8501,-0.001299
33.211,64.8501,-0.001299
33.226,64.8501,-0.001101
33.242,64.8501,-0.001101
33.259,64.8501,-0.001101
33.275,64.8501,-0.001101
33.291,64.8501,-0.001101
33.307,64.8501,-0.001101
33.323,64.8501,-0.001101
33.339,64.8501,-0.001101
33.355,64.8501,-0.001101
33.370,64.8501,-0.001101
33.389,64.8501,-0.001101
33.418,64.8501,-0.001101
33.434,64.8501,-0.001101
33.450,64.8501,-0.001101
33.466,64.8501,-0.001101
33.483,64.8501,-0.001092
33.499,64.8501,-0.001092
33.515,64.8501,-0.001092
33.531,64.8501,-0.001092
33.547,64.8501,-0.001092
33.570,64.8501,-0.001092
33.586,64.8501,-0.001092
33.602,64.8501,-0.001092
33.618,64.8501,-0.001092
33.635,64.8501,-0.001092
33.651,64.8501,-0.001092
33.667,64.8501,-0.001092
33.683,64.8501,-0.001092
33.699,64.8501,-0.001092
33.714,64.8501,-0.001092
33.731,64.8501,-0.001035
33.757,64.8501,-0.001035
33.778,64.8501,-0.001035
33.794,64.8501,-0.001035
33.811,64.8501,-0.001035
33.827,64.8501,-0.001035
33.843,64.8501,-0.001035
33.858,64.8501,-0.001035
33.875,64.8501,-0.001035
33.900,64.8501,-0.001035
33.927,64.8501,-0.001035
33.959,64.8501,-0.001035
33.989,64.8501,-0.001092
34.019,64.8501,-0.001092
34.050,64.8501,-0.001092
34.068,64.8501,-0.001092
34.096,64.8501,-0.001092
34.125,64.8501,-0.001092
34.142,64.8501,-0.001092
34.158,64.8501,-0.001092
34.173,64.8501,-0.001092
34.197,64.8501,-0.001092
34.219,64.8501,-0.001158
34.237,64.8501,-0.001158
34.255,64.8501,-0.001158
34.270,64.8501,-0.001158
34.285,64.8501,-0.001158
34.301,64.8501,-0.001158
34.318,64.8501,-0.001158
34.333,64.8501,-0.001158
34.349,64.8501,-0.001158
34.366,64.8501,-0.001158
34.382,64.8501,-0.001158
34.398,64.8501,-0.001158
34.413,64.8501,-0.001158
34.430,64.8501,-0.001158
34.446,64.8501,-0.001158
34.461,64.8501,-0.001130
34.477,64.8501,-0.001130
34.493,64.8501,-0.001130
34.509,64.8501,-0.001130
34.525,64.8501,-0.001130
34.541,64.8501,-0.001130
34.557,64.8501,-0.001130
34.575,64.8501,-0.001130
34.590,64.8501,-0.001130
34.605,64.8501,-0.001130
34.622,64.8501,-0.001130
34.653,64.8501,-0.001130
34.680,64.8501,-0.001130
34.695,64.8501,-0.001130
34.711,64.8501,-0.001139
34.727,64.8501,-0.001139
34.743,64.8501,-0.001139
34.759,64.8501,-0.001139
34.775,64.8501,-0.001139
34.791,64.8501,-0.001139
34.808,64.8501,-0.001139
34.838,64.8501,-0.001139
34.855,64.8501,-0.001139
34.872,64.8501,-0.001139
34.899,64.8501,-0.001139
34.919,64.8501,-0.001139
34.935,64.8501,-0.001139
34.951,64.8501,-0.001139
34.967,64.8501,-0.001120
34.983,64.8501,-0.001120
34.999,64.8501,-0.001120
35.015,64.8501,-0.001120
35.031,64.8501,-0.001120
35.047,64.8501,-0.001120
35.063,64.8501,-0.001120
35.079,64.8501,-0.001120
35.095,64.8501,-0.001120
35.111,64.8501,-0.001120
35.127,64.8501,-0.001120
35.143,64.8501,-0.001120
35.159,64.8501,-0.001120
35.175,64.8501,-0.001120
35.202,64.8501,-0.001120
35.218,64.8501,-0.001120
35.234,64.8501,-0.001233
35.250,64.8501,-0.001233
35.266,64.8501,-0.001233
35.282,64.8501,-0.001233
35.298,64.8501,-0.001233
35.314,64.8501,-0.001233
35.330,64.8501,-0.001233
35.346,64.8501,-0.001233
35.362,64.8501,-0.001233
35.378,64.8501,-0.001233
35.394,64.8501,-0.001233
35.410,64.8501,-0.001233
35.426,64.8501,-0.001233
35.442,64.8501,-0.001233
35.458,64.8501,-0.001337
35.474,64.8501,-0.001337
35.498,64.8501,-0.001337
35.520,64.8501,-0.001337
35.539,64.8501,-0.001337
35.554,64.8501,-0.001337
35.570,64.8501,-0.001337
35.586,64.8501,-0.001337
35.602,64.8501,-0.001337
35.618,64.8501,-0.001337
35.634,64.8501,-0.001337
35.650,64.8501,-0.001337
35.666,64.8501,-0.001337
35.682,64.8501,-0.001337
35.699,64.8501,-0.001337
35.723,64.8501,-0.001337
35.745,64.8501,-0.001356
35.769,64.8501,-0.001356
35.801,64.8501,-0.001356
35.831,64.8501,-0.001356
35.847,64.8501,-0.001356
35.878,64.8501,-0.001356
35.910,64.8501,-0.001356
35.926,64.8501,-0.001356
35.956,64.8501,-0.001356
35.972,64.8501,-0.001261
36.002,64.8501,-0.001261
36.018,64.8501,-0.001261
36.048,64.8501,-0.001261
36.066,64.8501,-0.001261
36.095,64.8501,-0.001261
36.112,64.8501,-0.001261
36.127,64.8501,-0.001261
36.144,64.8501,-0.001261
36.160,64.8501,-0.001261
36.176,64.8501,-0.001261
36.191,64.8501,-0.001261
36.207,64.8501,-0.001205
36.224,64.8501,-0.001205
36.240,64.8501,-0.001205
36.256,64.8501,-0.001205
36.271,64.8501,-0.001205
36.293,64.8501,-0.001205
36.309,64.8501,-0.001205
36.325,64.8501,-0.001205
36.341,64.8501,-0.001205
36.358,64.8501,-0.001205
36.374,64.8501,-0.001205
36.390,64.8501,-0.001205
36.405,64.8501,-0.001205
36.422,64.8501,-0.001205
36.439,64.8501,-0.001205
36.464,64.8501,-0.001139
36.495,64.8501,-0.001139
36.526,64.8501,-0.001139
36.542,64.8501,-0.001139
36.572,64.8501,-0.001139
36.588,64.8501,-0.001139
36.604,64.8501,-0.001139
36.619,64.8501,-0.001139
36.635,64.8501,-0.001139
36.666,64.8501,-0.001139
36.696,64.8501,-0.001139
36.711,64.8501,-0.001139
36.727,64.8501,-0.001139
36.743,64.8501,-0.001158
36.758,64.8501,-0.001158
36.774,64.8501,-0.001158
36.790,64.8501,-0.001158
36.806,64.8501,-0.001158
36.830,64.8501,-0.001158
36.847,64.8501,-0.001158
36.863,64.8501,-0.001158
36.879,64.8501,-0.001158
36.894,64.8501,-0.001158
36.910,64.8501,-0.001158
36.926,64.8501,-0.001158
36.943,64.8501,-0.001158
36.958,64.8501,-0.001158
36.974,64.8501,-0.001233
36.991,64.8501,-0.001233
37.006,64.8501,-0.001233
37.023,64.8501,-0.001233
37.039,64.8501,-0.001233
37.054,64.8501,-0.001233
37.070,64.8501,-0.001233
37.086,64.8501,-0.001233
37.102,64.8501,-0.001233
37.118,64.8501,-0.001233
37.135,64.8501,-0.001233
37.164,64.8501,-0.001233
37.182,64.8501,-0.001233
37.201,64.8501,-0.001233
37.227,64.8501,-0.001261
37.246,64.8501,-0.001261
37.263,64.8501,-0.001261
37.289,64.8501,-0.001261
37.319,64.8501,-0.001261
37.350,64.8501,-0.001261
37.366,64.8501,-0.001261
37.387,64.8501,-0.001261
37.403,64.8501,-0.001261
37.419,64.8501,-0.001261
37.435,64.8501,-0.001261
37.452,64.8499,-0.001261
37.467,64.8495,-0.001346
37.483,64.8489,-0.001346
37.499,64.8481,-0.001346
37.516,64.8471,-0.001346
37.531,64.8460,-0.001346
37.547,64.8447,-0.001346
37.563,64.8432,-0.001346
37.579,64.8414,-0.001346
37.595,64.8396,-0.001346
37.611,64.8373,-0.001346
37.628,64.8349,-0.001346
37.643,64.8325,-0.001346
37.659,64.8299,-0.001346
37.675,64.8268,-0.001346
37.695,64.8228,-0.001346
37.722,64.8173,-0.001346
37.739,64.8134,-0.001083
37.755,64.8093,-0.001083
37.771,64.8055,-0.001083
37.787,64.8013,-0.001083
37.804,64.7964,-0.001083
37.823,64.7906,-0.001083
37.849,64.7828,-0.001083
37.867,64.7768,-0.001083
37.883,64.7717,-0.001083
37.899,64.7659,-0.001083
37.915,64.7600,-0.001083
37.939,64.7511,-0.001083
37.955,64.7446,-0.001083
37.972,64.7380,0.001101
37.988,64.7312,0.001101
38.004,64.7239,0.001101
38.024,64.7158,0.001101
38.046,64.7048,0.001101
38.067,64.6952,0.001101
38.083,64.6872,0.001101
38.099,64.6796,0.001101
38.115,64.6714,0.001101
38.131,64.6626,0.001101
38.147,64.6543,0.001101
38.163,64.6455,0.001101
38.179,64.6366,0.001101
38.195,64.6270,0.001101
38.212,64.6175,0.006354
38.227,64.6084,0.006354
38.244,64.5977,0.006354
38.259,64.5883,0.006354
38.275,64.5783,0.006354
38.291,64.5678,0.006354
38.307,64.5571,0.006354
38.323,64.5469,0.006354
38.339,64.5360,0.006354
38.356,64.5238,0.006354
38.371,64.5129,0.006354
38.387,64.5017,0.006354
38.404,64.4896,0.006354
38.419,64.4780,0.006354
38.435,64.4656,0.006354
38.451,64.4539,0.006354
38.467,64.4415,0.006354
38.490,64.4230,0.015014
38.506,64.4100,0.015014
38.522,64.3966,0.015014
38.538,64.3835,0.015014
38.555,64.3689,0.015014
38.570,64.3561,0.015014
38.586,64.3422,0.015014
38.601,64.3281,0.015014
38.622,64.3102,0.015014
38.638,64.2954,0.015014
38.664,64.2711,0.015014
38.683,64.2541,0.015014
38.698,64.2393,0.015014
38.714,64.2237,0.028042
38.730,64.2080,0.028042
38.746,64.1919,0.028042
38.762,64.1761,0.028042
38.778,64.1599,0.028042
38.794,64.1433,0.028042
38.810,64.1267,0.028042
38.826,64.1101,0.028042
38.841,64.0935,0.028042
38.858,64.0761,0.028042
38.874,64.0582,0.028042
38.889,64.0411,0.028042
38.905,64.0234,0.028042
38.922,64.0053,0.028042
38.938,63.9867,0.028042
38.953,63.9687,0.046774
38.970,63.9497,0.046774
38.986,63.9311,0.046774
39.012,63.9006,0.046774
39.028,63.8805,0.046774
39.043,63.8617,0.046774
39.059,63.8419,0.046774
39.076,63.8211,0.046774
39.092,63.8024,0.046774
39.108,63.7812,0.046774
39.123,63.7614,0.046774
39.140,63.7409,0.046774
39.156,63.7196,0.046774
39.172,63.6981,0.046774
39.187,63.6776,0.046774
39.204,63.6558,0.046774
39.220,63.6341,0.073301
39.236,63.6125,0.073301
39.252,63.5907,0.073301
39.268,63.5680,0.073301
39.284,63.5455,0.073301
39.300,63.5228,0.073301
39.315,63.5014,0.073301
39.340,63.4639,0.073301
39.364,63.4292,0.073301
39.379,63.4082,0.073301
39.395,63.3845,0.073301
39.411,63.3603,0.073301
39.428,63.3353,0.073301
39.443,63.3121,0.073301
39.459,63.2868,0.073301
39.475,63.2630,0.073301
39.491,63.2381,0.109316
39.508,63.2123,0.109316
39.539,63.1630,0.109316
39.555,63.1366,0.109316
39.578,63.0992,0.109316
39.609,63.0478,0.109316
39.625,63.0221,0.109316
39.660,62.9631,0.109316
39.687,62.9173,0.109316
39.703,62.8903,0.109316
39.734,62.8368,0.087317
39.764,62.7838,0.087317
39.795,62.7270,0.087317
39.811,62.7007,0.087317
39.827,62.6705,0.087317
39.856,62.6174,0.087317
39.874,62.5845,0.087317
39.891,62.5539,0.087317
39.906,62.5246,0.087317
39.922,62.4949,0.087317
39.938,62.4644,0.087317
39.955,62.4332,0.087317
39.971,62.4026,0.087317
39.986,62.3725,0.022225
40.002,62.3406,0.022225
40.018,62.3091,0.022225
40.035,62.2774,0.022225
40.050,62.2446,0.022225
40.073,62.1997,0.022225
40.090,62.1674,0.022225
40.106,62.1350,0.022225
40.121,62.1032,0.022225
40.137,62.0711,0.022225
40.154,62.0374,0.022225
40.170,62.0043,0.022225
40.185,61.9712,0.022225
40.201,61.9379,0.022225
40.217,61.9047,0.022225
40.233,61.8712,-0.000367
40.249,61.8370,-0.000367
40.265,61.8027,-0.000367
40.281,61.7688,-0.000367
40.297,61.7343,-0.000367
40.314,61.7002,-0.000367
40.329,61.6669,-0.000367
40.345,61.6342,-0.000367
40.362,61.6007,-0.000367
40.377,61.5685,-0.000367
40.393,61.5360,-0.000367
40.409,61.5030,-0.000367
40.425,61.4707,-0.000367
40.441,61.4394,-0.000367
40.457,61.4074,-0.000489
40.473,61.3750,-0.000489
40.489,61.3431,-0.000489
40.505,61.3115,-0.000489
40.521,61.2821,-0.000489
40.537,61.2506,-0.000489
40.554,61.2187,-0.000489
40.569,61.1893,-0.000489
40.585,61.1588,-0.000489
40.611,61.1094,-0.000489
40.627,61.0799,-0.000489
40.643,61.0502,-0.000489
40.659,61.0210,-0.000489
40.675,60.9908,-0.000489
40.691,60.9637,-0.000489
40.707,60.9348,-0.000650
40.723,60.9059,-0.000650
40.739,60.8759,-0.000650
40.755,60.8492,-0.000650
40.771,60.8210,-0.000650
40.787,60.7926,-0.000650
40.803,60.7650,-0.000650
40.819,60.7375,-0.000650
40.835,60.7111,-0.000650
40.851,60.6834,-0.000650
40.867,60.6560,-0.000650
40.883,60.6294,-0.000650
40.898,60.6039,-0.000650
40.915,60.5768,-0.000650
40.931,60.5501,-0.000650
40.947,60.5252,-0.000650
40.963,60.4988,-0.000678
40.979,60.4740,-0.000678
40.995,60.4478,-0.000678
41.011,60.4232,-0.000678
41.028,60.3969,-0.000678
41.043,60.3736,-0.000678
41.059,60.3479,-0.000678
41.075,60.3244,-0.000678
41.092,60.2981,-0.000678
41.111,60.2691,-0.000678
41.139,60.2278,-0.000678
41.156,60.2031,-0.000678
41.173,60.1782,-0.000678
41.200,60.1392,-0.000678
41.218,60.1152,-0.000678
41.234,60.0921,-0.000640
41.250,60.0695,-0.000640
41.266,60.0476,-0.000640
41.282,60.0262,-0.000640
41.298,60.0045,-0.000640
41.314,59.9824,-0.000640
41.336,59.9542,-0.000640
41.357,59.9254,-0.000640
41.378,59.8991,-0.000640
41.394,59.8778,-0.000640
41.410,59.8583,-0.000640
41.426,59.8381,-0.000640
41.442,59.8176,-0.000640
41.458,59.7981,-0.000640
41.474,59.7788,-0.000584
41.490,59.7593,-0.000584
41.506,59.7400,-0.000584
41.522,59.7208,-0.000584
41.538,59.7025,-0.000584
41.554,59.6839,-0.000584
41.570,59.6653,-0.000584
41.586,59.6472,-0.000584
41.602,59.6282,-0.000584
41.618,59.6106,-0.000584
41.635,59.5918,-0.000584
41.664,59.5604,-0.000584
41.693,59.5301,-0.000584
41.708,59.5144,-0.000584
41.724,59.4974,-0.000584
41.740,59.4818,-0.000584
41.758,59.4623,-0.000584
41.788,59.4338,-0.000584
41.804,59.4183,-0.000584
41.820,59.4030,-0.000584
41.836,59.3876,-0.000584
41.852,59.3729,-0.000584
41.868,59.3581,-0.000584
41.884,59.3429,-0.000584
41.899,59.3290,-0.000584
41.916,59.3146,-0.000584
41.932,59.3008,-0.000584
41.947,59.2868,-0.000584
41.963,59.2732,-0.000584
41.979,59.2599,-0.000584
41.996,59.2465,-0.000584
42.013,59.2325,-0.000584
42.028,59.2203,-0.000584
42.044,59.2080,-0.000584
42.060,59.1955,-0.000584
42.076,59.1831,-0.000584
42.091,59.1710,-0.000584
42.108,59.1593,-0.000584
42.125,59.1467,-0.000584
42.144,59.1323,-0.000584
42.172,59.1128,-0.000584
42.188,59.1024,-0.000584
42.203,59.0920,-0.000584
42.219,59.0814,-0.000584
42.246,59.0642,-0.000555
42.262,59.0541,-0.000555
42.278,59.0447,-0.000555
42.294,59.0348,-0.000555
42.309,59.0259,-0.000555
42.326,59.0159,-0.000555
42.341,59.0075,-0.000555
42.357,58.9987,-0.000555
42.374,58.9894,-0.000555
42.390,58.9813,-0.000555
42.405,58.9729,-0.000555
42.421,58.9651,-0.000555
42.439,58.9565,-0.000555
42.454,58.9491,-0.000555
42.469,58.9419,-0.000480
42.485,58.9347,-0.000480
42.502,58.9271,-0.000480
42.526,58.9168,-0.000480
42.542,58.9099,-0.000480
42.558,58.9038,-0.000480
42.574,58.8975,-0.000480
42.589,58.8918,-0.000480
42.622,58.8801,-0.000480
42.651,58.8705,-0.000480
42.681,58.8608,-0.000480
42.712,58.8518,-0.000471
42.742,58.8434,-0.000471
42.758,58.8397,-0.000471
42.773,58.8360,-0.000471
42.802,58.8294,-0.000471
42.818,58.8263,-0.000471
42.833,58.8233,-0.000471
42.849,58.8205,-0.000471
42.865,58.8177,-0.000471
42.881,58.8153,-0.000471
42.897,58.8129,-0.000471
42.913,58.8108,-0.000471
42.930,58.8087,-0.000471
42.960,58.8056,-0.000452
42.977,58.8041,-0.000452
42.994,58.8029,-0.000452
43.009,58.8020,-0.000452
43.026,58.8012,-0.000452
43.041,58.8006,-0.000452
43.063,58.8001,-0.000452
43.078,58.8000,-0.000452
43.100,58.8000,-0.000452
43.122,58.8000,-0.000452
43.138,58.8000,-0.000452
43.153,58.8000,-0.000452
43.169,58.8000,-0.000452
43.186,58.8000,-0.000452
43.202,58.8000,-0.000452
43.217,58.8000,-0.000424
43.234,58.8000,-0.000424
43.250,58.8000,-0.000424
43.271,58.8000,-0.000424
43.301,58.8000,-0.000424
43.332,58.8000,-0.000424
43.348,58.8000,-0.000424
43.364,58.8000,-0.000424
43.394,58.8000,-0.000424
43.409,58.8000,-0.000424
43.427,58.8000,-0.000424
43.443,58.8000,-0.000424
43.471,58.8000,-0.000339
43.490,58.8000,-0.000339
43.517,58.8000,-0.000339
43.537,58.8000,-0.000339
43.553,58.8000,-0.000339
43.570,58.8000,-0.000339
43.594,58.8000,-0.000339
43.625,58.8000,-0.000339
43.656,58.8000,-0.000339
43.687,58.8000,-0.000339
43.718,58.8000,-0.000339
43.749,58.8003,-0.000339
43.780,58.8012,-0.000339
43.810,58.8029,-0.000339
43.825,58.8039,-0.000339
43.854,58.8065,-0.000339
43.869,58.8081,-0.000339
43.885,58.8098,-0.000339
43.901,58.8119,-0.000339
43.918,58.8144,-0.000339
43.934,58.8166,-0.000339
43.963,58.8217,-0.000461
43.985,58.8259,-0.000461
44.010,58.8309,-0.000461
44.029,58.8351,-0.000461
44.045,58.8390,-0.000461
44.061,58.8429,-0.000461
44.077,58.8471,-0.000461
44.094,58.8517,-0.000461
44.109,58.8562,-0.000461
44.125,58.8608,-0.000461
44.141,58.8657,-0.000461
44.157,58.8711,-0.000461
44.173,58.8763,-0.000461
44.189,58.8817,-0.000461
44.205,58.8876,-0.000461
44.221,58.8936,-0.000461
44.237,58.8996,-0.000461
44.253,58.9059,-0.000461
44.269,58.9125,-0.000461
44.285,58.9191,-0.000461
44.301,58.9261,-0.000461
44.317,58.9331,-0.000461
44.333,58.9405,-0.000461
44.349,58.9481,-0.000461
44.365,58.9555,-0.000461
44.395,58.9705,-0.000461
44.412,58.9790,-0.000461
44.442,58.9951,-0.000461
44.459,59.0048,-0.000461
44.488,59.0215,-0.000433
44.506,59.0314,-0.000433
44.522,59.0409,-0.000433
44.538,59.0509,-0.000433
44.555,59.0616,-0.000433
44.581,59.0782,-0.000433
44.602,59.0918,-0.000433
44.618,59.1023,-0.000433
44.634,59.1132,-0.000433
44.650,59.1251,-0.000433
44.666,59.1360,-0.000433
44.682,59.1470,-0.000433
44.698,59.1591,-0.000433
44.714,59.1713,-0.000433
44.730,59.1834,-0.000480
44.746,59.1950,-0.000480
44.762,59.2078,-0.000480
44.779,59.2212,-0.000480
44.799,59.2371,-0.000480
44.830,59.2637,-0.000480
44.846,59.2766,-0.000480
44.876,59.3029,-0.000480
44.892,59.3169,-0.000480
44.923,59.3439,-0.000480
44.950,59.3689,-0.000480
44.966,59.3840,-0.000480
44.981,59.3985,-0.000518
44.998,59.4150,-0.000518
45.017,59.4341,-0.000518
45.044,59.4606,-0.000518
45.062,59.4772,-0.000518
45.078,59.4940,-0.000518
45.093,59.5099,-0.000518
45.110,59.5274,-0.000518
45.126,59.5448,-0.000518
45.142,59.5611,-0.000518
45.157,59.5779,-0.000518
45.173,59.5951,-0.000518
45.191,59.6143,-0.000518
45.214,59.6401,-0.000518
45.245,59.6764,-0.000602
45.276,59.7123,-0.000602
45.291,59.7307,-0.000602
45.323,59.7680,-0.000602
45.353,59.8046,-0.000602
45.369,59.8241,-0.000602
45.400,59.8630,-0.000602
45.416,59.8836,-0.000602
45.432,59.9042,-0.000602
45.462,59.9442,-0.000602
45.477,59.9636,-0.000602
45.504,59.9999,-0.000640
45.521,60.0226,-0.000640
45.536,60.0440,-0.000640
45.552,60.0654,-0.000640
45.568,60.0877,-0.000640
45.584,60.1103,-0.000640
45.601,60.1339,-0.000640
45.618,60.1577,-0.000640
45.634,60.1805,-0.000640
45.666,60.2268,-0.000640
45.696,60.2727,-0.000640
45.713,60.2970,-0.000640
45.728,60.3205,-0.000668
45.744,60.3463,-0.000668
45.764,60.3758,-0.000668
45.788,60.4127,-0.000668
45.809,60.4448,-0.000668
45.825,60.4709,-0.000668
45.841,60.4958,-0.000668
45.856,60.5206,-0.000668
45.872,60.5468,-0.000668
45.890,60.5778,-0.000668
45.905,60.6005,-0.000668
45.920,60.6255,-0.000668
45.936,60.6529,-0.000668
45.953,60.6801,-0.000668
45.969,60.7070,-0.000715
45.984,60.7338,-0.000715
46.000,60.7614,-0.000715
46.029,60.8102,-0.000715
46.044,60.8375,-0.000715
46.060,60.8660,-0.000715
46.077,60.8955,-0.000715
46.092,60.9227,-0.000715
46.108,60.9519,-0.000715
46.125,60.9823,-0.000715
46.144,61.0179,-0.000715
46.161,61.0483,-0.000715
46.178,61.0791,-0.000715
46.208,61.1370,-0.000715
46.225,61.1671,-0.000715
46.255,61.2263,-0.000715
46.286,61.2841,-0.000715
46.301,61.3140,-0.000715
46.333,61.3794,-0.000715
46.348,61.4061,-0.000715
46.364,61.4380,-0.000715
46.380,61.4713,-0.000715
46.396,61.5026,-0.000715
46.412,61.5345,-0.000715
46.428,61.5675,-0.000715
46.450,61.6137,-0.000715
46.475,61.6662,-0.000715
46.493,61.7019,-0.000715
46.519,61.7581,-0.000781
46.540,61.8021,-0.000781
46.567,61.8585,-0.000781
46.584,61.8951,-0.000781
46.611,61.9513,-0.000781
46.631,61.9941,-0.000781
46.648,62.0264,-0.000781
46.663,62.0572,-0.000781
46.679,62.0901,-0.000781
46.695,62.1232,-0.000781
46.711,62.1553,-0.000593
46.727,62.1865,-0.000593
46.743,62.2188,-0.000593
46.760,62.2513,-0.000593
46.775,62.2815,-0.000593
46.791,62.3130,-0.000593
46.807,62.3437,-0.000593
46.823,62.3747,-0.000593
46.839,62.4047,-0.000593
46.855,62.4355,-0.000593
46.871,62.4658,-0.000593
46.887,62.4964,-0.000593
46.903,62.5254,-0.000593
46.919,62.5546,-0.000593
46.935,62.5842,-0.000593
46.951,62.6137,-0.000593
46.967,62.6427,-0.000358
46.984,62.6733,-0.000358
46.999,62.7005,-0.000358
47.015,62.7283,-0.000358
47.031,62.7559,-0.000358
47.047,62.7848,-0.000358
47.063,62.8137,-0.000358
47.080,62.8422,-0.000358
47.104,62.8840,-0.000358
47.124,62.9172,-0.000358
47.140,62.9429,-0.000358
47.156,62.9697,-0.000358
47.172,62.9963,-0.000358
47.189,63.0256,-0.000358
47.213,63.0634,-0.000358
47.229,63.0896,-0.000414
47.260,63.1390,-0.000414
47.290,63.1870,-0.000414
47.306,63.2121,-0.000414
47.321,63.2355,-0.000414
47.352,63.2826,-0.000414
47.383,63.3290,-0.000414
47.414,63.3741,-0.000414
47.445,63.4195,-0.000414
47.475,63.4630,-0.000537
47.492,63.4875,-0.000537
47.508,63.5091,-0.000537
47.524,63.5310,-0.000537
47.540,63.5535,-0.000537
47.556,63.5754,-0.000537
47.572,63.5971,-0.000537
47.588,63.6194,-0.000537
47.604,63.6399,-0.000537
47.620,63.6610,-0.000537
47.636,63.6828,-0.000537
47.652,63.7019,-0.000537
47.674,63.7317,-0.000537
47.691,63.7520,-0.000537
47.706,63.7717,-0.000631
47.724,63.7936,-0.000631
47.739,63.8119,-0.000631
47.755,63.8314,-0.000631
47.771,63.8511,-0.000631
47.787,63.8706,-0.000631
47.807,63.8940,-0.000631
47.829,63.9193,-0.000631
47.860,63.9543,-0.000631
47.875,63.9722,-0.000631
47.891,63.9890,-0.000631
47.921,64.0226,-0.000631
47.952,64.0560,-0.000631
47.984,64.0889,-0.000659
48.014,64.1192,-0.000659
48.045,64.1504,-0.000659
48.060,64.1670,-0.000659
48.091,64.1952,-0.000659
48.107,64.2116,-0.000659
48.122,64.2254,-0.000659
48.138,64.2400,-0.000659
48.155,64.2547,-0.000659
48.171,64.2702,-0.000659
48.186,64.2835,-0.000659
48.203,64.2977,-0.000659
48.228,64.3197,-0.000772
48.244,64.3331,-0.000772
48.274,64.3582,-0.000772
48.291,64.3718,-0.000772
48.307,64.3844,-0.000772
48.323,64.3972,-0.000772
48.338,64.4090,-0.000772
48.354,64.4215,-0.000772
48.370,64.4334,-0.000772
48.386,64.4452,-0.000772
48.402,64.4567,-0.000772
48.419,64.4684,-0.000772
48.434,64.4794,-0.000772
48.450,64.4905,-0.000772
48.467,64.5015,-0.000913
48.483,64.5125,-0.000913
48.499,64.5227,-0.000913
48.514,64.5326,-0.000913
48.530,64.5427,-0.000913
48.546,64.5527,-0.000913
48.563,64.5629,-0.000913
48.578,64.5718,-0.000913
48.594,64.5811,-0.000913
48.610,64.5902,-0.000913
48.627,64.5993,-0.000913
48.643,64.6080,-0.000913
48.659,64.6167,-0.000913
48.675,64.6249,-0.000913
48.690,64.6331,-0.000913
48.706,64.6411,-0.000913
48.723,64.6490,-0.000913
48.738,64.6561,-0.000913
48.766,64.6692,-0.000988
48.783,64.6761,-0.000988
48.799,64.6829,-0.000988
48.814,64.6895,-0.000988
48.846,64.7022,-0.000988
48.861,64.7079,-0.000988
48.877,64.7137,-0.000988
48.893,64.7194,-0.000988
48.910,64.7250,-0.000988
48.926,64.7303,-0.000988
48.941,64.7354,-0.000988
48.958,64.7406,-0.000988
48.974,64.7451,-0.000988
48.990,64.7495,-0.001092
49.005,64.7538,-0.001092
49.022,64.7581,-0.001092
49.038,64.7619,-0.001092
49.053,64.7655,-0.001092
49.069,64.7691,-0.001092
49.086,64.7727,-0.001092
49.101,64.7757,-0.001092
49.117,64.7787,-0.001092
49.133,64.7814,-0.001092
49.150,64.7841,-0.001092
49.165,64.7864,-0.001092
49.181,64.7886,-0.001092
49.197,64.7906,-0.001092
49.214,64.7924,-0.001092
49.229,64.7941,-0.001308
49.245,64.7955,-0.001308
49.261,64.7967,-0.001308
49.278,64.7978,-0.001308
49.293,64.7985,-0.001308
49.322,64.7996,-0.001308
49.340,64.7999,-0.001308
49.356,64.8000,-0.001308
49.386,64.8000,-0.001308
49.402,64.8000,-0.001308
49.418,64.8000,-0.001308
49.434,64.8000,-0.001308
49.451,64.8000,-0.001308
49.478,64.8000,-0.001497
49.498,64.8000,-0.001497
49.515,64.8000,-0.001497
49.541,64.8000,-0.001497
49.562,64.8000,-0.001497
49.579,64.8000,-0.001497
49.594,64.8000,-0.001497
49.610,64.8000,-0.001497
49.627,64.8000,-0.001497
49.642,64.8000,-0.001497
49.658,64.8000,-0.001497
49.674,64.8000,-0.001497
49.690,64.8000,-0.001497
49.706,64.8000,-0.001497
49.722,64.8000,-0.001487
49.738,64.8000,-0.001487
49.755,64.8000,-0.001487
49.776,64.8000,-0.001487
49.803,64.8000,-0.001487
49.819,64.8000,-0.001487
49.834,64.8000,-0.001487
49.850,64.8000,-0.001487
49.878,64.8000,-0.001487
49.895,64.8000,-0.001487
49.910,64.8000,-0.001487
49.927,64.8000,-0.001487
49.945,64.8000,-0.001487
49.973,64.8000,-0.001393
49.990,64.8000,-0.001393
50.006,64.8000,-0.001393
50.022,64.8000,-0.001393
50.038,64.8000,-0.001393
50.054,64.8000,-0.001393
50.070,64.8000,-0.001393
50.086,64.8000,-0.001393
50.102,64.8000,-0.001393
50.118,64.8000,-0.001393
50.134,64.8000,-0.001393
50.150,64.8000,-0.001393
50.166,64.8000,-0.001393
50.182,64.8000,-0.001393
50.198,64.8000,-0.001393
50.214,64.8000,-0.001318
50.230,64.8000,-0.001318
50.247,64.8000,-0.001318
50.262,64.8000,-0.001318
50.278,64.8000,-0.001318
50.294,64.8000,-0.001318
50.310,64.8000,-0.001318
50.326,64.8000,-0.001318
50.342,64.8000,-0.001318
50.358,64.8000,-0.001318
50.374,64.8000,-0.001318
50.390,64.8000,-0.001318
50.406,64.8000,-0.001318
50.432,64.8000,-0.001318
50.448,64.8000,-0.001318
50.464,64.8000,-0.001261
50.480,64.8000,-0.001261
50.496,64.8000,-0.001261
50.512,64.8000,-0.001261
50.528,64.8000,-0.001261
50.544,64.8000,-0.001261
50.560,64.8000,-0.001261
50.576,64.8000,-0.001261
50.592,64.8000,-0.001261
50.608,64.8000,-0.001261
50.625,64.8000,-0.001261
50.640,64.8000,-0.001261
50.656,64.8000,-0.001261
50.672,64.8000,-0.001261
50.688,64.8000,-0.001261
50.703,64.8000,-0.001261
50.719,64.8000,-0.001280
50.736,64.8000,-0.001280
50.752,64.8000,-0.001280
50.768,64.8000,-0.001280
50.784,64.8000,-0.001280
50.800,64.8000,-0.001280
50.816,64.8000,-0.001280
50.831,64.8000,-0.001280
50.848,64.8000,-0.001280
50.864,64.8000,-0.001280
50.879,64.8000,-0.001280
50.895,64.8000,-0.001280
50.912,64.8000,-0.001280
50.927,64.8000,-0.001280
50.943,64.8000,-0.001280
50.959,64.8000,-0.001280
50.989,64.8000,-0.001280
51.008,64.8000,-0.001280
51.024,64.8000,-0.001280
51.054,64.8000,-0.001280
51.084,64.8000,-0.001280
51.100,64.8000,-0.001280
51.117,64.8000,-0.001280
51.146,64.8000,-0.001280
51.163,64.8000,-0.001280
51.181,64.8000,-0.001280
51.208,64.8000,-0.001290
51.228,64.8000,-0.001290
51.244,64.8000,-0.001290
51.260,64.8000,-0.001290
51.275,64.8000,-0.001290
51.291,64.8000,-0.001290
51.308,64.8000,-0.001290
51.324,64.8000,-0.001290
51.339,64.8000,-0.001290
51.356,64.8000,-0.001290
51.372,64.8000,-0.001290
51.388,64.8000,-0.001290
51.404,64.8000,-0.001290
51.419,64.8000,-0.001290
51.443,64.8000,-0.001290
51.472,64.8000,-0.001290
51.488,64.8000,-0.001290
51.512,64.8000,-0.001318
51.527,64.8000,-0.001318
51.543,64.8000,-0.001318
51.560,64.8000,-0.001318
51.576,64.8000,-0.001318
51.591,64.8000,-0.001318
51.608,64.8000,-0.001318
51.624,64.8000,-0.001318
51.643,64.8000,-0.001318
51.674,64.8000,-0.001318
51.690,64.8000,-0.001318
51.720,64.8000,-0.001271
51.736,64.8000,-0.001271
51.767,64.8000,-0.001271
51.783,64.8000,-0.001271
51.799,64.8000,-0.001271
51.815,64.8000,-0.001271
51.831,64.8000,-0.001271
51.847,64.8000,-0.001271
51.863,64.8000,-0.001271
51.880,64.8000,-0.001271
51.895,64.8000,-0.001271
51.911,64.8000,-0.001271
51.927,64.8000,-0.001271
51.944,64.8000,-0.001271
51.959,64.8000,-0.001224
51.975,64.8000,-0.001224
51.994,64.8000,-0.001224
52.013,64.8000,-0.001224
52.043,64.8000,-0.001224
52.074,64.8000,-0.001224
52.089,64.8000,-0.001224
52.120,64.8000,-0.001224
52.135,64.8000,-0.001224
52.152,64.8000,-0.001224
52.168,64.8000,-0.001224
52.184,64.8000,-0.001224
52.214,64.8000,-0.001261
52.235,64.8000,-0.001261
52.260,64.8000,-0.001261
52.279,64.8000,-0.001261
52.295,64.8000,-0.001261
52.311,64.8000,-0.001261
52.327,64.8000,-0.001261
52.343,64.8000,-0.001261
52.360,64.8000,-0.001261
52.375,64.8000,-0.001261
52.391,64.8000,-0.001261
52.407,64.8000,-0.001261
52.424,64.8000,-0.001261
52.439,64.8000,-0.001261
52.455,64.8000,-0.001261
52.471,64.8000,-0.001261
52.487,64.8000,-0.001356
52.503,64.8000,-0.001356
52.519,64.8000,-0.001356
52.535,64.8000,-0.001356
52.551,64.8000,-0.001356
52.582,64.8000,-0.001356
52.598,64.8000,-0.001356
52.614,64.8000,-0.001356
52.630,64.8000,-0.001356
52.647,64.8000,-0.001356
52.669,64.8000,-0.001356
52.694,64.8000,-0.001356
52.712,64.8000,-0.001356
52.742,64.8000,-0.001308
52.758,64.8000,-0.001308
52.775,64.8000,-0.001308
52.790,64.8000,-0.001308
52.806,64.8000,-0.001308
52.822,64.8000,-0.001308
52.839,64.8000,-0.001308
52.854,64.8000,-0.001308
52.870,64.8000,-0.001308
52.886,64.8000,-0.001308
52.906,64.8000,-0.001308
52.928,64.8000,-0.001308
52.958,64.8000,-0.001308
52.989,64.8000,-0.001233
53.019,64.8000,-0.001233
53.035,64.8000,-0.001233
53.065,64.8000,-0.001233
53.096,64.8000,-0.001233
53.111,64.8000,-0.001233
53.139,64.8000,-0.001233
53.155,64.8000,-0.001233
53.171,64.8000,-0.001233
53.187,64.8000,-0.001233
53.203,64.8000,-0.001233
53.219,64.8000,-0.001233
53.235,64.8000,-0.001243
53.251,64.8000,-0.001243
53.267,64.8000,-0.001243
53.283,64.8000,-0.001243
53.299,64.8000,-0.001243
53.315,64.8000,-0.001243
53.334,64.8000,-0.001243
53.360,64.8000,-0.001243
53.379,64.8000,-0.001243
53.395,64.8000,-0.001243
53.411,64.8000,-0.001243
53.427,64.8000,-0.001243
53.444,64.8000,-0.001243
53.459,64.8000,-0.001243
53.474,64.8000,-0.001243
53.490,64.8000,-0.001243
53.507,64.8000,-0.001243
53.523,64.8000,-0.001243
53.539,64.8000,-0.001243
53.555,64.8000,-0.001243
53.571,64.8000,-0.001243
53.586,64.8000,-0.001243
53.602,64.8000,-0.001243
53.619,64.8000,-0.001243
53.635,64.8000,-0.001243
53.650,64.8000,-0.001243
53.667,64.8000,-0.001243
53.682,64.8000,-0.001243
53.699,64.8000,-0.001243
53.715,64.8000,-0.001243
53.730,64.8000,-0.001243
53.748,64.8000,-0.001243
53.763,64.8000,-0.001243
53.778,64.8000,-0.001243
53.795,64.8000,-0.001243
53.811,64.8000,-0.001243
53.827,64.8000,-0.001243
53.843,64.8000,-0.001243
53.859,64.8000,-0.001243
53.875,64.8000,-0.001243
53.890,64.8000,-0.001243
53.907,64.8000,-0.001243
53.922,64.8000,-0.001243
53.939,64.8000,-0.001243
53.955,64.8000,-0.001243
53.970,64.8000,-0.001177
53.987,64.8000,-0.001177
54.008,64.8000,-0.001177
54.038,64.8000,-0.001177
54.053,64.8000,-0.001177
54.069,64.8000,-0.001177
54.085,64.8000,-0.001177
54.116,64.8000,-0.001177
54.133,64.8000,-0.001177
54.163,64.8000,-0.001177
54.182,64.8000,-0.001177
54.209,64.8000,-0.001177
54.240,64.8000,-0.001186
54.257,64.8000,-0.001186
54.287,64.8000,-0.001186
54.303,64.8000,-0.001186
54.320,64.8000,-0.001186
54.335,64.8000,-0.001186
54.351,64.8000,-0.001186
54.369,64.8000,-0.001186
54.396,64.8000,-0.001186
54.415,64.8000,-0.001186
54.432,64.8000,-0.001186
54.447,64.8000,-0.001186
54.463,64.8000,-0.001271
54.480,64.8000,-0.001271
54.496,64.8000,-0.001271
54.512,64.8000,-0.001271
54.527,64.8000,-0.001271
54.543,64.8000,-0.001271
54.559,64.7998,-0.001271
54.575,64.7994,-0.001271
54.591,64.7988,-0.001271
54.607,64.7979,-0.001271
54.624,64.7969,-0.001271
54.639,64.7957,-0.001271
54.655,64.7943,-0.001271
54.671,64.7928,-0.001271
54.688,64.7910,-0.001271
54.703,64.7890,-0.001308
54.719,64.7869,-0.001308
54.736,64.7844,-0.001308
54.767,64.7791,-0.001308
54.782,64.7763,-0.001308
54.798,64.7733,-0.001308
54.815,64.7700,-0.001308
54.830,64.7665,-0.001308
54.846,64.7628,-0.001308
54.862,64.7587,-0.001308
54.878,64.7549,-0.001308
54.894,64.7504,-0.001308
54.910,64.7462,-0.001308
54.926,64.7414,-0.001308
54.942,64.7365,-0.001308
54.958,64.7314,-0.000132
54.974,64.7263,-0.000132
54.992,64.7201,-0.000132
55.017,64.7113,-0.000132
55.048,64.6994,-0.000132
55.071,64.6905,-0.000132
55.086,64.6841,-0.000132
55.102,64.6774,-0.000132
55.118,64.6702,-0.000132
55.134,64.6631,-0.000132
55.150,64.6558,-0.000132
55.166,64.6482,-0.000132
55.182,64.6405,-0.000132
55.198,64.6325,-0.000132
55.215,64.6237,0.003709
55.230,64.6156,0.003709
55.246,64.6072,0.003709
55.262,64.5987,0.003709
55.279,64.5887,0.003709
55.302,64.5758,0.003709
55.318,64.5664,0.003709
55.334,64.5569,0.003709
55.351,64.5465,0.003709
55.369,64.5350,0.003709
55.400,64.5151,0.003709
55.431,64.4947,0.003709
55.446,64.4842,0.003709
55.462,64.4733,0.010722
55.479,64.4614,0.010722
55.494,64.4504,0.010722
55.510,64.4387,0.010722
55.526,64.4257,0.010722
55.542,64.4145,0.010722
55.558,64.4019,0.010722
55.574,64.3899,0.010722
55.590,64.3765,0.010722
55.606,64.3637,0.010722
55.622,64.3512,0.010722
55.638,64.3378,0.010722
55.655,64.3235,0.010722
55.679,64.3023,0.010722
55.710,64.2756,0.010722
55.725,64.2619,0.010722
55.741,64.2466,0.021679
55.772,64.2185,0.021679
55.788,64.2041,0.021679
55.803,64.1887,0.021679
55.829,64.1643,0.021679
55.845,64.1478,0.021679
55.861,64.1319,0.021679
55.877,64.1160,0.021679
55.893,64.0995,0.021679
55.909,64.0825,0.021679
55.925,64.0662,0.021679
55.941,64.0492,0.021679
55.958,64.0307,0.021679
55.987,63.9992,0.037662
56.005,63.9795,0.037662
56.021,63.9609,0.037662
56.037,63.9438,0.037662
56.053,63.9250,0.037662
56.069,63.9070,0.037662
56.085,63.8877,0.037662
56.101,63.8691,0.037662
56.117,63.8502,0.037662
56.133,63.8313,0.037662
56.149,63.8115,0.037662
56.165,63.7921,0.037662
56.181,63.7722,0.037662
56.197,63.7516,0.037662
56.213,63.7316,0.037662
56.229,63.7111,0.060414
56.245,63.6906,0.060414
56.261,63.6694,0.060414
56.277,63.6480,0.060414
56.292,63.6275,0.060414
56.309,63.6059,0.060414
56.325,63.5845,0.060414
56.352,63.5475,0.060414
56.369,63.5247,0.060414
56.384,63.5027,0.060414
56.399,63.4807,0.060414
56.416,63.4581,0.060414
56.431,63.4356,0.060414
56.447,63.4126,0.060414
56.464,63.3884,0.060414
56.480,63.3651,0.077885
56.496,63.3416,0.077885
56.512,63.3174,0.077885
56.528,63.2926,0.077885
56.544,63.2697,0.077885
56.560,63.2445,0.077885
56.576,63.2202,0.077885
56.591,63.1956,0.077885
56.608,63.1698,0.077885
56.624,63.1449,0.077885
56.640,63.1195,0.077885
56.656,63.0938,0.077885
56.672,63.0675,0.077885
56.688,63.0412,0.077885
56.705,63.0136,0.077885
56.734,62.9653,0.040731
56.751,62.9368,0.040731
56.767,62.9098,0.040731
56.783,62.8822,0.040731
56.799,62.8553,0.040731
56.815,62.8280,0.040731
56.837,62.7886,0.040731
56.858,62.7524,0.040731
56.879,62.7158,0.040731
56.896,62.6854,0.040731
56.912,62.6568,0.040731
56.935,62.6151,0.040731
56.966,62.5582,0.040731
56.997,62.5012,0.040731
57.029,62.4398,-0.000442
57.060,62.3825,-0.000442
57.076,62.3515,-0.000442
57.107,62.2915,-0.000442
57.123,62.2615,-0.000442
57.155,62.1965,-0.000442
57.185,62.1371,-0.000442
57.217,62.0695,-0.000442
57.246,62.0121,-0.000301
57.266,61.9729,-0.000301
57.293,61.9152,-0.000301
57.311,61.8779,-0.000301
57.329,61.8397,-0.000301
57.354,61.7866,-0.000301
57.375,61.7420,-0.000301
57.391,61.7082,-0.000301
57.407,61.6743,-0.000301
57.423,61.6405,-0.000301
57.439,61.6073,-0.000301
57.455,61.5739,-0.000301
57.471,61.5412,-0.000329
57.487,61.5079,-0.000329
57.503,61.4756,-0.000329
57.519,61.4420,-0.000329
57.535,61.4117,-0.000329
57.551,61.3791,-0.000329
57.567,61.3473,-0.000329
57.583,61.3161,-0.000329
57.599,61.2848,-0.000329
57.616,61.2508,-0.000329
57.633,61.2186,-0.000329
57.649,61.1882,-0.000329
57.664,61.1600,-0.000329
57.680,61.1278,-0.000329
57.699,61.0917,-0.000329
57.726,61.0417,-0.000329
57.743,61.0106,-0.000508
57.760,60.9774,-0.000508
57.779,60.9445,-0.000508
57.802,60.9018,-0.000508
57.823,60.8650,-0.000508
57.839,60.8357,-0.000508
57.855,60.8083,-0.000508
57.871,60.7799,-0.000508
57.887,60.7515,-0.000508
57.904,60.7234,-0.000508
57.919,60.6967,-0.000508
57.935,60.6693,-0.000508
57.951,60.6410,-0.000508
57.967,60.6150,-0.000659
57.983,60.5884,-0.000659
57.999,60.5613,-0.000659
58.015,60.5347,-0.000659
58.032,60.5079,-0.000659
58.047,60.4813,-0.000659
58.063,60.4577,-0.000659
58.079,60.4305,-0.000659
58.095,60.4051,-0.000659
58.111,60.3806,-0.000659
58.127,60.3555,-0.000659
58.143,60.3302,-0.000659
58.159,60.3066,-0.000659
58.176,60.2801,-0.000659
58.191,60.2573,-0.000659
58.207,60.2333,-0.000697
58.223,60.2099,-0.000697
58.239,60.1857,-0.000697
58.255,60.1625,-0.000697
58.271,60.1390,-0.000697
58.287,60.1165,-0.000697
58.303,60.0925,-0.000697
58.319,60.0700,-0.000697
58.335,60.0484,-0.000697
58.351,60.0259,-0.000697
58.367,60.0030,-0.000697
58.383,59.9820,-0.000697
58.399,59.9601,-0.000697
58.415,59.9385,-0.000697
58.431,59.9171,-0.000697
58.447,59.8959,-0.000697
58.478,59.8550,-0.000631
58.494,59.8350,-0.000631
58.510,59.8146,-0.000631
58.526,59.7941,-0.000631
58.542,59.7741,-0.000631
58.558,59.7537,-0.000631
58.574,59.7342,-0.000631
58.590,59.7148,-0.000631
58.607,59.6943,-0.000631
58.636,59.6600,-0.000631
58.654,59.6393,-0.000631
58.671,59.6198,-0.000631
58.686,59.6026,-0.000631
58.702,59.5843,-0.000631
58.718,59.5671,-0.000593
58.734,59.5486,-0.000593
58.750,59.5316,-0.000593
58.765,59.5148,-0.000593
58.782,59.4964,-0.000593
58.798,59.4803,-0.000593
58.814,59.4632,-0.000593
58.831,59.4458,-0.000593
58.846,59.4304,-0.000593
58.862,59.4143,-0.000593
58.878,59.3984,-0.000593
58.894,59.3827,-0.000593
58.910,59.3673,-0.000593
58.926,59.3519,-0.000593
58.941,59.3370,-0.000593
58.958,59.3208,-0.000593
58.982,59.2997,-0.000593
59.008,59.2758,-0.000621
59.038,59.2493,-0.000621
59.054,59.2356,-0.000621
59.069,59.2228,-0.000621
59.085,59.2100,-0.000621
59.104,59.1942,-0.000621
59.132,59.1715,-0.000621
59.149,59.1581,-0.000621
59.166,59.1443,-0.000621
59.193,59.1236,-0.000621
59.213,59.1087,-0.000593
59.230,59.0969,-0.000593
59.256,59.0782,-0.000593
59.278,59.0631,-0.000593
59.293,59.0521,-0.000593
59.309,59.0421,-0.000593
59.325,59.0314,-0.000593
59.341,59.0203,-0.000593
59.357,59.0108,-0.000593
59.373,59.0009,-0.000593
59.389,58.9913,-0.000593
59.405,58.9812,-0.000593
59.420,58.9723,-0.000593
59.437,58.9630,-0.000593
59.453,58.9539,-0.000593
59.468,58.9454,-0.000593
59.484,58.9367,-0.000499
59.501,58.9282,-0.000499
59.517,58.9201,-0.000499
59.533,58.9120,-0.000499
59.549,58.9039,-0.000499
59.579,58.8899,-0.000499
59.595,58.8826,-0.000499
59.610,58.8755,-0.000499
59.627,58.8690,-0.000499
59.643,58.8620,-0.000499
59.659,58.8557,-0.000499
59.675,58.8491,-0.000499
59.690,58.8433,-0.000499
59.707,58.8372,-0.000499
59.723,58.8315,-0.000499
59.739,58.8259,-0.000433
59.754,58.8208,-0.000433
59.771,58.8156,-0.000433
59.787,58.8103,-0.000433
59.803,58.8057,-0.000433
59.829,58.7984,-0.000433
59.851,58.7927,-0.000433
59.866,58.7890,-0.000433
59.883,58.7850,-0.000433
59.899,58.7814,-0.000433
59.914,58.7782,-0.000433
59.930,58.7750,-0.000433
59.947,58.7719,-0.000433
59.962,58.7691,-0.000433
59.978,58.7665,-0.000414
59.994,58.7640,-0.000414
60.011,58.7618,-0.000414
60.027,58.7597,-0.000414
60.043,58.7578,-0.000414
60.059,58.7562,-0.000414
60.076,58.7547,-0.000414
60.105,58.7525,-0.000414
60.134,58.7510,-0.000414
60.149,58.7505,-0.000414
60.166,58.7502,-0.000414
60.182,58.7500,-0.000414
60.200,58.7500,-0.000414
60.215,58.7500,-0.000414
60.244,58.7500,-0.000395
60.263,58.7500,-0.000395
60.291,58.7500,-0.000395
60.309,58.7500,-0.000395
60.326,58.7503,-0.000395
60.341,58.7506,-0.000395
60.358,58.7513,-0.000395
60.373,58.7520,-0.000395
60.392,58.7533,-0.000395
60.414,58.7550,-0.000395
60.445,58.7581,-0.000395
60.476,58.7617,-0.000348
60.491,58.7639,-0.000348
60.524,58.7690,-0.000348
60.554,58.7745,-0.000348
60.570,58.7778,-0.000348
60.586,58.7810,-0.000348
60.601,58.7844,-0.000348
60.616,58.7880,-0.000348
60.648,58.7958,-0.000348
60.663,58.8000,-0.000348
60.691,58.8081,-0.000348
60.707,58.8129,-0.000348
60.723,58.8177,-0.000311
60.739,58.8232,-0.000311
60.755,58.8285,-0.000311
60.772,58.8346,-0.000311
60.787,58.8401,-0.000311
60.803,58.8458,-0.000311
60.821,58.8527,-0.000311
60.850,58.8646,-0.000311
60.867,58.8718,-0.000311
60.885,58.8796,-0.000311
60.912,58.8917,-0.000311
60.931,58.9007,-0.000311
60.949,58.9096,-0.000311
60.974,58.9218,-0.000311
60.989,58.9297,-0.000414
61.005,58.9385,-0.000414
61.027,58.9502,-0.000414
61.043,58.9589,-0.000414
61.059,58.9683,-0.000414
61.076,58.9776,-0.000414
61.091,58.9869,-0.000414
61.107,58.9965,-0.000414
61.123,59.0065,-0.000414
61.139,59.0170,-0.000414
61.155,59.0266,-0.000414
61.171,59.0370,-0.000414
61.188,59.0488,-0.000414
61.212,59.0648,-0.000414
61.228,59.0763,-0.000414
61.244,59.0872,-0.000537
61.260,59.0992,-0.000537
61.276,59.1106,-0.000537
61.292,59.1225,-0.000537
61.308,59.1344,-0.000537
61.324,59.1471,-0.000537
61.340,59.1593,-0.000537
61.356,59.1721,-0.000537
61.372,59.1849,-0.000537
61.388,59.1984,-0.000537
61.404,59.2118,-0.000537
61.420,59.2252,-0.000537
61.438,59.2402,-0.000537
61.467,59.2655,-0.000565
61.484,59.2806,-0.000565
61.500,59.2949,-0.000565
61.517,59.3101,-0.000565
61.532,59.3243,-0.000565
61.549,59.3405,-0.000565
61.564,59.3548,-0.000565
61.580,59.3701,-0.000565
61.596,59.3860,-0.000565
61.612,59.4021,-0.000565
61.628,59.4174,-0.000565
61.644,59.4336,-0.000565
61.660,59.4498,-0.000565
61.676,59.4664,-0.000565
61.692,59.4836,-0.000565
61.708,59.5002,-0.000565
61.724,59.5177,-0.000565
61.745,59.5412,-0.000565
61.762,59.5592,-0.000565
61.777,59.5755,-0.000565
61.793,59.5939,-0.000565
61.809,59.6131,-0.000565
61.825,59.6302,-0.000565
61.841,59.6488,-0.000565
61.857,59.6673,-0.000565
61.876,59.6909,-0.000565
61.899,59.7184,-0.000565
61.921,59.7449,-0.000565
61.937,59.7645,-0.000565
61.953,59.7845,-0.000593
61.969,59.8039,-0.000593
61.985,59.8242,-0.000593
62.001,59.8455,-0.000593
62.017,59.8655,-0.000593
62.033,59.8871,-0.000593
62.049,59.9074,-0.000593
62.065,59.9296,-0.000593
62.081,59.9501,-0.000593
62.097,59.9718,-0.000593
62.114,59.9956,-0.000593
62.129,60.0167,-0.000593
62.145,60.0385,-0.000593
62.161,60.0610,-0.000593
62.177,60.0835,-0.000593
62.193,60.1067,-0.000593
62.209,60.1292,-0.000640
62.225,60.1524,-0.000640
62.241,60.1770,-0.000640
62.257,60.2001,-0.000640
62.274,60.2240,-0.000640
62.299,60.2630,-0.000640
62.316,60.2873,-0.000640
62.333,60.3152,-0.000640
62.349,60.3398,-0.000640
62.365,60.3646,-0.000640
62.380,60.3884,-0.000640
62.396,60.4129,-0.000640
62.419,60.4505,-0.000640
62.442,60.4870,-0.000640
62.459,60.5146,-0.000640
62.475,60.5399,-0.000668
62.491,60.5668,-0.000668
62.507,60.5940,-0.000668
62.523,60.6198,-0.000668
62.543,60.6545,-0.000668
62.565,60.6911,-0.000668
62.595,60.7442,-0.000668
62.625,60.7959,-0.000668
62.655,60.8500,-0.000668
62.671,60.8780,-0.000668
62.701,60.9342,-0.000668
62.717,60.9602,-0.000668
62.732,60.9896,-0.000668
62.763,61.0466,-0.000715
62.782,61.0810,-0.000715
62.808,61.1316,-0.000715
62.840,61.1912,-0.000715
62.856,61.2231,-0.000715
62.871,61.2529,-0.000715
62.887,61.2836,-0.000715
62.904,61.3178,-0.000715
62.919,61.3471,-0.000715
62.936,61.3798,-0.000715
62.951,61.4107,-0.000715
62.973,61.4544,-0.000715
62.994,61.4975,-0.000715
63.010,61.5310,-0.000725
63.031,61.5752,-0.000725
63.048,61.6081,-0.000725
63.063,61.6400,-0.000725
63.079,61.6743,-0.000725
63.096,61.7095,-0.000725
63.119,61.7569,-0.000725
63.134,61.7916,-0.000725
63.152,61.8267,-0.000725
63.181,61.8891,-0.000725
63.197,61.9234,-0.000725
63.213,61.9550,-0.000725
63.230,61.9887,-0.000725
63.260,62.0513,-0.000640
63.275,62.0815,-0.000640
63.291,62.1134,-0.000640
63.307,62.1447,-0.000640
63.323,62.1772,-0.000640
63.354,62.2377,-0.000640
63.385,62.2975,-0.000640
63.401,62.3291,-0.000640
63.431,62.3855,-0.000640
63.448,62.4168,-0.000640
63.464,62.4475,-0.000640
63.493,62.5004,-0.000424
63.511,62.5344,-0.000424
63.528,62.5647,-0.000424
63.544,62.5931,-0.000424
63.559,62.6210,-0.000424
63.575,62.6499,-0.000424
63.592,62.6791,-0.000424
63.608,62.7072,-0.000424
63.623,62.7344,-0.000424
63.639,62.7624,-0.000424
63.655,62.7901,-0.000424
63.672,62.8182,-0.000424
63.688,62.8455,-0.000424
63.704,62.8726,-0.000424
63.719,62.8990,-0.000424
63.736,62.9261,-0.000339
63.751,62.9518,-0.000339
63.767,62.9781,-0.000339
63.783,63.0043,-0.000339
63.800,63.0311,-0.000339
63.815,63.0557,-0.000339
63.832,63.0832,-0.000339
63.850,63.1124,-0.000339
63.879,63.1571,-0.000339
63.905,63.1975,-0.000339
63.922,63.2231,-0.000339
63.938,63.2461,-0.000339
63.953,63.2709,-0.000339
63.971,63.2968,-0.000339
63.988,63.3212,-0.000339
64.003,63.3437,-0.000424
64.034,63.3886,-0.000424
64.049,63.4102,-0.000424
64.065,63.4328,-0.000424
64.082,63.4558,-0.000424
64.098,63.4779,-0.000424
64.114,63.5002,-0.000424
64.130,63.5233,-0.000424
64.147,63.5460,-0.000424
64.173,63.5800,-0.000424
64.193,63.6072,-0.000424
64.209,63.6286,-0.000424
64.225,63.6502,-0.000424
64.241,63.6692,-0.000565
64.257,63.6901,-0.000565
64.273,63.7102,-0.000565
64.289,63.7299,-0.000565
64.305,63.7495,-0.000565
64.321,63.7698,-0.000565
64.337,63.7891,-0.000565
64.353,63.8080,-0.000565
64.369,63.8273,-0.000565
64.385,63.8460,-0.000565
64.401,63.8649,-0.000565
64.417,63.8826,-0.000565
64.433,63.9008,-0.000565
64.456,63.9273,-0.000565
64.472,63.9447,-0.000565
64.488,63.9625,-0.000706
64.504,63.9795,-0.000706
64.520,63.9976,-0.000706
64.536,64.0143,-0.000706
64.552,64.0303,-0.000706
64.568,64.0469,-0.000706
64.585,64.0647,-0.000706
64.600,64.0802,-0.000706
64.616,64.0958,-0.000706
64.632,64.1116,-0.000706
64.648,64.1274,-0.000706
64.664,64.1427,-0.000706
64.680,64.1582,-0.000706
64.696,64.1730,-0.000706
64.712,64.1878,-0.000706
64.728,64.2026,-0.000791
64.745,64.2178,-0.000791
64.761,64.2324,-0.000791
64.776,64.2458,-0.000791
64.792,64.2591,-0.000791
64.808,64.2729,-0.000791
64.825,64.2869,-0.000791
64.840,64.3001,-0.000791
64.856,64.3132,-0.000791
64.872,64.3260,-0.000791
64.888,64.3384,-0.000791
64.904,64.3508,-0.000791
64.920,64.3636,-0.000791
64.936,64.3754,-0.000791
64.952,64.3875,-0.000791
64.968,64.3990,-0.000791
64.984,64.4106,-0.000791
65.008,64.4278,-0.000857
65.023,64.4381,-0.000857
65.039,64.4494,-0.000857
65.055,64.4597,-0.000857
65.073,64.4714,-0.000857
65.102,64.4903,-0.000857
65.119,64.5005,-0.000857
65.135,64.5105,-0.000857
65.151,64.5200,-0.000857
65.167,64.5294,-0.000857
65.183,64.5382,-0.000857
65.200,64.5476,-0.000857
65.215,64.5563,-0.000857
65.231,64.5644,-0.000904
65.248,64.5735,-0.000904
65.265,64.5824,-0.000904
65.281,64.5908,-0.000904
65.301,64.6001,-0.000904
65.318,64.6078,-0.000904
65.348,64.6215,-0.000904
65.378,64.6343,-0.000904
65.409,64.6473,-0.000904
65.425,64.6533,-0.000904
65.441,64.6592,-0.000904
65.457,64.6651,-0.000904
65.488,64.6761,-0.000960
65.519,64.6858,-0.000960
65.535,64.6906,-0.000960
65.562,64.6989,-0.000960
65.579,64.7032,-0.000960
65.595,64.7072,-0.000960
65.610,64.7112,-0.000960
65.628,64.7152,-0.000960
65.657,64.7216,-0.000960
65.675,64.7251,-0.000960
65.691,64.7283,-0.000960
65.706,64.7309,-0.000960
65.723,64.7337,-0.001083
65.739,64.7360,-0.001083
65.755,64.7384,-0.001083
65.770,64.7404,-0.001083
65.786,64.7421,-0.001083
65.803,64.7438,-0.001083
65.819,64.7453,-0.001083
65.835,64.7466,-0.001083
65.850,64.7476,-0.001083
65.866,64.7484,-0.001083
65.882,64.7492,-0.001083
65.898,64.7497,-0.001083
65.914,64.7499,-0.001083
65.931,64.7500,-0.001083
65.947,64.7500,-0.001083
65.963,64.7500,-0.001412
65.979,64.7500,-0.001412
65.994,64.7500,-0.001412
66.012,64.7500,-0.001412
66.043,64.7500,-0.001412
66.060,64.7500,-0.001412
66.089,64.7500,-0.001412
66.117,64.7500,-0.001412
66.133,64.7500,-0.001412
66.149,64.7500,-0.001412
66.164,64.7500,-0.001412
66.181,64.7500,-0.001412
66.197,64.7500,-0.001412
66.212,64.7500,-0.001694
66.230,64.7500,-0.001694
66.246,64.7500,-0.001694
66.275,64.7500,-0.001694
66.292,64.7500,-0.001694
66.309,64.7500,-0.001694
66.324,64.7500,-0.001694
66.341,64.7500,-0.001694
66.357,64.7500,-0.001694
66.372,64.7500,-0.001694
66.389,64.7500,-0.001694
66.414,64.7500,-0.001694
66.430,64.7500,-0.001694
66.460,64.7500,-0.001694
66.491,64.7500,-0.001741
66.522,64.7500,-0.001741
66.552,64.7500,-0.001741
66.568,64.7500,-0.001741
66.599,64.7500,-0.001741
66.615,64.7500,-0.001741
66.631,64.7500,-0.001741
66.662,64.7500,-0.001741
66.678,64.7500,-0.001741
66.693,64.7500,-0.001741
66.723,64.7500,-0.001741
66.741,64.7500,-0.001741
66.757,64.7500,-0.001741
66.773,64.7500,-0.001741
66.789,64.7500,-0.001741
66.806,64.7500,-0.001741
66.832,64.7500,-0.001741
66.853,64.7500,-0.001741
66.869,64.7500,-0.001741
66.885,64.7500,-0.001741
66.910,64.7500,-0.001741
66.926,64.7500,-0.001741
66.942,64.7500,-0.001741
66.973,64.7500,-0.001685
66.988,64.7500,-0.001685
67.004,64.7500,-0.001685
67.035,64.7500,-0.001685
67.066,64.7500,-0.001685
67.097,64.7500,-0.001685
67.113,64.7500,-0.001685
67.128,64.7500,-0.001685
67.144,64.7500,-0.001685
67.174,64.7500,-0.001685
67.198,64.7500,-0.001685
67.214,64.7500,-0.001685
67.230,64.7500,-0.001600
67.246,64.7500,-0.001600
67.262,64.7500,-0.001600
67.278,64.7500,-0.001600
67.294,64.7500,-0.001600
67.310,64.7500,-0.001600
67.326,64.7500,-0.001600
67.342,64.7500,-0.001600
67.358,64.7500,-0.001600
67.376,64.7500,-0.001600
67.405,64.7500,-0.001600
67.422,64.7500,-0.001600
67.439,64.7500,-0.001600
67.454,64.7500,-0.001600
67.470,64.7500,-0.001591
67.486,64.7500,-0.001591
67.502,64.7500,-0.001591
67.518,64.7500,-0.001591
67.534,64.7500,-0.001591
67.551,64.7500,-0.001591
67.568,64.7500,-0.001591
67.590,64.7500,-0.001591
67.607,64.7500,-0.001591
67.622,64.7500,-0.001591
67.638,64.7500,-0.001591
67.653,64.7500,-0.001591
67.684,64.7500,-0.001591
67.714,64.7500,-0.001591
67.729,64.7500,-0.001591
67.753,64.7500,-0.001572
67.769,64.7500,-0.001572
67.785,64.7500,-0.001572
67.801,64.7500,-0.001572
67.818,64.7500,-0.001572
67.833,64.7500,-0.001572
67.849,64.7500,-0.001572
67.865,64.7500,-0.001572
67.881,64.7500,-0.001572
67.897,64.7500,-0.001572
67.913,64.7500,-0.001572
67.929,64.7500,-0.001572
67.945,64.7500,-0.001572
67.961,64.7500,-0.001544
67.977,64.7500,-0.001544
67.994,64.7500,-0.001544
68.023,64.7500,-0.001544
68.041,64.7500,-0.001544
68.057,64.7500,-0.001544
68.073,64.7500,-0.001544
68.089,64.7500,-0.001544
68.106,64.7500,-0.001544
68.126,64.7500,-0.001544
68.148,64.7500,-0.001544
68.169,64.7500,-0.001544
68.185,64.7500,-0.001544
68.201,64.7500,-0.001544
68.217,64.7500,-0.001563
68.233,64.7500,-0.001563
68.249,64.7500,-0.001563
68.265,64.7500,-0.001563
68.281,64.7500,-0.001563
68.302,64.7500,-0.001563
68.318,64.7500,-0.001563
68.334,64.7500,-0.001563
68.350,64.7500,-0.001563
68.368,64.7500,-0.001563
68.395,64.7500,-0.001563
68.414,64.7500,-0.001563
68.430,64.7500,-0.001563
68.446,64.7500,-0.001563
68.462,64.7500,-0.001563
68.479,64.7500,-0.001563
68.494,64.7500,-0.001563
68.511,64.7500,-0.001563
68.535,64.7500,-0.001563
68.550,64.7500,-0.001563
68.582,64.7500,-0.001563
68.612,64.7500,-0.001563
68.628,64.7500,-0.001563
68.644,64.7500,-0.001563
68.659,64.7500,-0.001563
68.675,64.7500,-0.001563
68.691,64.7500,-0.001563
68.722,64.7500,-0.001544
68.738,64.7500,-0.001544
68.768,64.7500,-0.001544
68.799,64.7500,-0.001544
68.829,64.7500,-0.001544
68.845,64.7500,-0.001544
68.862,64.7500,-0.001544
68.877,64.7500,-0.001544
68.893,64.7500,-0.001544
68.910,64.7500,-0.001544
68.926,64.7500,-0.001544
68.942,64.7500,-0.001544
68.957,64.7500,-0.001497
68.975,64.7500,-0.001497
68.990,64.7500,-0.001497
69.005,64.7500,-0.001497
69.021,64.7500,-0.001497
69.038,64.7500,-0.001497
69.054,64.7500,-0.001497
69.069,64.7500,-0.001497
69.086,64.7500,-0.001497
69.101,64.7500,-0.001497
69.118,64.7500,-0.001497
69.133,64.7500,-0.001497
69.150,64.7500,-0.001497
69.166,64.7500,-0.001497
69.181,64.7500,-0.001497
69.198,64.7500,-0.001497
69.213,64.7500,-0.001468
69.230,64.7500,-0.001468
69.246,64.7500,-0.001468
69.261,64.7500,-0.001468
69.277,64.7500,-0.001468
69.294,64.7500,-0.001468
69.310,64.7500,-0.001468
69.325,64.7500,-0.001468
69.352,64.7500,-0.001468
69.368,64.7500,-0.001468
69.383,64.7500,-0.001468
69.400,64.7500,-0.001468
69.415,64.7500,-0.001468
69.431,64.7500,-0.001468
69.447,64.7500,-0.001468
69.463,64.7500,-0.001421
69.479,64.7500,-0.001421
69.495,64.7500,-0.001421
69.511,64.7500,-0.001421
69.527,64.7500,-0.001421
69.544,64.7500,-0.001421
69.559,64.7500,-0.001421
69.576,64.7500,-0.001421
69.592,64.7500,-0.001421
69.608,64.7500,-0.001421
69.623,64.7500,-0.001421
69.640,64.7500,-0.001421
69.656,64.7500,-0.001421
69.672,64.7500,-0.001421
69.687,64.7500,-0.001421
69.704,64.7500,-0.001421
69.730,64.7500,-0.001421
69.751,64.7500,-0.001431
69.767,64.7500,-0.001431
69.783,64.7500,-0.001431
69.799,64.7500,-0.001431
69.815,64.7500,-0.001431
69.831,64.7500,-0.001431
69.848,64.7500,-0.001431
69.864,64.7500,-0.001431
69.893,64.7500,-0.001431
69.909,64.7500,-0.001431
69.925,64.7500,-0.001431
69.941,64.7500,-0.001431
69.961,64.7500,-0.001431
69.976,64.7500,-0.001431
70.003,64.7500,-0.001431
70.021,64.7500,-0.001431
70.038,64.7500,-0.001431
70.053,64.7500,-0.001431
70.069,64.7500,-0.001431
70.085,64.7500,-0.001431
70.102,64.7500,-0.001431
70.126,64.7500,-0.001431
70.142,64.7500,-0.001431
70.172,64.7500,-0.001431
70.202,64.7500,-0.001431
70.218,64.7500,-0.001431
70.249,64.7500,-0.001412
70.280,64.7500,-0.001412
70.296,64.7500,-0.001412
70.312,64.7500,-0.001412
70.342,64.7500,-0.001412
70.358,64.7500,-0.001412
70.374,64.7500,-0.001412
70.390,64.7500,-0.001412
70.405,64.7500,-0.001412
70.421,64.7500,-0.001412
70.449,64.7500,-0.001412
70.467,64.7500,-0.001412
70.497,64.7500,-0.001384
70.513,64.7500,-0.001384
70.543,64.7500,-0.001384
70.560,64.7500,-0.001384
70.576,64.7500,-0.001384
70.592,64.7500,-0.001384
70.608,64.7500,-0.001384
70.624,64.7500,-0.001384
70.640,64.7500,-0.001384
70.656,64.7500,-0.001384
70.672,64.7500,-0.001384
70.688,64.7500,-0.001384
70.704,64.7500,-0.001384
70.720,64.7500,-0.001403
70.736,64.7500,-0.001403
70.752,64.7500,-0.001403
70.768,64.7500,-0.001403
70.784,64.7500,-0.001403
70.801,64.7500,-0.001403
70.816,64.7500,-0.001403
70.832,64.7500,-0.001403
70.848,64.7500,-0.001403
70.864,64.7500,-0.001403
70.884,64.7500,-0.001403
70.912,64.7500,-0.001403
70.928,64.7500,-0.001403
70.945,64.7500,-0.001403
70.975,64.7500,-0.001403
71.002,64.7500,-0.001431
71.018,64.7500,-0.001431
71.034,64.7500,-0.001431
71.050,64.7500,-0.001431
71.066,64.7500,-0.001431
71.082,64.7500,-0.001431
71.098,64.7500,-0.001431
71.113,64.7500,-0.001431
71.137,64.7500,-0.001431
71.161,64.7500,-0.001431
71.178,64.7500,-0.001431
71.194,64.7500,-0.001431
71.210,64.7500,-0.001431
71.226,64.7500,-0.001487
71.242,64.7500,-0.001487
71.262,64.7500,-0.001487
71.284,64.7500,-0.001487
71.306,64.7500,-0.001487
71.322,64.7500,-0.001487
71.338,64.7500,-0.001487
71.354,64.7500,-0.001487
71.370,64.7499,-0.001487
71.387,64.7497,-0.001487
71.402,64.7493,-0.001487
71.418,64.7487,-0.001487
71.433,64.7478,-0.001487
71.450,64.7468,-0.001487
71.466,64.7456,-0.001544
71.483,64.7441,-0.001544
71.498,64.7426,-0.001544
71.521,64.7399,-0.001544
71.537,64.7379,-0.001544
71.553,64.7355,-0.001544
71.569,64.7332,-0.001544
71.585,64.7304,-0.001544
71.601,64.7276,-0.001544
71.618,64.7244,-0.001544
71.639,64.7198,-0.001544
71.669,64.7131,-0.001544
71.700,64.7053,-0.001544
71.716,64.7014,-0.000913
71.731,64.6968,-0.000913
71.747,64.6925,-0.000913
71.762,64.6879,-0.000913
71.778,64.6829,-0.000913
71.794,64.6777,-0.000913
71.809,64.6726,-0.000913
71.840,64.6615,-0.000913
71.859,64.6545,-0.000913
71.888,64.6435,-0.000913
71.905,64.6366,-0.000913
71.921,64.6297,-0.000913
71.937,64.6228,-0.000913
71.952,64.6160,-0.000913
71.968,64.6086,0.001986
71.984,64.6011,0.001986
72.001,64.5931,0.001986
72.016,64.5856,0.001986
72.049,64.5688,0.001986
72.073,64.5554,0.001986
72.096,64.5435,0.001986
72.112,64.5344,0.001986
72.128,64.5253,0.001986
72.144,64.5159,0.001986
72.159,64.5065,0.001986
72.176,64.4964,0.001986
72.191,64.4867,0.001986
72.208,64.4762,0.008058
72.224,64.4654,0.008058
72.240,64.4546,0.008058
72.260,64.4411,0.008058
72.291,64.4196,0.008058
72.306,64.4091,0.008058
72.322,64.3971,0.008058
72.338,64.3858,0.008058
72.354,64.3737,0.008058
72.370,64.3617,0.008058
72.386,64.3487,0.008058
72.402,64.3368,0.008058
72.432,64.3125,0.008058
72.448,64.3000,0.008058
72.464,64.2857,0.008058
72.494,64.2608,0.017838
72.512,64.2455,0.017838
72.528,64.2312,0.017838
72.543,64.2175,0.017838
72.560,64.2027,0.017838
72.584,64.1806,0.017838
72.600,64.1656,0.017838
72.616,64.1504,0.017838
72.632,64.1351,0.017838
72.648,64.1197,0.017838
72.663,64.1044,0.017838
72.680,64.0881,0.017838
72.696,64.0715,0.017838
72.711,64.0561,0.017838
72.728,64.0393,0.017838
72.743,64.0231,0.032541
72.760,64.0047,0.032541
72.776,63.9884,0.032541
72.792,63.9712,0.032541
72.809,63.9524,0.032541
72.836,63.9217,0.032541
72.856,63.9005,0.032541
72.871,63.8822,0.032541
72.887,63.8641,0.032541
72.903,63.8450,0.032541
72.919,63.8267,0.032541
72.935,63.8077,0.032541
72.951,63.7886,0.032541
72.967,63.7684,0.032541
72.983,63.7487,0.053138
72.999,63.7292,0.053138
73.015,63.7095,0.053138
73.032,63.6888,0.053138
73.047,63.6690,0.053138
73.063,63.6486,0.053138
73.079,63.6280,0.053138
73.106,63.5919,0.053138
73.122,63.5706,0.053138
73.138,63.5491,0.053138
73.154,63.5278,0.053138
73.170,63.5063,0.053138
73.187,63.4829,0.053138
73.202,63.4618,0.053138
73.219,63.4385,0.053138
73.234,63.4160,0.081575
73.250,63.3935,0.081575
73.266,63.3708,0.081575
73.282,63.3476,0.081575
73.298,63.3239,0.081575
73.314,63.3008,0.081575
73.331,63.2751,0.081575
73.347,63.2522,0.081575
73.362,63.2284,0.081575
73.379,63.2022,0.081575
73.395,63.1779,0.081575
73.411,63.1540,0.081575
73.440,63.1081,0.081575
73.464,63.0695,0.081575
73.486,63.0344,0.081575
73.507,63.0004,0.074534
73.523,62.9745,0.074534
73.538,62.9487,0.074534
73.554,62.9237,0.074534
73.570,62.8970,0.074534
73.586,62.8687,0.074534
73.602,62.8413,0.074534
73.618,62.8159,0.074534
73.641,62.7757,0.074534
73.657,62.7474,0.074534
73.673,62.7200,0.074534
73.689,62.6924,0.074534
73.706,62.6627,0.074534
73.721,62.6357,0.074534
73.737,62.6057,0.025237
73.753,62.5780,0.025237
73.769,62.5477,0.025237
73.785,62.5184,0.025237
73.801,62.4901,0.025237
73.817,62.4604,0.025237
73.833,62.4287,0.025237
73.849,62.4004,0.025237
73.865,62.3704,0.025237
73.881,62.3378,0.025237
73.902,62.2986,0.025237
73.919,62.2656,0.025237
73.950,62.2059,0.025237
73.966,62.1744,0.025237
73.996,62.1130,-0.000395
74.017,62.0696,-0.000395
74.043,62.0184,-0.000395
74.059,61.9877,-0.000395
74.090,61.9220,-0.000395
74.121,61.8582,-0.000395
74.145,61.8088,-0.000395
74.167,61.7626,-0.000395
74.185,61.7236,-0.000395
74.201,61.6890,-0.000395
74.217,61.6553,-0.000395
74.233,61.6225,-0.000292
74.249,61.5886,-0.000292
74.265,61.5542,-0.000292
74.281,61.5215,-0.000292
74.297,61.4895,-0.000292
74.313,61.4555,-0.000292
74.329,61.4227,-0.000292
74.345,61.3910,-0.000292
74.361,61.3591,-0.000292
74.377,61.3267,-0.000292
74.393,61.2937,-0.000292
74.409,61.2637,-0.000292
74.425,61.2319,-0.000292
74.441,61.2005,-0.000292
74.457,61.1691,-0.000292
74.473,61.1393,-0.000377
74.489,61.1080,-0.000377
74.505,61.0781,-0.000377
74.521,61.0471,-0.000377
74.536,61.0169,-0.000377
74.553,60.9858,-0.000377
74.570,60.9562,-0.000377
74.600,60.9005,-0.000377
74.616,60.8703,-0.000377
74.632,60.8419,-0.000377
74.648,60.8127,-0.000377
74.664,60.7840,-0.000377
74.690,60.7390,-0.000377
74.706,60.7111,-0.000377
74.722,60.6838,-0.000602
74.738,60.6564,-0.000602
74.754,60.6295,-0.000602
74.770,60.6013,-0.000602
74.785,60.5749,-0.000602
74.801,60.5486,-0.000602
74.821,60.5156,-0.000602
74.848,60.4704,-0.000602
74.865,60.4429,-0.000602
74.882,60.4160,-0.000602
74.898,60.3910,-0.000602
74.914,60.3644,-0.000602
74.929,60.3406,-0.000602
74.948,60.3114,-0.000602
74.971,60.2751,-0.000602
75.002,60.2278,-0.000640
75.033,60.1818,-0.000640
75.064,60.1355,-0.000640
75.079,60.1125,-0.000640
75.094,60.0911,-0.000640
75.110,60.0674,-0.000640
75.142,60.0224,-0.000640
75.172,59.9791,-0.000640
75.203,59.9373,-0.000640
75.233,59.8964,-0.000621
75.249,59.8749,-0.000621
75.265,59.8536,-0.000621
75.281,59.8326,-0.000621
75.297,59.8120,-0.000621
75.319,59.7828,-0.000621
75.341,59.7559,-0.000621
75.361,59.7307,-0.000621
75.379,59.7089,-0.000621
75.395,59.6885,-0.000621
75.417,59.6618,-0.000621
75.433,59.6427,-0.000621
75.463,59.6070,-0.000584
75.494,59.5712,-0.000584
75.509,59.5532,-0.000584
75.541,59.5188,-0.000584
75.572,59.4839,-0.000584
75.587,59.4674,-0.000584
75.618,59.4350,-0.000584
75.634,59.4184,-0.000584
75.649,59.4024,-0.000584
75.665,59.3856,-0.000584
75.682,59.3687,-0.000584
75.697,59.3538,-0.000584
75.714,59.3374,-0.000584
75.730,59.3219,-0.000584
75.745,59.3068,-0.000584
75.766,59.2866,-0.000584
75.783,59.2714,-0.000584
75.799,59.2567,-0.000584
75.815,59.2420,-0.000584
75.830,59.2280,-0.000584
75.846,59.2140,-0.000584
75.862,59.2000,-0.000584
75.878,59.1862,-0.000584
75.894,59.1721,-0.000584
75.910,59.1587,-0.000584
75.927,59.1448,-0.000584
75.957,59.1210,-0.000537
75.974,59.1070,-0.000537
75.990,59.0947,-0.000537
76.006,59.0827,-0.000537
76.022,59.0701,-0.000537
76.038,59.0583,-0.000537
76.055,59.0463,-0.000537
76.070,59.0353,-0.000537
76.086,59.0240,-0.000537
76.102,59.0128,-0.000537
76.118,59.0018,-0.000537
76.135,58.9909,-0.000537
76.150,58.9810,-0.000537
76.166,58.9705,-0.000537
76.182,58.9602,-0.000537
76.198,58.9502,-0.000537
76.214,58.9408,-0.000489
76.230,58.9309,-0.000489
76.246,58.9214,-0.000489
76.262,58.9126,-0.000489
76.292,58.8956,-0.000489
76.308,58.8871,-0.000489
76.324,58.8788,-0.000489
76.340,58.8705,-0.000489
76.356,58.8626,-0.000489
76.372,58.8546,-0.000489
76.388,58.8470,-0.000489
76.404,58.8394,-0.000489
76.420,58.8321,-0.000489
76.436,58.8252,-0.000489
76.452,58.8184,-0.000489
76.469,58.8113,-0.000489
76.484,58.8055,-0.000489
76.500,58.7990,-0.000518
76.516,58.7931,-0.000518
76.532,58.7867,-0.000518
76.548,58.7813,-0.000518
76.564,58.7758,-0.000518
76.580,58.7706,-0.000518
76.597,58.7650,-0.000518
76.623,58.7571,-0.000518
76.644,58.7511,-0.000518
76.661,58.7464,-0.000518
76.685,58.7404,-0.000518
76.716,58.7330,-0.000518
76.747,58.7265,-0.000518
76.763,58.7231,-0.000424
76.794,58.7179,-0.000424
76.825,58.7131,-0.000424
76.846,58.7103,-0.000424
76.861,58.7086,-0.000424
76.877,58.7069,-0.000424
76.893,58.7053,-0.000424
76.909,58.7040,-0.000424
76.925,58.7029,-0.000424
76.941,58.7019,-0.000424
76.957,58.7012,-0.000424
76.973,58.7005,-0.000424
76.989,58.7003,-0.000367
77.005,58.7000,-0.000367
77.021,58.7000,-0.000367
77.037,58.7000,-0.000367
77.054,58.7000,-0.000367
77.069,58.7000,-0.000367
77.085,58.7000,-0.000367
77.102,58.7000,-0.000367
77.117,58.7000,-0.000367
77.133,58.7000,-0.000367
77.153,58.7000,-0.000367
77.181,58.7000,-0.000367
77.197,58.7000,-0.000367
77.213,58.7000,-0.000367
77.229,58.7000,-0.000367
77.245,58.7000,-0.000339
77.261,58.7000,-0.000339
77.277,58.7000,-0.000339
77.293,58.7000,-0.000339
77.309,58.7000,-0.000339
77.325,58.7000,-0.000339
77.341,58.7000,-0.000339
77.357,58.7000,-0.000339
77.373,58.7000,-0.000339
77.396,58.7000,-0.000339
77.428,58.7000,-0.000339
77.458,58.7000,-0.000339
77.475,58.7000,-0.000339
77.490,58.7000,-0.000358
77.508,58.7000,-0.000358
77.537,58.7000,-0.000358
77.555,58.7000,-0.000358
77.571,58.7000,-0.000358
77.587,58.7003,-0.000358
77.602,58.7007,-0.000358
77.618,58.7013,-0.000358
77.635,58.7022,-0.000358
77.650,58.7031,-0.000358
77.667,58.7044,-0.000358
77.682,58.7056,-0.000358
77.698,58.7072,-0.000358
77.715,58.7091,-0.000358
77.730,58.7110,-0.000320
77.747,58.7132,-0.000320
77.763,58.7155,-0.000320
77.778,58.7180,-0.000320
77.795,58.7209,-0.000320
77.811,58.7237,-0.000320
77.827,58.7268,-0.000320
77.842,58.7302,-0.000320
77.859,58.7338,-0.000320
77.875,58.7374,-0.000320
77.890,58.7412,-0.000320
77.906,58.7454,-0.000320
77.922,58.7495,-0.000320
77.949,58.7571,-0.000320
77.965,58.7619,-0.000320
77.983,58.7678,-0.000348
77.999,58.7727,-0.000348
78.030,58.7833,-0.000348
78.045,58.7892,-0.000348
78.061,58.7948,-0.000348
78.077,58.8012,-0.000348
78.093,58.8074,-0.000348
78.108,58.8137,-0.000348
78.124,58.8202,-0.000348
78.141,58.8277,-0.000348
78.157,58.8346,-0.000348
78.183,58.8466,-0.000348
78.214,58.8618,-0.000348
78.244,58.8768,-0.000414
78.260,58.8856,-0.000414
78.275,58.8934,-0.000414
78.291,58.9018,-0.000414
78.306,58.9106,-0.000414
78.322,58.9201,-0.000414
78.353,58.9378,-0.000414
78.384,58.9568,-0.000414
78.414,58.9761,-0.000414
78.444,58.9956,-0.000414
78.461,59.0070,-0.000414
78.477,59.0179,-0.000414
78.503,59.0363,-0.000405
78.519,59.0478,-0.000405
78.535,59.0601,-0.000405
78.551,59.0714,-0.000405
78.571,59.0871,-0.000405
78.589,59.1004,-0.000405
78.615,59.1207,-0.000405
78.632,59.1341,-0.000405
78.648,59.1473,-0.000405
78.663,59.1602,-0.000405
78.679,59.1736,-0.000405
78.696,59.1878,-0.000405
78.711,59.2012,-0.000405
78.728,59.2156,-0.000442
78.743,59.2293,-0.000442
78.760,59.2441,-0.000442
78.775,59.2584,-0.000442
78.791,59.2730,-0.000442
78.808,59.2892,-0.000442
78.823,59.3034,-0.000442
78.840,59.3192,-0.000442
78.855,59.3343,-0.000442
78.871,59.3504,-0.000442
78.887,59.3664,-0.000442
78.903,59.3820,-0.000442
78.919,59.3985,-0.000442
78.935,59.4148,-0.000442
78.952,59.4324,-0.000442
78.967,59.4493,-0.000499
78.983,59.4658,-0.000499
79.004,59.4890,-0.000499
79.028,59.5155,-0.000499
79.044,59.5336,-0.000499
79.060,59.5508,-0.000499
79.076,59.5697,-0.000499
79.092,59.5884,-0.000499
79.108,59.6067,-0.000499
79.125,59.6260,-0.000499
79.140,59.6447,-0.000499
79.157,59.6649,-0.000499
79.185,59.6991,-0.000499
79.204,59.7227,-0.000499
79.220,59.7422,-0.000574
79.236,59.7624,-0.000574
79.252,59.7833,-0.000574
79.268,59.8037,-0.000574
79.284,59.8238,-0.000574
79.301,59.8468,-0.000574
79.316,59.8669,-0.000574
79.332,59.8879,-0.000574
79.348,59.9090,-0.000574
79.364,59.9307,-0.000574
79.380,59.9535,-0.000574
79.396,59.9749,-0.000574
79.412,59.9972,-0.000574
79.429,60.0215,-0.000574
79.444,60.0428,-0.000574
79.460,60.0659,-0.000640
79.476,60.0884,-0.000640
79.492,60.1117,-0.000640
79.508,60.1361,-0.000640
79.524,60.1587,-0.000640
79.552,60.2006,-0.000640
79.567,60.2244,-0.000640
79.583,60.2488,-0.000640
79.599,60.2723,-0.000640
79.616,60.2991,-0.000640
79.631,60.3223,-0.000640
79.647,60.3472,-0.000640
79.663,60.3726,-0.000640
79.680,60.3998,-0.000640
79.708,60.4452,-0.000650
79.727,60.4762,-0.000650
79.743,60.5030,-0.000650
79.759,60.5290,-0.000650
79.775,60.5554,-0.000650
79.791,60.5832,-0.000650
79.807,60.6098,-0.000650
79.823,60.6378,-0.000650
79.839,60.6642,-0.000650
79.855,60.6936,-0.000650
79.872,60.7231,-0.000650
79.889,60.7530,-0.000650
79.909,60.7875,-0.000650
79.941,60.8437,-0.000650
79.971,60.8990,-0.000668
79.986,60.9286,-0.000668
80.017,60.9841,-0.000668
80.032,61.0128,-0.000668
80.063,61.0717,-0.000668
80.079,61.1003,-0.000668
80.095,61.1303,-0.000668
80.119,61.1779,-0.000668
80.140,61.2191,-0.000668
80.170,61.2775,-0.000668
80.186,61.3097,-0.000668
80.203,61.3432,-0.000668
80.218,61.3724,-0.000715
80.233,61.4043,-0.000715
80.249,61.4356,-0.000715
80.273,61.4845,-0.000715
80.294,61.5272,-0.000715
80.310,61.5616,-0.000715
80.326,61.5946,-0.000715
80.342,61.6291,-0.000715
80.357,61.6611,-0.000715
80.373,61.6951,-0.000715
80.390,61.7296,-0.000715
80.406,61.7643,-0.000715
80.422,61.7962,-0.000715
80.439,61.8320,-0.000715
80.454,61.8638,-0.000715
80.470,61.8967,-0.000668
80.485,61.9289,-0.000668
80.506,61.9704,-0.000668
80.527,62.0126,-0.000668
80.542,62.0437,-0.000668
80.572,62.1044,-0.000668
80.603,62.1649,-0.000668
80.634,62.2239,-0.000668
80.664,62.2830,-0.000668
80.695,62.3431,-0.000668
80.711,62.3723,-0.000480
80.727,62.4007,-0.000480
80.758,62.4594,-0.000480
80.773,62.4873,-0.000480
80.789,62.5164,-0.000480
80.806,62.5466,-0.000480
80.821,62.5743,-0.000480
80.838,62.6046,-0.000480
80.853,62.6312,-0.000480
80.871,62.6623,-0.000480
80.895,62.7049,-0.000480
80.911,62.7335,-0.000480
80.934,62.7719,-0.000480
80.949,62.7978,-0.000480
80.965,62.8244,-0.000386
80.982,62.8522,-0.000386
80.998,62.8786,-0.000386
81.013,62.9048,-0.000386
81.030,62.9315,-0.000386
81.046,62.9593,-0.000386
81.062,62.9841,-0.000386
81.077,63.0086,-0.000386
81.094,63.0348,-0.000386
81.110,63.0601,-0.000386
81.126,63.0854,-0.000386
81.142,63.1112,-0.000386
81.171,63.1570,-0.000386
81.188,63.1806,-0.000386
81.203,63.2041,-0.000461
81.219,63.2280,-0.000461
81.236,63.2523,-0.000461
81.251,63.2754,-0.000461
81.267,63.2991,-0.000461
81.284,63.3234,-0.000461
81.306,63.3555,-0.000461
81.329,63.3880,-0.000461
81.347,63.4129,-0.000461
81.363,63.4354,-0.000461
81.379,63.4571,-0.000461
81.396,63.4804,-0.000461
81.412,63.5012,-0.000461
81.429,63.5248,-0.000461
81.453,63.5561,-0.000461
81.483,63.5957,-0.000574
81.499,63.6155,-0.000574
81.529,63.6556,-0.000574
81.567,63.7012,-0.000574
81.587,63.7261,-0.000574
81.603,63.7453,-0.000574
81.620,63.7649,-0.000574
81.636,63.7841,-0.000574
81.651,63.8021,-0.000574
81.667,63.8216,-0.000574
81.684,63.8398,-0.000574
81.699,63.8577,-0.000574
81.728,63.8889,-0.000678
81.743,63.9070,-0.000678
81.759,63.9243,-0.000678
81.775,63.9409,-0.000678
81.793,63.9600,-0.000678
81.823,63.9918,-0.000678
81.839,64.0079,-0.000678
81.855,64.0247,-0.000678
81.872,64.0407,-0.000678
81.888,64.0570,-0.000678
81.903,64.0719,-0.000678
81.921,64.0894,-0.000678
81.946,64.1133,-0.000678
81.967,64.1326,-0.000772
81.984,64.1485,-0.000772
82.000,64.1628,-0.000772
82.023,64.1839,-0.000772
82.054,64.2109,-0.000772
82.069,64.2236,-0.000772
82.100,64.2503,-0.000772
82.132,64.2754,-0.000772
82.148,64.2878,-0.000772
82.164,64.3011,-0.000772
82.195,64.3243,-0.000772
82.211,64.3360,-0.000838
82.227,64.3484,-0.000838
82.258,64.3706,-0.000838
82.280,64.3857,-0.000838
82.297,64.3969,-0.000838
82.312,64.4075,-0.000838
82.329,64.4188,-0.000838
82.345,64.4289,-0.000838
82.361,64.4396,-0.000838
82.379,64.4499,-0.000838
82.398,64.4614,-0.000838
82.414,64.4715,-0.000838
82.444,64.4888,-0.000838
82.475,64.5062,-0.000838
82.506,64.5223,-0.000913
82.537,64.5389,-0.000913
82.569,64.5533,-0.000913
82.584,64.5604,-0.000913
82.600,64.5676,-0.000913
82.616,64.5748,-0.000913
82.632,64.5816,-0.000913
82.652,64.5902,-0.000913
82.678,64.6002,-0.000913
82.696,64.6072,-0.000913
82.718,64.6152,-0.000913
82.741,64.6233,-0.000913
82.761,64.6299,-0.001054
82.776,64.6347,-0.001054
82.792,64.6398,-0.001054
82.808,64.6444,-0.001054
82.831,64.6511,-0.001054
82.848,64.6553,-0.001054
82.878,64.6628,-0.001054
82.902,64.6687,-0.001054
82.924,64.6731,-0.001054
82.943,64.6766,-0.001054
82.959,64.6796,-0.001054
82.975,64.6823,-0.001054
82.991,64.6848,-0.001252
83.007,64.6873,-0.001252
83.024,64.6895,-0.001252
83.048,64.6922,-0.001252
83.079,64.6952,-0.001252
83.110,64.6976,-0.001252
83.141,64.6991,-0.001252
83.171,64.6999,-0.001252
83.201,64.7001,-0.001252
83.232,64.7001,-0.001384
83.247,64.7001,-0.001384
83.263,64.7001,-0.001384
83.279,64.7001,-0.001384
83.295,64.7001,-0.001384
83.311,64.7001,-0.001384
83.327,64.7001,-0.001384
83.343,64.7001,-0.001384
83.359,64.7001,-0.001384
83.382,64.7001,-0.001384
83.399,64.7001,-0.001384
83.417,64.7001,-0.001384
83.448,64.7001,-0.001384
83.464,64.7001,-0.001384
83.480,64.7001,-0.001337
83.495,64.7001,-0.001337
83.525,64.7001,-0.001337
83.542,64.7001,-0.001337
83.558,64.7001,-0.001337
83.574,64.7001,-0.001337
83.589,64.7001,-0.001337
83.605,64.7001,-0.001337
83.622,64.7001,-0.001337
83.638,64.7001,-0.001337
83.654,64.7001,-0.001337
83.669,64.7001,-0.001337
83.686,64.7001,-0.001337
83.702,64.7001,-0.001337
83.718,64.7001,-0.001337
83.733,64.7001,-0.001186
83.750,64.7001,-0.001186
83.766,64.7001,-0.001186
83.782,64.7001,-0.001186
83.797,64.7001,-0.001186
83.813,64.7001,-0.001186
83.830,64.7001,-0.001186
83.845,64.7001,-0.001186
83.862,64.7001,-0.001186
83.877,64.7001,-0.001186
83.904,64.7001,-0.001186
83.921,64.7001,-0.001186
83.936,64.7001,-0.001186
83.953,64.7001,-0.001186
83.968,64.7001,-0.001148
83.985,64.7001,-0.001148
84.000,64.7001,-0.001148
84.021,64.7001,-0.001148
84.038,64.7001,-0.001148
84.067,64.7001,-0.001148
84.083,64.7001,-0.001148
84.114,64.7001,-0.001148
84.130,64.7001,-0.001148
84.145,64.7001,-0.001148
84.160,64.7001,-0.001148
84.177,64.7001,-0.001148
84.193,64.7001,-0.001148
84.209,64.7001,-0.001148
84.224,64.7001,-0.001158
84.241,64.7001,-0.001158
84.257,64.7001,-0.001158
84.272,64.7001,-0.001158
84.288,64.7001,-0.001158
84.304,64.7001,-0.001158
84.321,64.7001,-0.001158
84.338,64.7001,-0.001158
84.361,64.7001,-0.001158
84.396,64.7001,-0.001158
84.417,64.7001,-0.001158
84.432,64.7001,-0.001158
84.454,64.7001,-0.001158
84.470,64.7001,-0.001158
84.486,64.7001,-0.001177
84.503,64.7001,-0.001177
84.518,64.7001,-0.001177
84.534,64.7001,-0.001177
84.551,64.7001,-0.001177
84.566,64.7001,-0.001177
84.582,64.7001,-0.001177
84.599,64.7001,-0.001177
84.622,64.7001,-0.001177
84.652,64.7001,-0.001177
84.683,64.7001,-0.001177
84.699,64.7001,-0.001177
84.729,64.7001,-0.001214
84.759,64.7001,-0.001214
84.775,64.7001,-0.001214
84.790,64.7001,-0.001214
84.806,64.7001,-0.001214
84.823,64.7001,-0.001214
84.838,64.7001,-0.001214
84.855,64.7001,-0.001214
84.870,64.7001,-0.001214
84.887,64.7001,-0.001214
84.914,64.7001,-0.001214
84.934,64.7001,-0.001214
84.951,64.7001,-0.001214
84.966,64.7001,-0.001214
84.982,64.7001,-0.001214
85.005,64.7001,-0.001195
85.021,64.7001,-0.001195
85.037,64.7001,-0.001195
85.053,64.7001,-0.001195
85.070,64.7001,-0.001195
85.085,64.7001,-0.001195
85.101,64.7001,-0.001195
85.117,64.7001,-0.001195
85.133,64.7001,-0.001195
85.149,64.7001,-0.001195
85.165,64.7001,-0.001195
85.181,64.7001,-0.001195
85.197,64.7001,-0.001195
85.213,64.7001,-0.001158
85.229,64.7001,-0.001158
85.245,64.7001,-0.001158
85.261,64.7001,-0.001158
85.277,64.7001,-0.001158
85.293,64.7001,-0.001158
85.309,64.7001,-0.001158
85.325,64.7001,-0.001158
85.341,64.7001,-0.001158
85.357,64.7001,-0.001158
85.373,64.7001,-0.001158
85.389,64.7001,-0.001158
85.405,64.7001,-0.001158
85.421,64.7001,-0.001158
85.437,64.7001,-0.001158
85.453,64.7001,-0.001158
85.469,64.7001,-0.001092
85.485,64.7001,-0.001092
85.509,64.7001,-0.001092
85.531,64.7001,-0.001092
85.549,64.7001,-0.001092
85.565,64.7001,-0.001092
85.581,64.7001,-0.001092
85.597,64.7001,-0.001092
85.613,64.7001,-0.001092
85.630,64.7001,-0.001092
85.645,64.7001,-0.001092
85.661,64.7001,-0.001092
85.677,64.7001,-0.001092
85.693,64.7001,-0.001092
85.709,64.7001,-0.001073
85.725,64.7001,-0.001073
85.741,64.7001,-0.001073
85.757,64.7001,-0.001073
85.773,64.7001,-0.001073
85.789,64.7001,-0.001073
85.805,64.7001,-0.001073
85.821,64.7001,-0.001073
85.837,64.7001,-0.001073
85.853,64.7001,-0.001073
85.869,64.7001,-0.001073
85.885,64.7001,-0.001073
85.901,64.7001,-0.001073
85.917,64.7001,-0.001073
85.934,64.7001,-0.001073
85.949,64.7001,-0.001073
85.965,64.7001,-0.001101
85.982,64.7001,-0.001101
85.998,64.7001,-0.001101
86.026,64.7001,-0.001101
86.045,64.7001,-0.001101
86.061,64.7001,-0.001101
86.077,64.7001,-0.001101
86.093,64.7001,-0.001101
86.109,64.7001,-0.001101
86.125,64.7001,-0.001101
86.141,64.7001,-0.001101
86.157,64.7001,-0.001101
86.173,64.7001,-0.001101
86.189,64.7001,-0.001101
86.205,64.7001,-0.001101
86.221,64.7001,-0.001111
86.236,64.7001,-0.001111
86.253,64.7001,-0.001111
86.268,64.7001,-0.001111
86.284,64.7001,-0.001111
86.301,64.7001,-0.001111
86.317,64.7001,-0.001111
86.333,64.7001,-0.001111
86.348,64.7001,-0.001111
86.364,64.7001,-0.001111
86.381,64.7001,-0.001111
86.397,64.7001,-0.001111
86.412,64.7001,-0.001111
86.429,64.7001,-0.001111
86.445,64.7001,-0.001111
86.462,64.7001,-0.001111
86.478,64.7001,-0.001111
86.493,64.7001,-0.001111
86.509,64.7001,-0.001101
86.527,64.7001,-0.001101
86.544,64.7001,-0.001101
86.569,64.7001,-0.001101
86.589,64.7001,-0.001101
86.605,64.7001,-0.001101
86.620,64.7001,-0.001101
86.636,64.7001,-0.001101
86.652,64.7001,-0.001101
86.668,64.7001,-0.001101
86.684,64.7001,-0.001101
86.700,64.7001,-0.001101
86.717,64.7001,-0.001101
86.732,64.7001,-0.001101
86.748,64.7001,-0.001101
86.764,64.7001,-0.001101
86.780,64.7001,-0.001101
86.797,64.7001,-0.001101
86.812,64.7001,-0.001101
86.828,64.7001,-0.001101
86.845,64.7001,-0.001101
86.861,64.7001,-0.001101
86.877,64.7001,-0.001101
86.892,64.7001,-0.001101
86.908,64.7001,-0.001101
86.925,64.7001,-0.001101
86.940,64.7001,-0.001101
86.959,64.7001,-0.001101
86.987,64.7001,-0.001130
87.004,64.7001,-0.001130
87.021,64.7001,-0.001130
87.036,64.7001,-0.001130
87.053,64.7001,-0.001130
87.068,64.7001,-0.001130
87.085,64.7001,-0.001130
87.111,64.7001,-0.001130
87.133,64.7001,-0.001130
87.149,64.7001,-0.001130
87.165,64.7001,-0.001130
87.180,64.7001,-0.001130
87.196,64.7001,-0.001130
87.213,64.7001,-0.001120
87.228,64.7001,-0.001120
87.245,64.7001,-0.001120
87.269,64.7001,-0.001120
87.297,64.7001,-0.001120
87.327,64.7001,-0.001120
87.358,64.7001,-0.001120
87.390,64.7001,-0.001120
87.421,64.7001,-0.001120
87.437,64.7001,-0.001120
87.466,64.7001,-0.001111
87.484,64.7001,-0.001111
87.501,64.7001,-0.001111
87.517,64.7001,-0.001111
87.532,64.7001,-0.001111
87.548,64.7001,-0.001111
87.564,64.7001,-0.001111
87.580,64.7001,-0.001111
87.596,64.7001,-0.001111
87.612,64.7001,-0.001111
87.628,64.7001,-0.001111
87.644,64.7001,-0.001111
87.660,64.7001,-0.001111
87.683,64.7001,-0.001111
87.699,64.7001,-0.001111
87.715,64.7001,-0.001101
87.731,64.7001,-0.001101
87.748,64.7001,-0.001101
87.776,64.7001,-0.001101
87.795,64.7001,-0.001101
87.812,64.7001,-0.001101
87.827,64.7001,-0.001101
87.843,64.7001,-0.001101
87.859,64.7001,-0.001101
87.875,64.7001,-0.001101
87.892,64.7001,-0.001101
87.914,64.7001,-0.001101
87.945,64.7001,-0.001101
87.976,64.7001,-0.001130
88.006,64.7001,-0.001130
88.022,64.7001,-0.001130
88.038,64.7001,-0.001130
88.069,64.7001,-0.001130
88.100,64.7001,-0.001130
88.117,64.7001,-0.001130
88.146,64.7001,-0.001130
88.163,64.7001,-0.001130
88.183,64.7001,-0.001130
88.208,64.7001,-0.001130
88.240,64.7001,-0.001280
88.256,64.7001,-0.001280
88.272,64.7001,-0.001280
88.288,64.7001,-0.001280
88.304,64.7001,-0.001280
88.320,64.7001,-0.001280
88.336,64.7001,-0.001280
88.352,64.7001,-0.001280
88.368,64.7001,-0.001280
88.384,64.7001,-0.001280
88.400,64.7001,-0.001280
88.416,64.7001,-0.001280
88.432,64.6998,-0.001280
88.448,64.6994,-0.001280
88.464,64.6988,-0.001374
88.480,64.6981,-0.001374
88.496,64.6971,-0.001374
88.513,64.6958,-0.001374
88.528,64.6946,-0.001374
88.544,64.6930,-0.001374
88.560,64.6912,-0.001374
88.577,64.6893,-0.001374
88.592,64.6872,-0.001374
88.608,64.6849,-0.001374
88.624,64.6823,-0.001374
88.640,64.6797,-0.001374
88.656,64.6767,-0.001374
88.672,64.6736,-0.001374
88.688,64.6704,-0.001374
88.704,64.6668,-0.000970
88.719,64.6632,-0.000970
88.740,64.6580,-0.000970
88.766,64.6514,-0.000970
88.781,64.6475,-0.000970
88.796,64.6429,-0.000970
88.813,64.6379,-0.000970
88.830,64.6325,-0.000970
88.860,64.6227,-0.000970
88.878,64.6162,-0.000970
88.907,64.6057,-0.000970
88.924,64.5990,-0.000970
88.940,64.5925,-0.000970
88.956,64.5861,0.001403
88.973,64.5791,0.001403
88.989,64.5721,0.001403
89.005,64.5649,0.001403
89.020,64.5580,0.001403
89.036,64.5505,0.001403
89.054,64.5420,0.001403
89.076,64.5309,0.001403
89.092,64.5226,0.001403
89.124,64.5055,0.001403
89.155,64.4885,0.001403
89.171,64.4790,0.001403
89.202,64.4609,0.001403
89.233,64.4420,0.006834
89.264,64.4226,0.006834
89.291,64.4049,0.006834
89.307,64.3941,0.006834
89.322,64.3834,0.006834
89.339,64.3720,0.006834
89.354,64.3608,0.006834
89.371,64.3488,0.006834
89.387,64.3372,0.006834
89.402,64.3256,0.006834
89.419,64.3127,0.006834
89.435,64.3008,0.006834
89.451,64.2882,0.006834
89.466,64.2759,0.015880
89.482,64.2629,0.015880
89.499,64.2495,0.015880
89.514,64.2366,0.015880
89.531,64.2222,0.015880
89.556,64.2012,0.015880
89.586,64.1736,0.015880
89.617,64.1469,0.015880
89.648,64.1173,0.015880
89.664,64.1029,0.015880
89.679,64.0882,0.015880
89.695,64.0720,0.015880
89.711,64.0566,0.015880
89.727,64.0414,0.015880
89.757,64.0110,0.029699
89.788,63.9782,0.029699
89.819,63.9466,0.029699
89.835,63.9294,0.029699
89.851,63.9120,0.029699
89.866,63.8949,0.029699
89.882,63.8772,0.029699
89.899,63.8589,0.029699
89.914,63.8409,0.029699
89.931,63.8223,0.029699
89.947,63.8032,0.029699
89.966,63.7807,0.029699
89.981,63.7618,0.029699
90.003,63.7363,0.029699
90.034,63.6986,0.049372
90.065,63.6604,0.049372
90.097,63.6204,0.049372
90.127,63.5816,0.049372
90.144,63.5585,0.049372
90.174,63.5196,0.049372
90.204,63.4783,0.049372
90.235,63.4360,0.076821
90.266,63.3927,0.076821
90.282,63.3706,0.076821
90.299,63.3468,0.076821
90.314,63.3245,0.076821
90.333,63.2977,0.076821
90.355,63.2637,0.076821
90.373,63.2373,0.076821
90.389,63.2144,0.076821
90.404,63.1913,0.076821
90.420,63.1674,0.076821
90.451,63.1199,0.076821
90.481,63.0734,0.101521
90.499,63.0451,0.101521
90.515,63.0197,0.101521
90.533,62.9895,0.101521
90.559,62.9496,0.101521
90.579,62.9154,0.101521
90.605,62.8724,0.101521
90.627,62.8356,0.101521
90.651,62.7949,0.101521
90.683,62.7405,0.101521
90.714,62.6869,0.101521
90.744,62.6341,0.054841
90.760,62.6049,0.054841
90.775,62.5780,0.054841
90.806,62.5222,0.054841
90.837,62.4654,0.054841
90.868,62.4101,0.054841
90.883,62.3813,0.054841
90.899,62.3518,0.054841
90.914,62.3224,0.054841
90.930,62.2918,0.054841
90.946,62.2617,0.054841
90.962,62.2307,0.054841
90.978,62.1995,-0.000461
90.994,62.1689,-0.000461
91.010,62.1365,-0.000461
91.026,62.1054,-0.000461
91.042,62.0740,-0.000461
91.059,62.0397,-0.000461
91.082,61.9924,-0.000461
91.113,61.9295,-0.000461
91.129,61.8972,-0.000461
91.159,61.8354,-0.000461
91.175,61.8005,-0.000461
91.204,61.7391,-0.000461
91.235,61.6749,-0.000348
91.250,61.6418,-0.000348
91.266,61.6083,-0.000348
91.282,61.5755,-0.000348
91.298,61.5415,-0.000348
91.314,61.5082,-0.000348
91.330,61.4749,-0.000348
91.346,61.4418,-0.000348
91.362,61.4080,-0.000348
91.378,61.3756,-0.000348
91.394,61.3430,-0.000348
91.418,61.2961,-0.000348
91.434,61.2639,-0.000348
91.450,61.2322,-0.000348
91.466,61.2011,-0.000424
91.482,61.1696,-0.000424
91.498,61.1381,-0.000424
91.514,61.1077,-0.000424
91.532,61.0711,-0.000424
91.558,61.0223,-0.000424
91.578,60.9851,-0.000424
91.594,60.9550,-0.000424
91.610,60.9258,-0.000424
91.626,60.8966,-0.000424
91.642,60.8657,-0.000424
91.660,60.8336,-0.000424
91.682,60.7932,-0.000424
91.698,60.7655,-0.000424
91.728,60.7108,-0.000424
91.759,60.6584,-0.000668
91.774,60.6317,-0.000668
91.805,60.5778,-0.000668
91.835,60.5263,-0.000668
91.852,60.4979,-0.000668
91.882,60.4464,-0.000668
91.900,60.4196,-0.000668
91.928,60.3731,-0.000668
91.957,60.3269,-0.000668
91.972,60.3026,-0.000668
91.988,60.2769,-0.000734
92.005,60.2520,-0.000734
92.021,60.2271,-0.000734
92.037,60.2020,-0.000734
92.054,60.1770,-0.000734
92.069,60.1542,-0.000734
92.085,60.1288,-0.000734
92.100,60.1062,-0.000734
92.117,60.0812,-0.000734
92.133,60.0591,-0.000734
92.148,60.0353,-0.000734
92.165,60.0123,-0.000734
92.180,59.9900,-0.000734
92.197,59.9667,-0.000734
92.213,59.9438,-0.000734
92.229,59.9213,-0.000734
92.244,59.9005,-0.000650
92.261,59.8784,-0.000650
92.277,59.8559,-0.000650
92.292,59.8352,-0.000650
92.309,59.8135,-0.000650
92.325,59.7921,-0.000650
92.340,59.7714,-0.000650
92.357,59.7504,-0.000650
92.372,59.7297,-0.000650
92.391,59.7064,-0.000650
92.421,59.6695,-0.000650
92.437,59.6497,-0.000650
92.452,59.6305,-0.000650
92.468,59.6111,-0.000650
92.485,59.5909,-0.000650
92.509,59.5624,-0.000574
92.525,59.5429,-0.000574
92.542,59.5248,-0.000574
92.557,59.5071,-0.000574
92.573,59.4887,-0.000574
92.590,59.4701,-0.000574
92.605,59.4524,-0.000574
92.622,59.4340,-0.000574
92.638,59.4178,-0.000574
92.654,59.4005,-0.000574
92.670,59.3835,-0.000574
92.686,59.3662,-0.000574
92.702,59.3498,-0.000574
92.717,59.3343,-0.000574
92.733,59.3183,-0.000621
92.749,59.3023,-0.000621
92.767,59.2846,-0.000621
92.790,59.2622,-0.000621
92.806,59.2471,-0.000621
92.822,59.2311,-0.000621
92.852,59.2035,-0.000621
92.883,59.1752,-0.000621
92.914,59.1488,-0.000621
92.930,59.1352,-0.000621
92.945,59.1211,-0.000621
92.961,59.1083,-0.000621
92.992,59.0835,-0.000612
93.023,59.0585,-0.000612
93.038,59.0473,-0.000612
93.065,59.0261,-0.000612
93.082,59.0136,-0.000612
93.097,59.0019,-0.000612
93.113,58.9905,-0.000612
93.130,58.9791,-0.000612
93.146,58.9676,-0.000612
93.162,58.9568,-0.000612
93.177,58.9457,-0.000612
93.193,58.9356,-0.000612
93.209,58.9254,-0.000612
93.225,58.9150,-0.000574
93.241,58.9051,-0.000574
93.259,58.8943,-0.000574
93.287,58.8772,-0.000574
93.306,58.8666,-0.000574
93.321,58.8577,-0.000574
93.338,58.8487,-0.000574
93.353,58.8398,-0.000574
93.369,58.8318,-0.000574
93.385,58.8233,-0.000574
93.402,58.8153,-0.000574
93.417,58.8076,-0.000574
93.433,58.7998,-0.000574
93.449,58.7923,-0.000574
93.465,58.7849,-0.000508
93.481,58.7776,-0.000508
93.497,58.7709,-0.000508
93.513,58.7640,-0.000508
93.529,58.7575,-0.000508
93.545,58.7513,-0.000508
93.562,58.7446,-0.000508
93.586,58.7356,-0.000508
93.602,58.7302,-0.000508
93.618,58.7244,-0.000508
93.634,58.7194,-0.000508
93.650,58.7143,-0.000508
93.666,58.7093,-0.000508
93.682,58.7048,-0.000508
93.698,58.7003,-0.000508
93.714,58.6958,-0.000358
93.730,58.6917,-0.000358
93.746,58.6879,-0.000358
93.762,58.6840,-0.000358
93.778,58.6806,-0.000358
93.794,58.6771,-0.000358
93.811,58.6738,-0.000358
93.826,58.6710,-0.000358
93.842,58.6683,-0.000358
93.858,58.6658,-0.000358
93.875,58.6633,-0.000358
93.903,58.6596,-0.000358
93.922,58.6575,-0.000358
93.938,58.6559,-0.000358
93.954,58.6544,-0.000358
93.970,58.6533,-0.000367
93.986,58.6523,-0.000367
94.004,58.6513,-0.000367
94.027,58.6506,-0.000367
94.043,58.6502,-0.000367
94.074,58.6501,-0.000367
94.104,58.6501,-0.000367
94.125,58.6501,-0.000367
94.141,58.6501,-0.000367
94.157,58.6501,-0.000367
94.173,58.6501,-0.000367
94.189,58.6503,-0.000367
94.205,58.6507,-0.000254
94.221,58.6512,-0.000254
94.237,58.6520,-0.000254
94.253,58.6529,-0.000254
94.269,58.6542,-0.000254
94.285,58.6554,-0.000254
94.301,58.6570,-0.000254
94.317,58.6587,-0.000254
94.332,58.6606,-0.000254
94.349,58.6628,-0.000254
94.365,58.6651,-0.000254
94.381,58.6677,-0.000254
94.396,58.6703,-0.000254
94.413,58.6734,-0.000254
94.437,58.6781,-0.000254
94.459,58.6826,-0.000461
94.477,58.6867,-0.000461
94.493,58.6907,-0.000461
94.509,58.6946,-0.000461
94.525,58.6989,-0.000461
94.541,58.7034,-0.000461
94.557,58.7080,-0.000461
94.573,58.7128,-0.000461
94.589,58.7177,-0.000461
94.605,58.7231,-0.000461
94.621,58.7287,-0.000461
94.637,58.7340,-0.000461
94.653,58.7400,-0.000461
94.675,58.7483,-0.000461
94.691,58.7545,-0.000461
94.707,58.7608,-0.000508
94.724,58.7680,-0.000508
94.739,58.7745,-0.000508
94.755,58.7814,-0.000508
94.771,58.7890,-0.000508
94.787,58.7960,-0.000508
94.803,58.8041,-0.000508
94.819,58.8117,-0.000508
94.835,58.8199,-0.000508
94.852,58.8283,-0.000508
94.867,58.8363,-0.000508
94.883,58.8447,-0.000508
94.899,58.8533,-0.000508
94.915,58.8630,-0.000508
94.931,58.8723,-0.000508
94.947,58.8814,-0.000508
94.963,58.8905,-0.000329
94.979,58.9010,-0.000329
95.006,58.9178,-0.000329
95.026,58.9306,-0.000329
95.043,58.9410,-0.000329
95.058,58.9516,-0.000329
95.075,58.9629,-0.000329
95.091,58.9736,-0.000329
95.107,58.9852,-0.000329
95.122,58.9965,-0.000329
95.139,59.0087,-0.000329
95.155,59.0199,-0.000329
95.178,59.0384,-0.000329
95.201,59.0556,-0.000329
95.219,59.0699,-0.000329
95.235,59.0827,-0.000452
95.251,59.0958,-0.000452
95.266,59.1086,-0.000452
95.283,59.1223,-0.000452
95.298,59.1364,-0.000452
95.314,59.1496,-0.000452
95.330,59.1634,-0.000452
95.347,59.1780,-0.000452
95.362,59.1922,-0.000452
95.378,59.2064,-0.000452
95.394,59.2213,-0.000452
95.411,59.2374,-0.000452
95.427,59.2522,-0.000452
95.443,59.2672,-0.000452
95.459,59.2828,-0.000527
95.475,59.2986,-0.000527
95.491,59.3146,-0.000527
95.506,59.3302,-0.000527
95.522,59.3466,-0.000527
95.539,59.3643,-0.000527
95.555,59.3802,-0.000527
95.570,59.3967,-0.000527
95.587,59.4150,-0.000527
95.602,59.4310,-0.000527
95.619,59.4494,-0.000527
95.634,59.4663,-0.000527
95.651,59.4851,-0.000527
95.667,59.5028,-0.000527
95.683,59.5215,-0.000527
95.699,59.5394,-0.000527
95.715,59.5580,-0.000527
95.738,59.5853,-0.000527
95.758,59.6103,-0.000527
95.789,59.6480,-0.000584
95.820,59.6855,-0.000584
95.850,59.7245,-0.000584
95.881,59.7632,-0.000584
95.898,59.7855,-0.000584
95.928,59.8251,-0.000584
95.944,59.8473,-0.000584
95.960,59.8691,-0.000584
95.976,59.8912,-0.000584
95.993,59.9136,-0.000631
96.008,59.9347,-0.000631
96.025,59.9579,-0.000631
96.040,59.9800,-0.000631
96.056,60.0024,-0.000631
96.072,60.0256,-0.000631
96.088,60.0489,-0.000631
96.104,60.0724,-0.000631
96.120,60.0957,-0.000631
96.136,60.1194,-0.000631
96.153,60.1443,-0.000631
96.168,60.1676,-0.000631
96.184,60.1918,-0.000631
96.201,60.2188,-0.000631
96.221,60.2479,-0.000631
96.237,60.2744,-0.000631
96.262,60.3143,-0.000762
96.283,60.3462,-0.000762
96.313,60.3957,-0.000762
96.343,60.4441,-0.000762
96.358,60.4697,-0.000762
96.374,60.4950,-0.000762
96.390,60.5231,-0.000762
96.406,60.5491,-0.000762
96.421,60.5752,-0.000762
96.437,60.6027,-0.000762
96.459,60.6419,-0.000762
96.482,60.6805,-0.000762
96.501,60.7139,-0.000734
96.518,60.7440,-0.000734
96.534,60.7725,-0.000734
96.549,60.7996,-0.000734
96.565,60.8295,-0.000734
96.581,60.8582,-0.000734
96.597,60.8871,-0.000734
96.613,60.9172,-0.000734
96.629,60.9466,-0.000734
96.646,60.9786,-0.000734
96.661,61.0066,-0.000734
96.677,61.0368,-0.000734
96.693,61.0670,-0.000734
96.709,61.0985,-0.000734
96.725,61.1290,-0.000706
96.741,61.1599,-0.000706
96.757,61.1913,-0.000706
96.773,61.2232,-0.000706
96.789,61.2552,-0.000706
96.819,61.3159,-0.000706
96.836,61.3501,-0.000706
96.866,61.4100,-0.000706
96.890,61.4594,-0.000706
96.913,61.5074,-0.000706
96.930,61.5417,-0.000706
96.946,61.5764,-0.000706
96.962,61.6105,-0.000706
96.978,61.6439,-0.000706
96.994,61.6778,-0.000706
97.010,61.7123,-0.000706
97.026,61.7446,-0.000706
97.042,61.7782,-0.000706
97.058,61.8115,-0.000706
97.077,61.8504,-0.000706
97.096,61.8887,-0.000706
97.112,61.9228,-0.000706
97.143,61.9846,-0.000706
97.159,62.0172,-0.000706
97.189,62.0789,-0.000706
97.205,62.1082,-0.000706
97.221,62.1390,-0.000508
97.251,62.1996,-0.000508
97.266,62.2270,-0.000508
97.282,62.2569,-0.000508
97.298,62.2874,-0.000508
97.315,62.3223,-0.000508
97.345,62.3759,-0.000508
97.372,62.4266,-0.000508
97.388,62.4551,-0.000508
97.404,62.4834,-0.000508
97.420,62.5119,-0.000508
97.437,62.5432,-0.000508
97.458,62.5800,-0.000508
97.484,62.6263,-0.000320
97.502,62.6568,-0.000320
97.531,62.7091,-0.000320
97.548,62.7365,-0.000320
97.565,62.7650,-0.000320
97.580,62.7905,-0.000320
97.596,62.8169,-0.000320
97.612,62.8434,-0.000320
97.628,62.8703,-0.000320
97.644,62.8960,-0.000320
97.660,62.9218,-0.000320
97.676,62.9476,-0.000320
97.692,62.9735,-0.000320
97.708,62.9998,-0.000377
97.724,63.0236,-0.000377
97.741,63.0507,-0.000377
97.756,63.0744,-0.000377
97.772,63.0979,-0.000377
97.788,63.1231,-0.000377
97.804,63.1473,-0.000377
97.820,63.1718,-0.000377
97.836,63.1948,-0.000377
97.852,63.2188,-0.000377
97.868,63.2422,-0.000377
97.884,63.2652,-0.000377
97.901,63.2892,-0.000377
97.930,63.3313,-0.000377
97.946,63.3541,-0.000377
97.962,63.3756,-0.000489
97.978,63.3990,-0.000489
97.998,63.4262,-0.000489
98.016,63.4518,-0.000489
98.040,63.4826,-0.000489
98.059,63.5068,-0.000489
98.086,63.5437,-0.000489
98.105,63.5676,-0.000489
98.126,63.5940,-0.000489
98.147,63.6208,-0.000489
98.178,63.6589,-0.000489
98.194,63.6777,-0.000489
98.225,63.7162,-0.000602
98.256,63.7518,-0.000602
98.286,63.7877,-0.000602
98.318,63.8238,-0.000602
98.348,63.8568,-0.000602
98.378,63.8893,-0.000602
98.410,63.9222,-0.000602
98.427,63.9398,-0.000602
98.442,63.9557,-0.000602
98.457,63.9714,-0.000602
98.484,63.9982,-0.000687
98.500,64.0142,-0.000687
98.516,64.0297,-0.000687
98.532,64.0447,-0.000687
98.548,64.0598,-0.000687
98.564,64.0755,-0.000687
98.579,64.0899,-0.000687
98.595,64.1039,-0.000687
98.612,64.1188,-0.000687
98.627,64.1326,-0.000687
98.644,64.1470,-0.000687
98.659,64.1605,-0.000687
98.676,64.1748,-0.000687
98.692,64.1882,-0.000687
98.708,64.2017,-0.000734
98.723,64.2140,-0.000734
98.739,64.2270,-0.000734
98.756,64.2405,-0.000734
98.771,64.2521,-0.000734
98.788,64.2649,-0.000734
98.804,64.2773,-0.000734
98.819,64.2887,-0.000734
98.835,64.3004,-0.000734
98.851,64.3119,-0.000734
98.867,64.3236,-0.000734
98.883,64.3343,-0.000734
98.900,64.3458,-0.000734
98.915,64.3565,-0.000734
98.931,64.3668,-0.000734
98.948,64.3777,-0.000734
98.963,64.3876,-0.000828
98.979,64.3972,-0.000828
98.995,64.4070,-0.000828
99.011,64.4165,-0.000828
99.028,64.4263,-0.000828
99.043,64.4354,-0.000828
99.059,64.4446,-0.000828
99.075,64.4531,-0.000828
99.091,64.4619,-0.000828
99.107,64.4702,-0.000828
99.123,64.4784,-0.000828
99.139,64.4866,-0.000828
99.156,64.4950,-0.000828
99.176,64.5045,-0.000828
99.197,64.5140,-0.000828
99.212,64.5212,-0.000998
99.228,64.5279,-0.000998
99.258,64.5404,-0.000998
99.289,64.5526,-0.000998
99.319,64.5637,-0.000998
99.349,64.5744,-0.000998
99.381,64.5847,-0.000998
99.396,64.5894,-0.000998
99.413,64.5944,-0.000998
99.443,64.6027,-0.000998
99.459,64.6069,-0.001101
99.475,64.6111,-0.001101
99.492,64.6150,-0.001101
99.521,64.6214,-0.001101
99.540,64.6251,-0.001101
99.567,64.6301,-0.001101
99.585,64.6332,-0.001101
99.602,64.6357,-0.001101
99.617,64.6379,-0.001101
99.633,64.6399,-0.001101
99.650,64.6420,-0.001101
99.666,64.6436,-0.001101
99.689,64.6457,-0.001101
99.720,64.6478,-0.001101
99.751,64.6493,-0.001148
99.767,64.6497,-0.001148
99.784,64.6499,-0.001148
99.813,64.6501,-0.001148
99.831,64.6501,-0.001148
99.860,64.6501,-0.001148
99.890,64.6501,-0.001148
99.905,64.6501,-0.001148
99.921,64.6501,-0.001148
99.937,64.6501,-0.001148
99.954,64.6501,-0.001148
99.969,64.6501,-0.001148
99.985,64.6501,-0.001243
100.001,64.6501,-0.001243
100.018,64.6501,-0.001243
100.033,64.6501,-0.001243
100.049,64.6501,-0.001243
100.065,64.6501,-0.001243
100.081,64.6501,-0.001243
100.097,64.6501,-0.001243
100.113,64.6501,-0.001243
100.135,64.6501,-0.001243
100.152,64.6501,-0.001243
100.168,64.6501,-0.001243
100.184,64.6501,-0.001243
100.207,64.6501,-0.001243
100.232,64.6501,-0.001243
100.248,64.6501,-0.001243
100.264,64.6501,-0.001233
100.280,64.6501,-0.001233
100.296,64.6501,-0.001233
100.312,64.6501,-0.001233
100.328,64.6501,-0.001233
100.344,64.6501,-0.001233
100.360,64.6501,-0.001233
100.376,64.6501,-0.001233
100.392,64.6501,-0.001233
100.409,64.6501,-0.001233
100.424,64.6501,-0.001233
100.440,64.6501,-0.001233
100.456,64.6501,-0.001233
100.472,64.6501,-0.001177
100.488,64.6501,-0.001177
100.504,64.6501,-0.001177
100.520,64.6501,-0.001177
100.536,64.6501,-0.001177
100.551,64.6501,-0.001177
100.568,64.6501,-0.001177
100.584,64.6501,-0.001177
100.600,64.6501,-0.001177
100.616,64.6501,-0.001177
100.635,64.6501,-0.001177
100.663,64.6501,-0.001177
100.693,64.6501,-0.001177
100.709,64.6501,-0.001177
100.725,64.6501,-0.001177
100.740,64.6501,-0.001177
100.756,64.6501,-0.001177
100.772,64.6501,-0.001177
100.788,64.6501,-0.001177
100.804,64.6501,-0.001177
100.820,64.6501,-0.001177
100.835,64.6501,-0.001177
100.852,64.6501,-0.001177
100.868,64.6501,-0.001177
100.884,64.6501,-0.001177
100.900,64.6501,-0.001177
100.915,64.6501,-0.001177
100.932,64.6501,-0.001177
100.948,64.6501,-0.001177
100.963,64.6501,-0.001177
100.979,64.6501,-0.001186
100.996,64.6501,-0.001186
101.011,64.6501,-0.001186
101.027,64.6501,-0.001186
101.044,64.6501,-0.001186
101.060,64.6501,-0.001186
101.075,64.6501,-0.001186
