Elapsed Time (s),Position (mm),Force (N)
-0.020,82.4902,-0.009912
0.012,82.4902,-0.009912
0.044,82.4902,-0.009912
0.074,82.4902,-0.009912
0.106,82.4902,-0.009912
0.137,82.4902,-0.009912
0.168,82.4902,-0.009912
0.199,82.4902,-0.009912
0.230,82.4902,-0.007867
0.261,82.4902,-0.007867
0.292,82.4902,-0.007867
0.323,82.4902,-0.007867
0.354,82.4902,-0.007867
0.385,82.4902,-0.007867
0.417,82.4902,-0.007867
0.448,82.4902,-0.007867
0.480,82.4902,-0.007867
0.510,82.4902,-0.006360
0.542,82.4902,-0.006360
0.573,82.4902,-0.006360
0.604,82.4902,-0.006360
0.635,82.4902,-0.006360
0.661,82.4902,-0.006360
0.697,82.4902,-0.006360
0.728,82.4902,-0.006360
0.759,82.4902,-0.005182
0.789,82.4902,-0.005182
0.820,82.4902,-0.005182
0.851,82.4902,-0.005182
0.882,82.4902,-0.005182
0.914,82.4902,-0.005182
0.946,82.4902,-0.005182
0.976,82.4902,-0.005182
1.007,82.4902,-0.004315
1.039,82.4902,-0.004315
1.071,82.4902,-0.004315
1.102,82.4902,-0.004315
1.134,82.4902,-0.004315
1.165,82.4902,-0.004315
1.196,82.4902,-0.004315
1.227,82.4902,-0.003514
1.258,82.4902,-0.003514
1.289,82.4902,-0.003514
1.320,82.4902,-0.003514
1.351,82.4902,-0.003514
1.382,82.4902,-0.003514
1.413,82.4902,-0.003514
1.444,82.4902,-0.003514
1.475,82.4902,-0.002836
1.506,82.4902,-0.002836
1.537,82.4902,-0.002836
1.569,82.4902,-0.002836
1.599,82.4902,-0.002836
1.631,82.4902,-0.002836
1.662,82.4902,-0.002836
1.692,82.4902,-0.002836
1.724,82.4902,-0.002233
1.755,82.4902,-0.002233
1.787,82.4902,-0.002233
1.817,82.4902,-0.002233
1.848,82.4902,-0.002233
1.878,82.4902,-0.002233
1.909,82.4902,-0.002233
1.939,82.4902,-0.002233
1.970,82.4902,-0.001715
2.001,82.4902,-0.001715
2.032,82.4902,-0.001715
2.064,82.4902,-0.001715
2.095,82.4902,-0.001715
2.126,82.4902,-0.001715
2.158,82.4902,-0.001715
2.189,82.4902,-0.001715
2.220,82.4902,-0.001300
2.252,82.4902,-0.001300
2.284,82.4902,-0.001300
2.314,82.4902,-0.001300
2.346,82.4902,-0.001300
2.378,82.4902,-0.001300
2.408,82.4902,-0.001300
2.439,82.4902,-0.001300
2.470,82.4902,-0.000914
2.501,82.4902,-0.000914
2.532,82.4902,-0.000914
2.564,82.4902,-0.000914
2.595,82.4902,-0.000914
2.625,82.4902,-0.000914
2.656,82.4902,-0.000914
2.688,82.4902,-0.000914
2.719,82.4902,-0.000575
2.751,82.4902,-0.000575
2.782,82.4902,-0.000575
2.812,82.4902,-0.000575
2.844,82.4902,-0.000575
2.874,82.4902,-0.000575
2.905,82.4902,-0.000575
2.936,82.4902,-0.000575
2.967,82.4902,-0.000207
2.997,82.4902,-0.000207
3.029,82.4902,-0.000207
3.060,82.4902,-0.000207
3.091,82.4902,-0.000207
3.122,82.4902,-0.000207
3.153,82.4902,-0.000207
3.184,82.4902,-0.000207
3.215,82.4902,0.000085
3.247,82.4902,0.000085
3.278,82.4902,0.000085
3.309,82.4902,0.000085
3.340,82.4902,0.000085
3.371,82.4902,0.000085
3.402,82.4902,0.000085
3.433,82.4902,0.000085
3.464,82.4902,0.000085
3.495,82.4902,0.000433
3.524,82.4902,0.000433
3.555,82.4902,0.000433
3.587,82.4902,0.000433
3.618,82.4902,0.000433
3.650,82.4902,0.000433
3.681,82.4902,0.000433
3.712,82.4902,0.000433
3.743,82.4902,0.000914
3.774,82.4902,0.000914
3.805,82.4902,0.000914
3.836,82.4902,0.000914
3.868,82.4902,0.000914
3.899,82.4902,0.000914
3.929,82.4902,0.000914
3.960,82.4902,0.000914
3.991,82.4902,0.000914
4.022,82.4902,0.001404
4.053,82.4902,0.001404
4.083,82.4902,0.001404
4.114,82.4902,0.001404
4.144,82.4900,0.001404
4.176,82.4891,0.001404
4.207,82.4874,0.001762
4.239,82.4850,0.001762
4.270,82.4818,0.001762
4.302,82.4779,0.001762
4.333,82.4732,0.001762
4.364,82.4680,0.001762
4.394,82.4621,0.001762
4.426,82.4556,0.001762
4.457,82.4495,0.004409
4.488,82.4435,0.004409
4.519,82.4371,0.004409
4.550,82.4309,0.004409
4.581,82.4247,0.004409
4.614,82.4182,0.004409
4.643,82.4123,0.004409
4.674,82.4061,0.004409
4.705,82.3999,0.004409
4.737,82.3935,0.013388
4.768,82.3873,0.013388
4.800,82.3810,0.013388
4.830,82.3749,0.013388
4.862,82.3686,0.013388
4.893,82.3622,0.013388
4.925,82.3560,0.013388
4.956,82.3497,0.026032
4.988,82.3434,0.026032
5.018,82.3374,0.026032
5.048,82.3312,0.026032
5.079,82.3250,0.026032
5.111,82.3187,0.026032
5.143,82.3122,0.026032
5.173,82.3064,0.026032
5.204,82.3002,0.026032
5.235,82.2939,0.026032
5.266,82.2878,0.038629
5.297,82.2815,0.038629
5.328,82.2754,0.038629
5.358,82.2693,0.038629
5.389,82.2633,0.038629
5.419,82.2571,0.038629
5.451,82.2507,0.038629
5.482,82.2445,0.052149
5.513,82.2385,0.052149
5.544,82.2321,0.052149
5.575,82.2261,0.052149
5.607,82.2195,0.052149
5.638,82.2133,0.052149
5.670,82.2068,0.052149
5.702,82.2005,0.052149
5.733,82.1944,0.067402
5.764,82.1882,0.067402
5.795,82.1818,0.067402
5.827,82.1757,0.067402
5.859,82.1691,0.067402
5.890,82.1629,0.067402
5.921,82.1568,0.067402
5.951,82.1506,0.067402
5.982,82.1446,0.067402
6.012,82.1386,0.085077
6.043,82.1324,0.085077
6.074,82.1262,0.085077
6.104,82.1201,0.085077
6.134,82.1139,0.085077
6.165,82.1080,0.085077
6.196,82.1018,0.085077
6.227,82.0957,0.105635
6.257,82.0895,0.105635
6.289,82.0832,0.105635
6.322,82.0766,0.105635
6.351,82.0706,0.105635
6.383,82.0644,0.105635
6.414,82.0580,0.105635
6.445,82.0520,0.105635
6.477,82.0455,0.105635
6.508,82.0395,0.129245
6.538,82.0332,0.129245
6.568,82.0274,0.129245
6.599,82.0209,0.129245
6.631,82.0147,0.129245
6.663,82.0083,0.129245
6.695,82.0019,0.129245
6.726,81.9957,0.156003
6.756,81.9898,0.156003
6.787,81.9836,0.156003
6.817,81.9774,0.156003
6.848,81.9713,0.156003
6.879,81.9651,0.156003
6.911,81.9588,0.156003
6.942,81.9527,0.156003
6.973,81.9464,0.156003
7.004,81.9402,0.185455
7.035,81.9340,0.185455
7.066,81.9277,0.185455
7.098,81.9214,0.185455
7.130,81.9149,0.185455
7.160,81.9089,0.185455
7.191,81.9028,0.185455
7.222,81.8965,0.185455
7.252,81.8906,0.217639
7.284,81.8841,0.217639
7.315,81.8779,0.217639
7.347,81.8716,0.217639
7.377,81.8654,0.217639
7.408,81.8594,0.217639
7.439,81.8532,0.217639
7.470,81.8469,0.217639
7.502,81.8406,0.253366
7.532,81.8346,0.253366
7.562,81.8284,0.253366
7.593,81.8222,0.253366
7.625,81.8160,0.253366
7.656,81.8097,0.253366
7.688,81.8034,0.253366
7.719,81.7972,0.253366
7.750,81.7910,0.292428
7.782,81.7845,0.292428
7.813,81.7783,0.292428
7.845,81.7719,0.292428
7.875,81.7660,0.292428
7.908,81.7595,0.292428
7.938,81.7531,0.292428
7.970,81.7469,0.333977
8.002,81.7406,0.333977
8.033,81.7343,0.333977
8.064,81.7282,0.333977
8.094,81.7221,0.333977
8.125,81.7161,0.333977
8.155,81.7097,0.333977
8.187,81.7035,0.333977
8.218,81.6972,0.333977
8.249,81.6911,0.369270
8.280,81.6848,0.369270
8.311,81.6787,0.369270
8.344,81.6722,0.369270
8.375,81.6660,0.369270
8.406,81.6598,0.369270
8.436,81.6537,0.369270
8.466,81.6476,0.369270
8.498,81.6413,0.384175
8.528,81.6353,0.384175
8.560,81.6291,0.384175
8.590,81.6229,0.384175
8.622,81.6166,0.384175
8.653,81.6103,0.384175
8.684,81.6042,0.384175
8.715,81.5979,0.355948
8.747,81.5915,0.355948
8.778,81.5853,0.355948
8.808,81.5794,0.355948
8.839,81.5731,0.355948
8.870,81.5671,0.355948
8.901,81.5608,0.355948
8.932,81.5546,0.355948
8.963,81.5484,0.171991
8.993,81.5424,0.171991
9.023,81.5362,0.171991
9.054,81.5303,0.171991
9.085,81.5241,0.171991
9.116,81.5179,0.171991
9.147,81.5117,0.171991
9.178,81.5054,0.171991
9.209,81.4993,0.171991
9.240,81.4928,0.016818
9.271,81.4867,0.016818
9.302,81.4804,0.016818
9.333,81.4743,0.016818
9.365,81.4680,0.016818
9.396,81.4618,0.016818
9.426,81.4556,0.016818
9.457,81.4495,0.016818
9.489,81.4431,0.016818
9.520,81.4371,0.016460
9.550,81.4308,0.016460
9.581,81.4246,0.016460
9.612,81.4187,0.016460
9.643,81.4125,0.016460
9.674,81.4061,0.016460
9.705,81.3998,0.016460
9.736,81.3937,0.016375
9.767,81.3875,0.016375
9.798,81.3815,0.016375
9.828,81.3752,0.016375
9.859,81.3690,0.016375
9.890,81.3628,0.016375
9.921,81.3569,0.016375
9.952,81.3504,0.016375
9.983,81.3444,0.016365
10.015,81.3379,0.016365
10.045,81.3320,0.016365
10.076,81.3258,0.016365
10.107,81.3196,0.016365
10.140,81.3129,0.016365
10.169,81.3070,0.016365
10.201,81.3007,0.016365
10.231,81.2946,0.016441
10.262,81.2887,0.016441
10.293,81.2825,0.016441
10.323,81.2763,0.016441
10.354,81.2701,0.016441
10.386,81.2636,0.016441
10.417,81.2577,0.016441
10.448,81.2512,0.016441
10.479,81.2450,0.016441
10.511,81.2388,0.016450
10.542,81.2326,0.016450
10.573,81.2264,0.016450
10.604,81.2202,0.016450
10.635,81.2140,0.016450
10.665,81.2079,0.016450
10.697,81.2015,0.016450
10.728,81.1954,0.016450
10.759,81.1891,0.016450
10.790,81.1831,0.016450
10.821,81.1767,0.016450
10.853,81.1704,0.016450
10.883,81.1643,0.016450
10.914,81.1583,0.016450
10.945,81.1520,0.016450
10.975,81.1459,0.016535
11.007,81.1397,0.016535
11.037,81.1337,0.016535
11.068,81.1275,0.016535
11.100,81.1209,0.016535
11.130,81.1149,0.016535
11.160,81.1090,0.016535
11.191,81.1026,0.016535
11.222,81.0966,0.016554
11.253,81.0904,0.016554
11.284,81.0843,0.016554
11.314,81.0781,0.016554
11.345,81.0720,0.016554
11.375,81.0659,0.016554
11.406,81.0597,0.016554
11.437,81.0535,0.016554
11.469,81.0472,0.016544
11.500,81.0410,0.016544
11.531,81.0346,0.016544
11.563,81.0284,0.016544
11.593,81.0222,0.016544
11.624,81.0160,0.016544
11.656,81.0099,0.016544
11.687,81.0037,0.016544
11.717,80.9976,0.016657
11.748,80.9914,0.016657
11.779,80.9852,0.016657
11.811,80.9787,0.016657
11.841,80.9728,0.016657
11.873,80.9663,0.016657
11.905,80.9600,0.016657
11.935,80.9539,0.016657
11.967,80.9476,0.016752
11.998,80.9413,0.016752
12.029,80.9352,0.016752
12.060,80.9290,0.016752
12.092,80.9227,0.016752
12.122,80.9165,0.016752
12.153,80.9103,0.016752
12.185,80.9041,0.016752
12.215,80.8979,0.016846
12.246,80.8918,0.016846
12.277,80.8855,0.016846
12.309,80.8793,0.016846
12.339,80.8730,0.016846
12.371,80.8668,0.016846
12.402,80.8604,0.016846
12.433,80.8544,0.016846
12.465,80.8479,0.016940
12.497,80.8416,0.016940
12.527,80.8355,0.016940
12.559,80.8292,0.016940
12.591,80.8225,0.016940
12.621,80.8166,0.016940
12.652,80.8107,0.016940
12.683,80.8044,0.016940
12.715,80.7982,0.017034
12.745,80.7918,0.017034
12.776,80.7858,0.017034
12.807,80.7797,0.017034
12.837,80.7735,0.017034
12.868,80.7673,0.017034
12.901,80.7608,0.017034
12.931,80.7548,0.017034
12.961,80.7488,0.017034
12.993,80.7425,0.017034
13.024,80.7363,0.017138
13.056,80.7300,0.017138
13.086,80.7239,0.017138
13.118,80.7174,0.017138
13.149,80.7112,0.017138
13.180,80.7050,0.017138
13.212,80.6986,0.017138
13.241,80.6927,0.017138
13.273,80.6865,0.017176
13.303,80.6803,0.017176
13.334,80.6743,0.017176
13.364,80.6681,0.017176
13.396,80.6617,0.017176
13.427,80.6555,0.017176
13.459,80.6493,0.017176
13.490,80.6430,0.017176
13.521,80.6368,0.017204
13.551,80.6307,0.017204
13.583,80.6245,0.017204
13.614,80.6181,0.017204
13.646,80.6118,0.017204
13.678,80.6054,0.017204
13.709,80.5992,0.017204
13.739,80.5932,0.017204
13.770,80.5871,0.017251
13.801,80.5808,0.017251
13.834,80.5742,0.017251
13.864,80.5681,0.017251
13.897,80.5617,0.017251
13.927,80.5557,0.017251
13.957,80.5496,0.017251
13.988,80.5434,0.017251
14.021,80.5369,0.017326
14.050,80.5310,0.017326
14.082,80.5246,0.017326
14.111,80.5187,0.017326
14.143,80.5124,0.017326
14.174,80.5061,0.017326
14.205,80.4999,0.017326
14.237,80.4936,0.017326
14.268,80.4875,0.017421
14.300,80.4812,0.017421
14.330,80.4750,0.017421
14.360,80.4688,0.017421
14.392,80.4626,0.017421
14.422,80.4565,0.017421
14.453,80.4503,0.017421
14.484,80.4441,0.017496
14.516,80.4378,0.017496
14.546,80.4318,0.017496
14.577,80.4256,0.017496
14.608,80.4194,0.017496
14.639,80.4133,0.017496
14.670,80.4071,0.017496
14.701,80.4009,0.017496
14.731,80.3947,0.017496
14.763,80.3885,0.017600
14.794,80.3822,0.017600
14.825,80.3761,0.017600
14.856,80.3697,0.017600
14.888,80.3635,0.017600
14.920,80.3570,0.017600
14.951,80.3508,0.017600
14.982,80.3445,0.017656
15.014,80.3382,0.017656
15.045,80.3320,0.017656
15.076,80.3258,0.017656
15.107,80.3197,0.017656
15.138,80.3134,0.017656
15.169,80.3072,0.017656
15.201,80.3008,0.017656
15.230,80.2950,0.017656
15.261,80.2888,0.017731
15.292,80.2827,0.017731
15.322,80.2767,0.017731
15.354,80.2702,0.017731
15.386,80.2639,0.017731
15.415,80.2579,0.017731
15.446,80.2518,0.017731
15.477,80.2456,0.017731
15.510,80.2391,0.017769
15.539,80.2332,0.017769
15.570,80.2270,0.017769
15.600,80.2211,0.017769
15.631,80.2146,0.017769
15.663,80.2084,0.017769
15.693,80.2022,0.017769
15.725,80.1960,0.017769
15.756,80.1897,0.017807
15.787,80.1835,0.017807
15.818,80.1773,0.017807
15.849,80.1711,0.017807
15.881,80.1648,0.017807
15.912,80.1586,0.017807
15.943,80.1525,0.017807
15.973,80.1463,0.017948
16.004,80.1401,0.017948
16.036,80.1337,0.017948
16.067,80.1276,0.017948
16.099,80.1212,0.017948
16.129,80.1150,0.017948
16.161,80.1087,0.017948
16.192,80.1026,0.017948
16.223,80.0964,0.018005
16.253,80.0904,0.018005
16.284,80.0842,0.018005
16.314,80.0781,0.018005
16.346,80.0719,0.018005
16.377,80.0657,0.018005
16.408,80.0595,0.018005
16.439,80.0533,0.018005
16.470,80.0470,0.018005
16.501,80.0409,0.018080
16.532,80.0344,0.018080
16.563,80.0284,0.018080
16.594,80.0220,0.018080
16.625,80.0161,0.018080
16.656,80.0096,0.018080
16.687,80.0034,0.018080
16.719,79.9971,0.018165
16.752,79.9905,0.018165
16.781,79.9847,0.018165
16.813,79.9785,0.018165
16.844,79.9722,0.018165
16.875,79.9661,0.018165
16.906,79.9598,0.018165
16.937,79.9536,0.018165
16.968,79.9475,0.018165
16.998,79.9414,0.018212
17.030,79.9351,0.018212
17.061,79.9289,0.018212
17.091,79.9227,0.018212
17.122,79.9166,0.018212
17.154,79.9102,0.018212
17.185,79.9041,0.018212
17.216,79.8978,0.018325
17.247,79.8914,0.018325
17.279,79.8852,0.018325
17.310,79.8792,0.018325
17.341,79.8728,0.018325
17.371,79.8668,0.018325
17.402,79.8604,0.018325
17.433,79.8545,0.018325
17.464,79.8481,0.018325
17.495,79.8422,0.018419
17.526,79.8357,0.018419
17.556,79.8298,0.018419
17.588,79.8232,0.018419
17.619,79.8171,0.018419
17.651,79.8108,0.018419
17.682,79.8046,0.018419
17.713,79.7985,0.018419
17.743,79.7925,0.018438
17.775,79.7860,0.018438
17.805,79.7798,0.018438
17.837,79.7736,0.018438
17.868,79.7675,0.018438
17.899,79.7613,0.018438
17.930,79.7551,0.018438
17.961,79.7489,0.018438
17.991,79.7429,0.018476
18.022,79.7364,0.018476
18.053,79.7305,0.018476
18.083,79.7244,0.018476
18.114,79.7183,0.018476
18.144,79.7121,0.018476
18.175,79.7061,0.018476
18.206,79.6997,0.018561
18.237,79.6936,0.018561
18.268,79.6873,0.018561
18.300,79.6810,0.018561
18.331,79.6749,0.018561
18.362,79.6684,0.018561
18.394,79.6622,0.018561
18.425,79.6560,0.018561
18.456,79.6497,0.018579
18.487,79.6436,0.018579
18.518,79.6374,0.018579
18.549,79.6314,0.018579
18.580,79.6250,0.018579
18.611,79.6190,0.018579
18.641,79.6129,0.018579
18.673,79.6064,0.018579
18.704,79.6002,0.018579
18.736,79.5939,0.018617
18.767,79.5876,0.018617
18.799,79.5813,0.018617
18.829,79.5752,0.018617
18.861,79.5690,0.018617
18.893,79.5624,0.018617
18.924,79.5563,0.018617
18.955,79.5499,0.018617
18.987,79.5437,0.018655
19.020,79.5371,0.018655
19.050,79.5310,0.018655
19.081,79.5247,0.018655
19.113,79.5185,0.018655
19.144,79.5122,0.018655
19.175,79.5061,0.018655
19.206,79.4998,0.018768
19.238,79.4933,0.018768
19.269,79.4872,0.018768
19.299,79.4813,0.018768
19.330,79.4750,0.018768
19.361,79.4689,0.018768
19.393,79.4626,0.018768
19.423,79.4575,0.018768
19.453,79.4528,0.018768
19.484,79.4490,0.018853
19.515,79.4458,0.018853
19.545,79.4433,0.018853
19.576,79.4416,0.018853
19.607,79.4406,0.018853
19.638,79.4402,0.018853
19.669,79.4402,0.018853
19.700,79.4402,0.018853
19.732,79.4402,0.018853
19.764,79.4402,0.018702
19.795,79.4406,0.018702
19.826,79.4416,0.018702
19.858,79.4433,0.018702
19.889,79.4458,0.018702
19.919,79.4490,0.018702
19.950,79.4530,0.018702
19.982,79.4577,0.018702
20.014,79.4634,0.018476
20.043,79.4693,0.018476
20.074,79.4751,0.018476
20.104,79.4813,0.018476
20.137,79.4879,0.018476
20.166,79.4938,0.018476
20.198,79.4999,0.018476
20.228,79.5061,0.018231
20.259,79.5124,0.018231
20.290,79.5185,0.018231
20.321,79.5246,0.018231
20.352,79.5309,0.018231
20.383,79.5370,0.018231
20.413,79.5431,0.018231
20.447,79.5499,0.018231
20.476,79.5557,0.018042
20.506,79.5617,0.018042
20.537,79.5679,0.018042
20.568,79.5741,0.018042
20.599,79.5803,0.018042
20.630,79.5863,0.018042
20.661,79.5928,0.018042
20.692,79.5989,0.018042
20.723,79.6049,0.017910
20.754,79.6113,0.017910
20.785,79.6173,0.017910
20.817,79.6238,0.017910
20.848,79.6299,0.017910
20.879,79.6363,0.017910
20.910,79.6424,0.017910
20.941,79.6487,0.017910
20.972,79.6548,0.017863
21.004,79.6611,0.017863
21.034,79.6672,0.017863
21.065,79.6735,0.017863
21.096,79.6796,0.017863
21.127,79.6859,0.017863
21.158,79.6920,0.017863
21.190,79.6985,0.017863
21.221,79.7045,0.017835
21.252,79.7109,0.017835
21.283,79.7169,0.017835
21.314,79.7231,0.017835
21.344,79.7292,0.017835
21.376,79.7357,0.017835
21.408,79.7421,0.017835
21.438,79.7482,0.017835
21.469,79.7541,0.017694
21.501,79.7606,0.017694
21.531,79.7667,0.017694
21.561,79.7727,0.017694
21.592,79.7787,0.017694
21.623,79.7849,0.017694
21.654,79.7912,0.017694
21.685,79.7975,0.017694
21.716,79.8036,0.017581
21.748,79.8100,0.017581
21.780,79.8163,0.017581
21.810,79.8225,0.017581
21.841,79.8287,0.017581
21.874,79.8351,0.017581
21.905,79.8413,0.017581
21.935,79.8474,0.017581
21.967,79.8537,0.017486
21.998,79.8599,0.017486
22.029,79.8664,0.017486
22.061,79.8726,0.017486
22.092,79.8788,0.017486
22.123,79.8850,0.017486
22.154,79.8913,0.017486
22.184,79.8973,0.017486
22.215,79.9033,0.017486
22.246,79.9097,0.017392
22.277,79.9159,0.017392
22.308,79.9219,0.017392
22.339,79.9283,0.017392
22.370,79.9345,0.017392
22.402,79.9408,0.017392
22.433,79.9470,0.017392
22.464,79.9533,0.017392
22.495,79.9593,0.017298
22.526,79.9657,0.017298
22.557,79.9717,0.017298
22.587,79.9780,0.017298
22.618,79.9841,0.017298
22.649,79.9903,0.017298
22.680,79.9964,0.017298
22.711,80.0028,0.017298
22.742,80.0089,0.017166
22.774,80.0153,0.017166
22.805,80.0214,0.017166
22.836,80.0279,0.017166
22.868,80.0339,0.017166
22.900,80.0405,0.017166
22.931,80.0466,0.017166
22.962,80.0529,0.017166
22.994,80.0591,0.017081
23.025,80.0654,0.017081
23.056,80.0715,0.017081
23.087,80.0778,0.017081
23.118,80.0840,0.017081
23.149,80.0902,0.017081
23.181,80.0967,0.017081
23.211,80.1029,0.016987
23.243,80.1090,0.016987
23.274,80.1153,0.016987
23.305,80.1215,0.016987
23.336,80.1277,0.016987
23.367,80.1337,0.016987
23.398,80.1399,0.016987
23.429,80.1462,0.016987
23.459,80.1521,0.016987
23.490,80.1583,0.016846
23.521,80.1647,0.016846
23.553,80.1710,0.016846
23.584,80.1771,0.016846
23.615,80.1834,0.016846
23.648,80.1901,0.016846
23.678,80.1959,0.016846
23.709,80.2024,0.016846
23.741,80.2086,0.016761
23.772,80.2148,0.016761
23.801,80.2207,0.016761
23.832,80.2268,0.016761
23.863,80.2329,0.016761
23.894,80.2391,0.016761
23.924,80.2453,0.016761
23.956,80.2515,0.016761
23.986,80.2576,0.016667
24.016,80.2636,0.016667
24.048,80.2700,0.016667
24.079,80.2763,0.016667
24.111,80.2826,0.016667
24.142,80.2887,0.016667
24.172,80.2949,0.016667
24.203,80.3012,0.016563
24.234,80.3070,0.016563
24.264,80.3132,0.016563
24.298,80.3199,0.016563
24.326,80.3255,0.016563
24.357,80.3320,0.016563
24.388,80.3380,0.016563
24.419,80.3444,0.016563
24.451,80.3506,0.016563
24.482,80.3569,0.016460
24.512,80.3630,0.016460
24.543,80.3692,0.016460
24.575,80.3754,0.016460
24.606,80.3817,0.016460
24.637,80.3878,0.016460
24.668,80.3942,0.016460
24.700,80.4003,0.016460
24.731,80.4065,0.016262
24.761,80.4127,0.016262
24.792,80.4188,0.016262
24.823,80.4252,0.016262
24.854,80.4312,0.016262
24.886,80.4375,0.016262
24.916,80.4437,0.016262
24.948,80.4500,0.016262
24.980,80.4564,0.016149
25.009,80.4623,0.016149
25.040,80.4684,0.016149
25.070,80.4743,0.016149
25.101,80.4805,0.016149
25.132,80.4866,0.016149
25.162,80.4929,0.016149
25.193,80.4990,0.016149
25.225,80.5055,0.016149
25.257,80.5117,0.016092
25.287,80.5179,0.016092
25.319,80.5242,0.016092
25.349,80.5303,0.016092
25.380,80.5364,0.016092
25.411,80.5426,0.016092
25.442,80.5486,0.016092
25.473,80.5551,0.016092
25.503,80.5610,0.016007
25.535,80.5674,0.016007
25.565,80.5734,0.016007
25.596,80.5798,0.016007
25.627,80.5858,0.016007
25.658,80.5922,0.016007
25.690,80.5985,0.016007
25.722,80.6049,0.016007
25.754,80.6111,0.015904
25.786,80.6177,0.015904
25.817,80.6237,0.015904
25.849,80.6301,0.015904
25.878,80.6359,0.015904
25.909,80.6421,0.015904
25.941,80.6486,0.015904
25.972,80.6548,0.015753
26.002,80.6610,0.015753
26.033,80.6671,0.015753
26.064,80.6732,0.015753
26.095,80.6796,0.015753
26.126,80.6856,0.015753
26.156,80.6916,0.015753
26.188,80.6981,0.015753
26.220,80.7044,0.015630
26.251,80.7105,0.015630
26.282,80.7167,0.015630
26.313,80.7230,0.015630
26.344,80.7292,0.015630
26.376,80.7357,0.015630
26.406,80.7416,0.015630
26.438,80.7479,0.015630
26.469,80.7541,0.015499
26.500,80.7605,0.015499
26.531,80.7667,0.015499
26.562,80.7727,0.015499
26.593,80.7789,0.015499
26.624,80.7854,0.015499
26.656,80.7915,0.015499
26.687,80.7978,0.015499
26.719,80.8041,0.015348
26.748,80.8102,0.015348
26.780,80.8164,0.015348
26.812,80.8227,0.015348
26.842,80.8288,0.015348
26.874,80.8351,0.015348
26.904,80.8411,0.015348
26.935,80.8475,0.015348
26.966,80.8535,0.015348
26.997,80.8597,0.015348
27.026,80.8656,0.015225
27.058,80.8718,0.015225
27.088,80.8782,0.015225
27.119,80.8842,0.015225
27.150,80.8903,0.015225
27.181,80.8966,0.015225
27.212,80.9027,0.015225
27.243,80.9090,0.015225
27.275,80.9154,0.015093
27.306,80.9216,0.015093
27.338,80.9279,0.015093
27.369,80.9342,0.015093
27.400,80.9404,0.015093
27.432,80.9467,0.015093
27.466,80.9537,0.015093
27.494,80.9592,0.015093
27.526,80.9655,0.014943
27.557,80.9719,0.014943
27.589,80.9781,0.014943
27.620,80.9843,0.014943
27.651,80.9904,0.014943
27.681,80.9967,0.014943
27.712,81.0027,0.014943
27.743,81.0091,0.014754
27.774,81.0151,0.014754
27.805,81.0213,0.014754
27.836,81.0275,0.014754
27.866,81.0336,0.014754
27.898,81.0399,0.014754
27.928,81.0460,0.014754
27.959,81.0522,0.014754
27.991,81.0585,0.014754
28.021,81.0646,0.014613
28.053,81.0709,0.014613
28.083,81.0772,0.014613
28.114,81.0832,0.014613
28.145,81.0894,0.014613
28.176,81.0956,0.014613
28.207,81.1018,0.014613
28.238,81.1081,0.014519
28.269,81.1142,0.014519
28.299,81.1204,0.014519
28.331,81.1265,0.014519
28.361,81.1328,0.014519
28.393,81.1390,0.014519
28.424,81.1453,0.014519
28.457,81.1518,0.014519
28.487,81.1578,0.014519
28.518,81.1640,0.014330
28.549,81.1704,0.014330
28.581,81.1766,0.014330
28.612,81.1829,0.014330
28.643,81.1890,0.014330
28.674,81.1952,0.014330
28.705,81.2012,0.014330
28.736,81.2074,0.014198
28.767,81.2140,0.014198
28.798,81.2200,0.014198
28.829,81.2262,0.014198
28.860,81.2325,0.014198
28.891,81.2385,0.014198
28.921,81.2447,0.014198
28.953,81.2509,0.014198
28.984,81.2571,0.014198
29.015,81.2633,0.014095
29.045,81.2695,0.014095
29.077,81.2758,0.014095
29.108,81.2820,0.014095
29.140,81.2883,0.014095
29.171,81.2946,0.014095
29.203,81.3008,0.014095
29.234,81.3072,0.014095
29.264,81.3131,0.013991
29.295,81.3194,0.013991
29.326,81.3255,0.013991
29.357,81.3317,0.013991
29.388,81.3380,0.013991
29.418,81.3441,0.013991
29.450,81.3504,0.013991
29.481,81.3565,0.013991
29.511,81.3628,0.013869
29.542,81.3688,0.013869
29.574,81.3751,0.013869
29.604,81.3813,0.013869
29.635,81.3875,0.013869
29.666,81.3936,0.013869
29.697,81.3997,0.013869
29.728,81.4059,0.013661
29.759,81.4121,0.013661
29.790,81.4185,0.013661
29.821,81.4246,0.013661
29.852,81.4307,0.013661
29.883,81.4370,0.013661
29.914,81.4432,0.013661
29.945,81.4493,0.013661
29.976,81.4556,0.013520
30.006,81.4616,0.013520
30.038,81.4679,0.013520
30.069,81.4741,0.013520
30.100,81.4803,0.013520
30.130,81.4864,0.013520
30.161,81.4926,0.013520
30.193,81.4989,0.013520
30.224,81.5051,0.013398
30.256,81.5116,0.013398
30.287,81.5178,0.013398
30.319,81.5242,0.013398
30.350,81.5304,0.013398
30.382,81.5369,0.013398
30.413,81.5431,0.013398
30.444,81.5493,0.013398
30.476,81.5555,0.013247
30.507,81.5617,0.013247
30.537,81.5677,0.013247
30.568,81.5742,0.013247
30.599,81.5803,0.013247
30.630,81.5865,0.013247
30.661,81.5927,0.013247
30.692,81.5989,0.013247
30.724,81.6051,0.013247
30.754,81.6113,0.013077
30.786,81.6176,0.013077
30.818,81.6240,0.013077
30.849,81.6301,0.013077
30.881,81.6366,0.013077
30.912,81.6429,0.013077
30.943,81.6490,0.013077
30.975,81.6553,0.013077
31.006,81.6616,0.012955
31.035,81.6674,0.012955
31.066,81.6737,0.012955
31.097,81.6797,0.012955
31.128,81.6861,0.012955
31.159,81.6923,0.012955
31.190,81.6985,0.012955
31.222,81.7047,0.012776
31.253,81.7110,0.012776
31.284,81.7172,0.012776
31.316,81.7236,0.012776
31.346,81.7296,0.012776
31.377,81.7357,0.012776
31.408,81.7420,0.012776
31.439,81.7482,0.012776
31.470,81.7545,0.012597
31.502,81.7607,0.012597
31.532,81.7668,0.012597
31.563,81.7730,0.012597
31.594,81.7792,0.012597
31.626,81.7855,0.012597
31.656,81.7915,0.012597
31.688,81.7979,0.012597
31.718,81.8041,0.012399
31.748,81.8100,0.012399
31.780,81.8163,0.012399
31.811,81.8226,0.012399
31.841,81.8286,0.012399
31.873,81.8350,0.012399
31.904,81.8411,0.012399
31.936,81.8475,0.012399
31.966,81.8535,0.012399
31.997,81.8598,0.012144
32.027,81.8658,0.012144
32.058,81.8721,0.012144
32.089,81.8780,0.012144
32.119,81.8842,0.012144
32.150,81.8903,0.012144
32.181,81.8968,0.012144
32.213,81.9028,0.011918
32.243,81.9089,0.011918
32.273,81.9149,0.011918
32.304,81.9211,0.011918
32.336,81.9275,0.011918
32.368,81.9340,0.011918
32.399,81.9401,0.011918
32.430,81.9464,0.011918
32.461,81.9525,0.011918
32.492,81.9588,0.011598
32.523,81.9649,0.011598
32.553,81.9711,0.011598
32.584,81.9773,0.011598
32.616,81.9836,0.011598
32.646,81.9897,0.011598
32.677,81.9959,0.011598
32.709,82.0021,0.011598
32.740,82.0085,0.011193
32.772,82.0147,0.011193
32.803,82.0210,0.011193
32.835,82.0272,0.011193
32.865,82.0334,0.011193
32.896,82.0396,0.011193
32.928,82.0458,0.011193
32.959,82.0523,0.011193
32.989,82.0581,0.010618
33.020,82.0644,0.010618
33.051,82.0706,0.010618
33.082,82.0767,0.010618
33.113,82.0828,0.010618
33.144,82.0891,0.010618
33.175,82.0953,0.010618
33.205,82.1015,0.010618
33.237,82.1079,0.009968
33.269,82.1143,0.009968
33.300,82.1204,0.009968
33.332,82.1267,0.009968
33.362,82.1328,0.009968
33.394,82.1392,0.009968
33.425,82.1456,0.009968
33.456,82.1515,0.009073
33.487,82.1576,0.009073
33.518,82.1639,0.009073
33.548,82.1700,0.009073
33.579,82.1763,0.009073
33.609,82.1821,0.009073
33.641,82.1885,0.009073
33.671,82.1945,0.009073
33.702,82.2009,0.009073
33.733,82.2070,0.009073
33.764,82.2134,0.007697
33.796,82.2195,0.007697
33.825,82.2254,0.007697
33.856,82.2316,0.007697
33.887,82.2378,0.007697
33.919,82.2443,0.007697
33.950,82.2504,0.007697
33.982,82.2567,0.007697
34.012,82.2626,0.005973
34.043,82.2688,0.005973
34.074,82.2753,0.005973
34.105,82.2814,0.005973
34.136,82.2878,0.005973
34.167,82.2936,0.005973
34.198,82.3000,0.005973
34.229,82.3063,0.005973
34.260,82.3124,0.003637
34.291,82.3187,0.003637
34.322,82.3248,0.003637
34.354,82.3312,0.003637
34.385,82.3372,0.003637
34.416,82.3436,0.003637
34.447,82.3497,0.003637
34.477,82.3559,0.003637
34.507,82.3617,0.000367
34.539,82.3682,0.000367
34.570,82.3741,0.000367
34.600,82.3803,0.000367
34.632,82.3868,0.000367
34.664,82.3931,0.000367
34.694,82.3992,0.000367
34.726,82.4055,0.000367
34.756,82.4116,-0.003976
34.788,82.4177,-0.003976
34.819,82.4230,-0.003976
34.849,82.4277,-0.003976
34.880,82.4316,-0.003976
34.911,82.4348,-0.003976
34.942,82.4371,-0.003976
34.974,82.4390,-0.003976
35.005,82.4400,-0.009337
35.037,82.4402,-0.009337
35.068,82.4402,-0.009337
35.099,82.4402,-0.009337
35.130,82.4402,-0.009337
35.161,82.4402,-0.009337
35.193,82.4402,-0.009337
35.224,82.4402,-0.009337
35.255,82.4402,-0.009337
35.285,82.4402,-0.011702
35.316,82.4402,-0.011702
35.346,82.4402,-0.011702
35.377,82.4402,-0.011702
35.408,82.4402,-0.011702
35.439,82.4402,-0.011702
35.470,82.4402,-0.011702
35.502,82.4402,-0.009761
35.534,82.4402,-0.009761
35.565,82.4402,-0.009761
35.596,82.4402,-0.009761
35.628,82.4402,-0.009761
35.660,82.4402,-0.009761
35.692,82.4402,-0.009761
35.721,82.4402,-0.007387
35.753,82.4402,-0.007387
35.785,82.4402,-0.007387
35.816,82.4402,-0.007387
35.846,82.4402,-0.007387
35.878,82.4402,-0.007387
35.908,82.4402,-0.007387
35.939,82.4402,-0.007387
35.970,82.4402,-0.007387
36.002,82.4402,-0.005813
36.033,82.4402,-0.005813
36.064,82.4402,-0.005813
36.094,82.4402,-0.005813
36.125,82.4402,-0.005813
36.156,82.4402,-0.005813
36.187,82.4402,-0.005813
36.219,82.4402,-0.005813
36.250,82.4402,-0.004654
36.281,82.4402,-0.004654
36.312,82.4402,-0.004654
36.344,82.4402,-0.004654
36.375,82.4402,-0.004654
36.406,82.4402,-0.004654
36.437,82.4402,-0.004654
36.468,82.4402,-0.003731
36.499,82.4402,-0.003731
36.531,82.4402,-0.003731
36.561,82.4402,-0.003731
36.592,82.4402,-0.003731
36.623,82.4402,-0.003731
36.654,82.4402,-0.003731
36.686,82.4402,-0.003731
36.717,82.4402,-0.003731
36.749,82.4402,-0.002930
36.780,82.4402,-0.002930
36.811,82.4402,-0.002930
36.842,82.4402,-0.002930
36.873,82.4402,-0.002930
36.905,82.4402,-0.002930
36.937,82.4402,-0.002930
36.967,82.4402,-0.002223
36.998,82.4402,-0.002223
37.029,82.4402,-0.002223
37.060,82.4402,-0.002223
37.091,82.4402,-0.002223
37.122,82.4402,-0.002223
37.154,82.4402,-0.002223
37.185,82.4402,-0.002223
37.216,82.4402,-0.002223
37.248,82.4402,-0.001639
37.279,82.4402,-0.001639
37.309,82.4402,-0.001639
37.340,82.4402,-0.001639
37.373,82.4402,-0.001639
37.402,82.4402,-0.001639
37.433,82.4402,-0.001639
37.465,82.4402,-0.001639
37.497,82.4402,-0.001083
37.528,82.4402,-0.001083
37.558,82.4402,-0.001083
37.590,82.4402,-0.001083
37.621,82.4402,-0.001083
37.652,82.4402,-0.001083
37.682,82.4402,-0.001083
37.714,82.4402,-0.000603
37.745,82.4402,-0.000603
37.776,82.4402,-0.000603
37.808,82.4402,-0.000603
37.839,82.4402,-0.000603
37.869,82.4402,-0.000603
37.900,82.4402,-0.000603
37.931,82.4402,-0.000603
37.962,82.4402,-0.000603
37.994,82.4402,-0.000170
38.025,82.4402,-0.000170
38.056,82.4402,-0.000170
38.087,82.4402,-0.000170
38.117,82.4402,-0.000170
38.148,82.4402,-0.000170
38.180,82.4402,-0.000170
38.211,82.4402,0.000207
38.242,82.4402,0.000207
38.273,82.4402,0.000207
38.304,82.4402,0.000207
38.335,82.4402,0.000207
38.366,82.4402,0.000207
38.398,82.4402,0.000207
38.428,82.4402,0.000207
38.459,82.4402,0.000546
38.490,82.4402,0.000546
38.522,82.4402,0.000546
38.552,82.4402,0.000546
38.583,82.4402,0.000546
38.614,82.4402,0.000546
38.644,82.4402,0.000546
38.676,82.4402,0.000546
38.707,82.4402,0.000546
38.738,82.4402,0.000904
38.770,82.4402,0.000904
38.800,82.4402,0.000904
38.832,82.4402,0.000904
38.864,82.4402,0.000904
38.895,82.4402,0.000904
38.926,82.4402,0.000904
38.957,82.4402,0.001215
38.988,82.4402,0.001215
39.019,82.4402,0.001215
39.050,82.4402,0.001215
39.082,82.4402,0.001215
39.113,82.4402,0.001215
39.143,82.4402,0.001215
39.175,82.4402,0.001215
39.206,82.4402,0.001215
39.237,82.4402,0.001583
39.269,82.4402,0.001583
39.300,82.4402,0.001583
39.330,82.4402,0.001583
39.362,82.4402,0.001583
39.393,82.4402,0.001583
39.425,82.4402,0.001583
39.456,82.4402,0.002073
39.488,82.4402,0.002073
39.519,82.4402,0.002073
39.551,82.4402,0.002073
39.582,82.4402,0.002073
39.612,82.4402,0.002073
39.643,82.4402,0.002073
39.674,82.4402,0.002073
39.704,82.4397,0.002073
39.736,82.4385,0.002450
39.766,82.4366,0.002450
39.797,82.4340,0.002450
39.827,82.4307,0.002450
39.859,82.4265,0.002450
39.891,82.4216,0.002450
39.921,82.4161,0.002450
39.952,82.4100,0.002450
39.983,82.4037,0.004089
40.014,82.3973,0.004089
40.046,82.3912,0.004089
40.076,82.3853,0.004089
40.106,82.3791,0.004089
40.137,82.3730,0.004089
40.168,82.3667,0.004089
40.199,82.3606,0.004089
40.230,82.3543,0.004089
40.261,82.3482,0.011965
40.292,82.3420,0.011965
40.322,82.3359,0.011965
40.353,82.3297,0.011965
40.385,82.3234,0.011965
40.416,82.3172,0.011965
40.448,82.3109,0.011965
40.479,82.3044,0.024487
40.510,82.2984,0.024487
40.542,82.2920,0.024487
40.573,82.2858,0.024487
40.604,82.2796,0.024487
40.635,82.2733,0.024487
40.666,82.2672,0.024487
40.697,82.2609,0.024487
40.727,82.2549,0.037102
40.758,82.2487,0.037102
40.789,82.2427,0.037102
40.819,82.2365,0.037102
40.850,82.2304,0.037102
40.882,82.2241,0.037102
40.914,82.2176,0.037102
40.945,82.2113,0.037102
40.976,82.2052,0.050490
41.008,82.1988,0.050490
41.040,82.1924,0.050490
41.071,82.1860,0.050490
41.103,82.1797,0.050490
41.134,82.1735,0.050490
41.165,82.1674,0.050490
41.197,82.1609,0.050490
41.228,82.1547,0.065490
41.259,82.1484,0.065490
41.290,82.1425,0.065490
41.321,82.1361,0.065490
41.353,82.1298,0.065490
41.384,82.1235,0.065490
41.415,82.1174,0.065490
41.446,82.1112,0.065490
41.477,82.1050,0.082919
41.509,82.0987,0.082919
41.540,82.0925,0.082919
41.571,82.0860,0.082919
41.602,82.0801,0.082919
41.633,82.0737,0.082919
41.665,82.0674,0.082919
41.696,82.0611,0.082919
41.727,82.0550,0.103148
41.758,82.0488,0.103148
41.789,82.0426,0.103148
41.821,82.0363,0.103148
41.852,82.0301,0.103148
41.882,82.0240,0.103148
41.912,82.0181,0.103148
41.944,82.0116,0.103148
41.974,82.0055,0.126438
42.005,81.9995,0.126438
42.037,81.9930,0.126438
42.068,81.9866,0.126438
42.098,81.9807,0.126438
42.129,81.9744,0.126438
42.160,81.9685,0.126438
42.191,81.9623,0.126438
42.222,81.9559,0.153129
42.253,81.9497,0.153129
42.284,81.9434,0.153129
42.316,81.9372,0.153129
42.347,81.9309,0.153129
42.379,81.9244,0.153129
42.409,81.9186,0.153129
42.439,81.9125,0.153129
42.471,81.9063,0.183420
42.501,81.9001,0.183420
42.533,81.8938,0.183420
42.565,81.8873,0.183420
42.597,81.8810,0.183420
42.628,81.8748,0.183420
42.658,81.8687,0.183420
42.689,81.8625,0.183420
42.721,81.8563,0.217385
42.752,81.8499,0.217385
42.783,81.8439,0.217385
42.814,81.8376,0.217385
42.845,81.8314,0.217385
42.875,81.8253,0.217385
42.906,81.8189,0.217385
42.937,81.8131,0.217385
42.967,81.8070,0.217385
42.999,81.8007,0.217385
43.029,81.7946,0.255193
43.061,81.7882,0.255193
43.092,81.7820,0.255193
43.123,81.7757,0.255193
43.154,81.7696,0.255193
43.186,81.7633,0.255193
43.217,81.7569,0.296959
43.249,81.7505,0.296959
43.280,81.7445,0.296959
43.310,81.7383,0.296959
43.341,81.7322,0.296959
43.372,81.7260,0.296959
43.403,81.7198,0.296959
43.434,81.7136,0.296959
43.465,81.7074,0.296959
43.495,81.7014,0.342343
43.527,81.6949,0.342343
43.559,81.6887,0.342343
43.590,81.6822,0.342343
43.622,81.6761,0.342343
43.654,81.6697,0.342343
43.685,81.6635,0.342343
43.716,81.6572,0.342343
43.748,81.6510,0.390978
43.779,81.6446,0.390978
43.809,81.6386,0.390978
43.840,81.6324,0.390978
43.870,81.6263,0.390978
43.901,81.6201,0.390978
43.932,81.6140,0.390978
43.963,81.6078,0.390978
43.995,81.6015,0.442005
44.026,81.5950,0.442005
44.056,81.5891,0.442005
44.087,81.5830,0.442005
44.118,81.5768,0.442005
44.149,81.5707,0.442005
44.180,81.5644,0.442005
44.211,81.5582,0.442005
44.243,81.5519,0.494342
44.275,81.5455,0.494342
44.306,81.5393,0.494342
44.337,81.5331,0.494342
44.368,81.5268,0.494342
44.400,81.5205,0.494342
44.431,81.5143,0.494342
44.461,81.5081,0.547093
44.492,81.5020,0.547093
44.523,81.4957,0.547093
44.554,81.4896,0.547093
44.585,81.4835,0.547093
44.616,81.4772,0.547093
44.647,81.4710,0.547093
44.678,81.4648,0.547093
44.708,81.4587,0.547093
44.740,81.4523,0.598403
44.772,81.4461,0.598403
44.803,81.4396,0.598403
44.835,81.4334,0.598403
44.866,81.4271,0.598403
44.897,81.4209,0.598403
44.929,81.4144,0.598403
44.960,81.4085,0.598403
44.991,81.4020,0.612621
45.022,81.3961,0.612621
45.053,81.3899,0.612621
45.084,81.3837,0.612621
45.115,81.3775,0.612621
45.146,81.3712,0.612621
45.177,81.3651,0.612621
45.208,81.3588,0.309886
45.239,81.3527,0.309886
45.270,81.3465,0.309886
45.301,81.3403,0.309886
45.332,81.3341,0.309886
45.363,81.3277,0.309886
45.394,81.3215,0.309886
45.425,81.3155,0.309886
45.455,81.3093,0.309886
45.487,81.3031,0.017326
45.518,81.2966,0.017326
45.550,81.2905,0.017326
45.581,81.2842,0.017326
45.612,81.2780,0.017326
45.643,81.2718,0.017326
45.673,81.2657,0.017326
45.704,81.2597,0.016657
45.735,81.2533,0.016657
45.766,81.2470,0.016657
45.798,81.2409,0.016657
45.829,81.2344,0.016657
45.861,81.2283,0.016657
45.892,81.2221,0.016657
45.922,81.2160,0.016657
45.953,81.2097,0.016657
45.984,81.2036,0.016601
46.016,81.1972,0.016601
46.047,81.1910,0.016601
46.078,81.1847,0.016601
46.110,81.1785,0.016601
46.142,81.1720,0.016601
46.173,81.1657,0.016601
46.203,81.1598,0.016601
46.234,81.1537,0.016591
46.265,81.1474,0.016591
46.296,81.1411,0.016591
46.326,81.1351,0.016591
46.359,81.1287,0.016591
46.389,81.1227,0.016591
46.419,81.1167,0.016591
46.450,81.1105,0.016591
46.481,81.1044,0.016582
46.512,81.0981,0.016582
46.543,81.0919,0.016582
46.573,81.0857,0.016582
46.603,81.0798,0.016582
46.635,81.0734,0.016582
46.666,81.0673,0.016582
46.698,81.0609,0.016582
46.730,81.0545,0.016629
46.760,81.0484,0.016629
46.790,81.0424,0.016629
46.822,81.0359,0.016629
46.854,81.0296,0.016629
46.885,81.0234,0.016629
46.917,81.0169,0.016629
46.948,81.0109,0.016629
46.978,81.0047,0.016629
47.009,80.9986,0.016733
47.041,80.9921,0.016733
47.073,80.9858,0.016733
47.104,80.9796,0.016733
47.135,80.9735,0.016733
47.166,80.9673,0.016733
47.196,80.9610,0.016733
47.227,80.9551,0.016733
47.258,80.9489,0.016799
47.289,80.9427,0.016799
47.320,80.9365,0.016799
47.351,80.9303,0.016799
47.382,80.9241,0.016799
47.412,80.9180,0.016799
47.444,80.9117,0.016799
47.475,80.9054,0.016799
47.507,80.8991,0.016818
47.539,80.8927,0.016818
47.569,80.8866,0.016818
47.600,80.8804,0.016818
47.631,80.8743,0.016818
47.663,80.8679,0.016818
47.694,80.8615,0.016818
47.726,80.8552,0.016818
47.757,80.8490,0.016893
47.789,80.8426,0.016893
47.819,80.8366,0.016893
47.850,80.8303,0.016893
47.882,80.8240,0.016893
47.913,80.8179,0.016893
47.944,80.8116,0.016893
47.975,80.8055,0.016893
48.005,80.7993,0.016987
48.036,80.7932,0.016987
48.067,80.7868,0.016987
48.097,80.7809,0.016987
48.128,80.7746,0.016987
48.160,80.7684,0.016987
48.191,80.7621,0.016987
48.223,80.7558,0.016987
48.254,80.7496,0.017025
48.285,80.7435,0.017025
48.316,80.7373,0.017025
48.347,80.7309,0.017025
48.378,80.7249,0.017025
48.409,80.7187,0.017025
48.440,80.7123,0.017025
48.471,80.7061,0.017025
48.501,80.7002,0.017147
48.533,80.6937,0.017147
48.564,80.6877,0.017147
48.595,80.6813,0.017147
48.626,80.6753,0.017147
48.658,80.6687,0.017147
48.689,80.6627,0.017147
48.719,80.6565,0.017147
48.750,80.6506,0.017279
48.781,80.6443,0.017279
48.812,80.6381,0.017279
48.844,80.6316,0.017279
48.875,80.6255,0.017279
48.906,80.6193,0.017279
48.937,80.6130,0.017279
48.969,80.6066,0.017279
49.001,80.6004,0.017317
49.032,80.5940,0.017317
49.063,80.5878,0.017317
49.095,80.5815,0.017317
49.126,80.5753,0.017317
49.157,80.5690,0.017317
49.188,80.5629,0.017317
49.219,80.5567,0.017317
49.249,80.5506,0.017364
49.280,80.5443,0.017364
49.311,80.5383,0.017364
49.343,80.5318,0.017364
49.373,80.5258,0.017364
49.404,80.5197,0.017364
49.434,80.5137,0.017364
49.465,80.5075,0.017364
49.496,80.5011,0.017402
49.527,80.4951,0.017402
49.559,80.4886,0.017402
49.590,80.4825,0.017402
49.621,80.4762,0.017402
49.651,80.4701,0.017402
49.683,80.4638,0.017402
49.713,80.4578,0.017402
49.745,80.4515,0.017402
49.776,80.4452,0.017486
49.807,80.4389,0.017486
49.838,80.4328,0.017486
49.870,80.4265,0.017486
49.901,80.4203,0.017486
49.932,80.4139,0.017486
49.964,80.4077,0.017486
49.995,80.4014,0.017590
50.027,80.3951,0.017590
50.057,80.3890,0.017590
50.088,80.3828,0.017590
50.119,80.3766,0.017590
50.150,80.3705,0.017590
50.181,80.3642,0.017590
50.212,80.3581,0.017590
50.243,80.3517,0.017656
50.275,80.3455,0.017656
50.306,80.3390,0.017656
50.338,80.3330,0.017656
50.369,80.3266,0.017656
50.400,80.3204,0.017656
50.430,80.3142,0.017656
50.462,80.3080,0.017656
50.493,80.3017,0.017656
50.525,80.2953,0.017731
50.556,80.2892,0.017731
50.587,80.2830,0.017731
50.618,80.2768,0.017731
50.649,80.2707,0.017731
50.682,80.2639,0.017731
50.711,80.2583,0.017731
50.743,80.2517,0.017779
50.774,80.2458,0.017779
50.805,80.2394,0.017779
50.836,80.2331,0.017779
50.865,80.2274,0.017779
50.897,80.2211,0.017779
50.928,80.2149,0.017779
50.959,80.2086,0.017779
50.989,80.2026,0.017779
51.021,80.1962,0.017882
51.052,80.1900,0.017882
51.083,80.1838,0.017882
51.114,80.1777,0.017882
51.146,80.1712,0.017882
51.178,80.1650,0.017882
51.208,80.1587,0.017882
51.240,80.1525,0.017958
51.272,80.1459,0.017958
51.303,80.1399,0.017958
51.334,80.1338,0.017958
51.364,80.1276,0.017958
51.398,80.1209,0.017958
51.426,80.1150,0.017958
51.458,80.1088,0.017958
51.489,80.1026,0.018033
51.520,80.0964,0.018033
51.552,80.0901,0.018033
51.583,80.0838,0.018033
51.614,80.0777,0.018033
51.646,80.0711,0.018033
51.676,80.0652,0.018033
51.707,80.0590,0.018033
51.738,80.0529,0.018146
51.769,80.0466,0.018146
51.800,80.0405,0.018146
51.831,80.0342,0.018146
51.862,80.0281,0.018146
51.893,80.0215,0.018146
51.925,80.0156,0.018146
51.955,80.0094,0.018146
51.986,80.0033,0.018184
52.017,79.9971,0.018184
52.048,79.9908,0.018184
52.079,79.9846,0.018184
52.110,79.9785,0.018184
52.141,79.9723,0.018184
52.172,79.9661,0.018184
52.204,79.9595,0.018184
52.235,79.9534,0.018184
52.265,79.9474,0.018221
52.296,79.9413,0.018221
52.328,79.9350,0.018221
52.359,79.9286,0.018221
52.390,79.9224,0.018221
52.421,79.9162,0.018221
52.454,79.9097,0.018221
52.484,79.9037,0.018268
52.515,79.8975,0.018268
52.545,79.8914,0.018268
52.577,79.8850,0.018268
52.607,79.8790,0.018268
52.639,79.8727,0.018268
52.670,79.8665,0.018268
52.701,79.8603,0.018268
52.732,79.8540,0.018268
52.763,79.8478,0.018353
52.793,79.8418,0.018353
52.823,79.8356,0.018353
52.854,79.8294,0.018353
52.885,79.8235,0.018353
52.917,79.8170,0.018353
52.948,79.8109,0.018353
52.979,79.8045,0.018363
53.010,79.7985,0.018363
53.041,79.7922,0.018363
53.071,79.7864,0.018363
53.102,79.7802,0.018363
53.133,79.7737,0.018363
53.164,79.7677,0.018363
53.195,79.7616,0.018363
53.226,79.7553,0.018400
53.258,79.7489,0.018400
53.289,79.7427,0.018400
53.320,79.7365,0.018400
53.352,79.7301,0.018400
53.383,79.7239,0.018400
53.414,79.7178,0.018400
53.445,79.7114,0.018400
53.476,79.7053,0.018495
53.507,79.6991,0.018495
53.538,79.6929,0.018495
53.570,79.6864,0.018495
53.601,79.6803,0.018495
53.632,79.6741,0.018495
53.663,79.6677,0.018495
53.694,79.6616,0.018495
53.725,79.6555,0.018570
53.755,79.6495,0.018570
53.786,79.6433,0.018570
53.817,79.6369,0.018570
53.849,79.6307,0.018570
53.880,79.6244,0.018570
53.911,79.6181,0.018570
53.942,79.6120,0.018570
53.973,79.6059,0.018655
54.004,79.5995,0.018655
54.036,79.5933,0.018655
54.067,79.5870,0.018655
54.098,79.5810,0.018655
54.130,79.5744,0.018655
54.161,79.5682,0.018655
54.192,79.5619,0.018655
54.222,79.5561,0.018702
54.253,79.5499,0.018702
54.284,79.5437,0.018702
54.316,79.5372,0.018702
54.347,79.5309,0.018702
54.378,79.5248,0.018702
54.409,79.5186,0.018702
54.443,79.5118,0.018702
54.472,79.5061,0.018758
54.502,79.4999,0.018758
54.534,79.4936,0.018758
54.565,79.4874,0.018758
54.597,79.4810,0.018758
54.628,79.4748,0.018758
54.659,79.4686,0.018758
54.690,79.4623,0.018758
54.721,79.4562,0.018758
54.752,79.4500,0.018777
54.783,79.4438,0.018777
54.814,79.4376,0.018777
54.845,79.4314,0.018777
54.876,79.4254,0.018777
54.907,79.4192,0.018777
54.938,79.4131,0.018777
54.970,79.4074,0.018796
55.001,79.4029,0.018796
55.031,79.3989,0.018796
55.063,79.3957,0.018796
55.094,79.3932,0.018796
55.125,79.3915,0.018796
55.158,79.3905,0.018796
55.187,79.3903,0.018796
55.218,79.3903,0.018796
55.249,79.3903,0.018674
55.280,79.3903,0.018674
55.311,79.3903,0.018674
55.343,79.3903,0.018674
55.373,79.3903,0.018674
55.405,79.3903,0.018674
55.437,79.3903,0.018674
55.469,79.3903,0.018674
55.499,79.3903,0.018542
55.530,79.3903,0.018542
55.561,79.3903,0.018542
55.593,79.3903,0.018542
55.625,79.3903,0.018542
55.656,79.3903,0.018542
55.686,79.3903,0.018542
55.717,79.3903,0.018561
55.747,79.3903,0.018561
55.780,79.3910,0.018561
55.810,79.3925,0.018561
55.841,79.3946,0.018561
55.872,79.3974,0.018561
55.903,79.4010,0.018561
55.934,79.4053,0.018561
55.965,79.4103,0.018561
55.996,79.4162,0.018400
56.027,79.4223,0.018400
56.058,79.4286,0.018400
56.089,79.4348,0.018400
56.119,79.4407,0.018400
56.151,79.4472,0.018400
56.181,79.4534,0.018400
56.212,79.4593,0.018155
56.242,79.4655,0.018155
56.274,79.4719,0.018155
56.305,79.4781,0.018155
56.336,79.4843,0.018155
56.367,79.4903,0.018155
56.399,79.4967,0.018155
56.429,79.5029,0.018155
56.461,79.5091,0.018155
56.492,79.5155,0.018033
56.522,79.5213,0.018033
56.554,79.5278,0.018033
56.586,79.5341,0.018033
56.615,79.5400,0.018033
56.646,79.5464,0.018033
56.680,79.5528,0.018033
56.709,79.5587,0.017967
56.739,79.5649,0.017967
56.771,79.5710,0.017967
56.802,79.5774,0.017967
56.832,79.5834,0.017967
56.863,79.5896,0.017967
56.894,79.5956,0.017967
56.925,79.6021,0.017967
56.957,79.6083,0.017967
56.988,79.6146,0.017863
57.020,79.6208,0.017863
57.051,79.6274,0.017863
57.082,79.6333,0.017863
57.112,79.6393,0.017863
57.143,79.6455,0.017863
57.173,79.6516,0.017863
57.205,79.6580,0.017863
57.237,79.6642,0.017769
57.267,79.6703,0.017769
57.299,79.6767,0.017769
57.330,79.6828,0.017769
57.360,79.6890,0.017769
57.391,79.6952,0.017769
57.422,79.7013,0.017769
57.453,79.7076,0.017769
57.484,79.7137,0.017703
57.516,79.7200,0.017703
57.546,79.7260,0.017703
57.577,79.7323,0.017703
57.608,79.7385,0.017703
57.639,79.7446,0.017703
57.671,79.7510,0.017703
57.701,79.7571,0.017703
57.732,79.7633,0.017647
57.762,79.7694,0.017647
57.794,79.7756,0.017647
57.826,79.7820,0.017647
57.856,79.7882,0.017647
57.887,79.7943,0.017647
57.917,79.8005,0.017647
57.949,79.8066,0.017647
57.979,79.8128,0.017581
58.011,79.8190,0.017581
58.042,79.8253,0.017581
58.073,79.8314,0.017581
58.104,79.8379,0.017581
58.135,79.8439,0.017581
58.167,79.8504,0.017581
58.198,79.8565,0.017581
58.229,79.8627,0.017581
58.260,79.8689,0.017458
58.291,79.8752,0.017458
58.321,79.8814,0.017458
58.352,79.8875,0.017458
58.383,79.8935,0.017458
58.414,79.8999,0.017458
58.445,79.9058,0.017458
58.477,79.9123,0.017458
58.508,79.9185,0.017307
58.538,79.9245,0.017307
58.570,79.9309,0.017307
58.601,79.9372,0.017307
58.631,79.9430,0.017307
58.662,79.9492,0.017307
58.693,79.9556,0.017307
58.724,79.9618,0.017307
58.755,79.9680,0.017194
58.785,79.9739,0.017194
58.817,79.9804,0.017194
58.848,79.9864,0.017194
58.879,79.9928,0.017194
58.910,79.9990,0.017194
58.940,80.0049,0.017194
58.971,80.0111,0.017194
59.003,80.0174,0.017128
59.034,80.0238,0.017128
59.065,80.0298,0.017128
59.096,80.0362,0.017128
59.127,80.0424,0.017128
59.158,80.0486,0.017128
59.190,80.0548,0.017128
59.221,80.0612,0.017128
59.252,80.0673,0.017044
59.283,80.0736,0.017044
59.314,80.0797,0.017044
59.346,80.0860,0.017044
59.376,80.0921,0.017044
59.407,80.0983,0.017044
59.438,80.1045,0.017044
59.469,80.1106,0.017044
59.500,80.1170,0.016884
59.531,80.1230,0.016884
59.561,80.1292,0.016884
59.592,80.1353,0.016884
59.623,80.1416,0.016884
59.654,80.1475,0.016884
59.684,80.1539,0.016884
59.715,80.1598,0.016884
59.746,80.1660,0.016695
59.778,80.1725,0.016695
59.809,80.1785,0.016695
59.840,80.1850,0.016695
59.871,80.1910,0.016695
59.901,80.1972,0.016695
59.932,80.2034,0.016695
59.963,80.2094,0.016695
59.993,80.2158,0.016695
60.024,80.2217,0.016639
60.055,80.2280,0.016639
60.086,80.2341,0.016639
60.117,80.2403,0.016639
60.149,80.2468,0.016639
60.180,80.2530,0.016639
60.213,80.2595,0.016639
60.242,80.2654,0.016620
60.274,80.2718,0.016620
60.306,80.2781,0.016620
60.338,80.2846,0.016620
60.369,80.2908,0.016620
60.400,80.2969,0.016620
60.431,80.3032,0.016620
60.463,80.3094,0.016620
60.493,80.3155,0.016525
60.525,80.3219,0.016525
60.555,80.3279,0.016525
60.587,80.3342,0.016525
60.617,80.3402,0.016525
60.648,80.3466,0.016525
60.679,80.3527,0.016525
60.710,80.3590,0.016525
60.741,80.3652,0.016394
60.773,80.3715,0.016394
60.804,80.3777,0.016394
60.836,80.3841,0.016394
60.867,80.3903,0.016394
60.898,80.3966,0.016394
60.930,80.4028,0.016394
60.961,80.4090,0.016394
60.992,80.4153,0.016337
61.023,80.4214,0.016337
61.053,80.4275,0.016337
61.085,80.4339,0.016337
61.118,80.4404,0.016337
61.147,80.4463,0.016337
61.178,80.4524,0.016337
61.209,80.4587,0.016233
61.240,80.4648,0.016233
61.271,80.4710,0.016233
61.301,80.4772,0.016233
61.333,80.4834,0.016233
61.364,80.4896,0.016233
61.395,80.4959,0.016233
61.426,80.5020,0.016233
61.458,80.5085,0.016233
61.490,80.5148,0.016073
61.521,80.5211,0.016073
61.552,80.5272,0.016073
61.583,80.5335,0.016073
61.614,80.5398,0.016073
61.645,80.5458,0.016073
61.675,80.5519,0.016073
61.707,80.5583,0.015951
61.738,80.5645,0.015951
61.770,80.5710,0.015951
61.800,80.5768,0.015951
61.831,80.5832,0.015951
61.862,80.5893,0.015951
61.894,80.5956,0.015951
61.925,80.6018,0.015951
61.956,80.6082,0.015951
61.987,80.6142,0.015809
62.018,80.6204,0.015809
62.049,80.6266,0.015809
62.079,80.6327,0.015809
62.110,80.6389,0.015809
62.142,80.6454,0.015809
62.173,80.6516,0.015809
62.203,80.6575,0.015809
62.234,80.6636,0.015696
62.265,80.6698,0.015696
62.296,80.6760,0.015696
62.327,80.6825,0.015696
62.358,80.6884,0.015696
62.389,80.6947,0.015696
62.421,80.7011,0.015696
62.452,80.7073,0.015696
62.482,80.7133,0.015574
62.514,80.7198,0.015574
62.545,80.7259,0.015574
62.577,80.7324,0.015574
62.609,80.7386,0.015574
62.641,80.7451,0.015574
62.672,80.7512,0.015574
62.704,80.7576,0.015574
62.734,80.7637,0.015414
62.765,80.7701,0.015414
62.796,80.7762,0.015414
62.827,80.7824,0.015414
62.860,80.7889,0.015414
62.889,80.7947,0.015414
62.921,80.8011,0.015414
62.952,80.8073,0.015263
62.983,80.8134,0.015263
63.014,80.8197,0.015263
63.045,80.8260,0.015263
63.076,80.8322,0.015263
63.107,80.8384,0.015263
63.139,80.8447,0.015263
63.170,80.8508,0.015263
63.201,80.8571,0.015263
63.231,80.8632,0.015131
63.263,80.8695,0.015131
63.295,80.8758,0.015131
63.325,80.8819,0.015131
63.356,80.8880,0.015131
63.386,80.8942,0.015131
63.417,80.9004,0.015131
63.448,80.9064,0.015131
63.479,80.9128,0.015027
63.511,80.9192,0.015027
63.542,80.9253,0.015027
63.573,80.9315,0.015027
63.604,80.9377,0.015027
63.635,80.9439,0.015027
63.666,80.9502,0.015027
63.697,80.9562,0.015027
63.728,80.9626,0.015027
63.759,80.9686,0.014867
63.791,80.9752,0.014867
63.821,80.9811,0.014867
63.853,80.9874,0.014867
63.884,80.9936,0.014867
63.914,80.9997,0.014867
63.945,81.0059,0.014867
63.976,81.0122,0.014867
64.007,81.0183,0.014669
64.039,81.0246,0.014669
64.070,81.0307,0.014669
64.101,81.0370,0.014669
64.132,81.0432,0.014669
64.164,81.0498,0.014669
64.195,81.0558,0.014669
64.225,81.0620,0.014669
64.256,81.0682,0.014566
64.287,81.0744,0.014566
64.319,81.0806,0.014566
64.350,81.0869,0.014566
64.381,81.0931,0.014566
64.413,81.0995,0.014566
64.444,81.1055,0.014566
64.475,81.1119,0.014566
64.505,81.1179,0.014528
64.536,81.1242,0.014528
64.568,81.1304,0.014528
64.599,81.1368,0.014528
64.630,81.1430,0.014528
64.662,81.1495,0.014528
64.694,81.1556,0.014528
64.725,81.1618,0.014528
64.755,81.1678,0.014368
64.786,81.1741,0.014368
64.817,81.1802,0.014368
64.848,81.1864,0.014368
64.879,81.1927,0.014368
64.910,81.1989,0.014368
64.942,81.2052,0.014368
64.973,81.2114,0.014236
65.004,81.2177,0.014236
65.036,81.2239,0.014236
65.067,81.2303,0.014236
65.098,81.2365,0.014236
65.129,81.2427,0.014236
65.160,81.2487,0.014236
65.192,81.2552,0.014236
65.222,81.2611,0.014132
65.253,81.2673,0.014132
65.284,81.2736,0.014132
65.315,81.2800,0.014132
65.346,81.2860,0.014132
65.377,81.2923,0.014132
65.408,81.2986,0.014132
65.440,81.3048,0.014132
65.471,81.3110,0.013982
65.501,81.3172,0.013982
65.533,81.3234,0.013982
65.563,81.3296,0.013982
65.594,81.3356,0.013982
65.625,81.3420,0.013982
65.657,81.3483,0.013982
65.688,81.3545,0.013982
65.719,81.3606,0.013850
65.750,81.3669,0.013850
65.781,81.3730,0.013850
65.811,81.3792,0.013850
65.842,81.3853,0.013850
65.874,81.3917,0.013850
65.905,81.3978,0.013850
65.936,81.4040,0.013850
65.967,81.4103,0.013642
65.999,81.4165,0.013642
66.030,81.4229,0.013642
66.061,81.4290,0.013642
66.091,81.4350,0.013642
66.122,81.4414,0.013642
66.153,81.4473,0.013642
66.183,81.4535,0.013642
66.214,81.4597,0.013473
66.245,81.4659,0.013473
66.276,81.4720,0.013473
66.307,81.4782,0.013473
66.337,81.4843,0.013473
66.368,81.4906,0.013473
66.399,81.4967,0.013473
66.431,81.5031,0.013473
66.463,81.5093,0.013332
66.496,81.5160,0.013332
66.526,81.5221,0.013332
66.556,81.5282,0.013332
66.589,81.5346,0.013332
66.619,81.5406,0.013332
66.650,81.5468,0.013332
66.681,81.5530,0.013332
66.712,81.5593,0.013332
66.744,81.5656,0.013332
66.775,81.5718,0.013171
66.806,81.5780,0.013171
66.838,81.5844,0.013171
66.869,81.5907,0.013171
66.900,81.5968,0.013171
66.931,81.6030,0.013171
66.962,81.6093,0.013171
66.993,81.6155,0.013171
67.024,81.6216,0.013077
67.054,81.6279,0.013077
67.085,81.6340,0.013077
67.117,81.6403,0.013077
67.149,81.6467,0.013077
67.181,81.6529,0.013077
67.211,81.6590,0.013077
67.242,81.6652,0.012908
67.274,81.6715,0.012908
67.305,81.6779,0.012908
67.338,81.6844,0.012908
67.368,81.6905,0.012908
67.399,81.6967,0.012908
67.431,81.7030,0.012908
67.461,81.7090,0.012908
67.492,81.7154,0.012908
67.524,81.7216,0.012681
67.554,81.7276,0.012681
67.585,81.7340,0.012681
67.611,81.7390,0.012681
67.646,81.7461,0.012681
67.677,81.7523,0.012681
67.708,81.7584,0.012681
67.740,81.7649,0.012474
67.771,81.7710,0.012474
67.802,81.7771,0.012474
67.833,81.7834,0.012474
67.864,81.7896,0.012474
67.895,81.7961,0.012474
67.926,81.8020,0.012474
67.958,81.8083,0.012474
67.988,81.8145,0.012210
68.019,81.8206,0.012210
68.050,81.8269,0.012210
68.080,81.8329,0.012210
68.111,81.8391,0.012210
68.143,81.8455,0.012210
68.174,81.8516,0.012210
68.205,81.8579,0.012210
68.235,81.8639,0.011937
68.267,81.8702,0.011937
68.297,81.8764,0.011937
68.328,81.8824,0.011937
68.358,81.8883,0.011937
68.389,81.8945,0.011937
68.421,81.9009,0.011937
68.452,81.9073,0.011937
68.483,81.9134,0.011589
68.514,81.9197,0.011589
68.544,81.9257,0.011589
68.576,81.9321,0.011589
68.607,81.9382,0.011589
68.638,81.9445,0.011589
68.669,81.9506,0.011589
68.701,81.9570,0.011589
68.731,81.9631,0.011183
68.762,81.9693,0.011183
68.793,81.9755,0.011183
68.825,81.9818,0.011183
68.855,81.9878,0.011183
68.885,81.9940,0.011183
68.917,82.0002,0.011183
68.949,82.0067,0.011183
68.979,82.0126,0.010656
69.010,82.0188,0.010656
69.041,82.0249,0.010656
69.074,82.0316,0.010656
69.104,82.0377,0.010656
69.136,82.0440,0.010656
69.166,82.0502,0.010656
69.198,82.0565,0.010656
69.229,82.0626,0.009959
69.260,82.0689,0.009959
69.291,82.0751,0.009959
69.322,82.0812,0.009959
69.353,82.0875,0.009959
69.384,82.0936,0.009959
69.415,82.0998,0.009959
69.445,82.1061,0.009959
69.477,82.1122,0.009016
69.507,82.1184,0.009016
69.539,82.1246,0.009016
69.570,82.1307,0.009016
69.600,82.1369,0.009016
69.631,82.1432,0.009016
69.662,82.1493,0.009016
69.693,82.1555,0.009016
69.724,82.1617,0.009016
69.755,82.1678,0.007716
69.787,82.1742,0.007716
69.819,82.1807,0.007716
69.848,82.1865,0.007716
69.880,82.1929,0.007716
69.910,82.1990,0.007716
69.941,82.2050,0.007716
69.972,82.2113,0.007716
70.002,82.2174,0.005813
70.033,82.2236,0.005813
70.065,82.2299,0.005813
70.096,82.2361,0.005813
70.126,82.2420,0.005813
70.157,82.2484,0.005813
70.189,82.2547,0.005813
70.220,82.2609,0.003213
70.251,82.2669,0.003213
70.282,82.2732,0.003213
70.313,82.2794,0.003213
70.343,82.2855,0.003213
70.374,82.2917,0.003213
70.405,82.2979,0.003213
70.437,82.3042,0.003213
70.468,82.3103,-0.000254
70.500,82.3168,-0.000254
70.530,82.3229,-0.000254
70.561,82.3290,-0.000254
70.593,82.3354,-0.000254
70.625,82.3418,-0.000254
70.655,82.3478,-0.000254
70.686,82.3540,-0.000254
70.716,82.3601,-0.000254
70.747,82.3662,-0.004918
70.778,82.3717,-0.004918
70.809,82.3765,-0.004918
70.840,82.3807,-0.004918
70.871,82.3839,-0.004918
70.902,82.3867,-0.004918
70.933,82.3885,-0.004918
70.964,82.3898,-0.004918
70.995,82.3903,-0.010288
71.027,82.3903,-0.010288
71.058,82.3903,-0.010288
71.088,82.3903,-0.010288
71.118,82.3903,-0.010288
71.150,82.3903,-0.010288
71.182,82.3903,-0.010288
71.213,82.3903,-0.010288
71.244,82.3903,-0.012126
71.275,82.3903,-0.012126
71.306,82.3903,-0.012126
71.337,82.3903,-0.012126
71.368,82.3903,-0.012126
71.399,82.3903,-0.012126
71.429,82.3903,-0.012126
71.460,82.3903,-0.009930
71.491,82.3903,-0.009930
71.523,82.3903,-0.009930
71.554,82.3903,-0.009930
71.585,82.3903,-0.009930
71.616,82.3903,-0.009930
71.645,82.3903,-0.009930
71.678,82.3903,-0.009930
71.708,82.3903,-0.007669
71.739,82.3903,-0.007669
71.770,82.3903,-0.007669
71.803,82.3903,-0.007669
71.832,82.3903,-0.007669
71.863,82.3903,-0.007669
71.894,82.3903,-0.007669
71.926,82.3903,-0.007669
71.958,82.3903,-0.007669
71.988,82.3903,-0.006086
72.019,82.3903,-0.006086
72.050,82.3903,-0.006086
72.081,82.3903,-0.006086
72.111,82.3903,-0.006086
72.142,82.3903,-0.006086
72.173,82.3903,-0.006086
72.204,82.3903,-0.006086
72.235,82.3903,-0.004918
72.266,82.3903,-0.004918
72.296,82.3903,-0.004918
72.326,82.3903,-0.004918
72.357,82.3903,-0.004918
72.389,82.3903,-0.004918
72.419,82.3903,-0.004918
72.450,82.3903,-0.004918
72.482,82.3903,-0.004004
72.512,82.3903,-0.004004
72.543,82.3903,-0.004004
72.573,82.3903,-0.004004
72.604,82.3903,-0.004004
72.634,82.3903,-0.004004
72.666,82.3903,-0.004004
72.697,82.3903,-0.004004
72.729,82.3903,-0.004004
72.760,82.3903,-0.003213
72.791,82.3903,-0.003213
72.823,82.3903,-0.003213
72.854,82.3903,-0.003213
72.886,82.3903,-0.003213
72.917,82.3903,-0.003213
72.949,82.3903,-0.003213
72.980,82.3903,-0.003213
73.011,82.3903,-0.003213
73.042,82.3903,-0.002525
73.074,82.3903,-0.002525
73.104,82.3903,-0.002525
73.135,82.3903,-0.002525
73.166,82.3903,-0.002525
73.197,82.3903,-0.002525
73.228,82.3903,-0.002525
73.260,82.3903,-0.001922
73.290,82.3903,-0.001922
73.321,82.3903,-0.001922
73.352,82.3903,-0.001922
73.383,82.3903,-0.001922
73.415,82.3903,-0.001922
73.446,82.3903,-0.001922
73.477,82.3903,-0.001922
73.508,82.3903,-0.001423
73.539,82.3903,-0.001423
73.570,82.3903,-0.001423
73.601,82.3903,-0.001423
73.633,82.3903,-0.001423
73.663,82.3903,-0.001423
73.694,82.3903,-0.001423
73.725,82.3903,-0.001423
73.757,82.3903,-0.001008
73.787,82.3903,-0.001008
73.818,82.3903,-0.001008
73.849,82.3903,-0.001008
73.881,82.3903,-0.001008
73.912,82.3903,-0.001008
73.943,82.3903,-0.001008
73.975,82.3903,-0.000575
74.006,82.3903,-0.000575
74.037,82.3903,-0.000575
74.068,82.3903,-0.000575
74.098,82.3903,-0.000575
74.129,82.3903,-0.000575
74.160,82.3903,-0.000575
74.191,82.3903,-0.000575
74.223,82.3903,-0.000575
74.254,82.3903,-0.000188
74.285,82.3903,-0.000188
74.315,82.3903,-0.000188
74.346,82.3903,-0.000188
74.377,82.3903,-0.000188
74.408,82.3903,-0.000188
74.440,82.3903,-0.000188
74.471,82.3903,-0.000188
74.502,82.3903,0.000170
74.532,82.3903,0.000170
74.563,82.3903,0.000170
74.595,82.3903,0.000170
74.625,82.3903,0.000170
74.656,82.3903,0.000170
74.688,82.3903,0.000170
74.719,82.3903,0.000499
74.748,82.3903,0.000499
74.779,82.3903,0.000499
74.809,82.3903,0.000499
74.840,82.3903,0.000499
74.870,82.3903,0.000499
74.902,82.3903,0.000499
74.933,82.3903,0.000499
74.965,82.3903,0.000499
74.995,82.3903,0.000810
75.026,82.3903,0.000810
75.058,82.3903,0.000810
75.088,82.3903,0.000810
75.119,82.3903,0.000810
75.150,82.3903,0.000810
75.181,82.3903,0.000810
75.214,82.3903,0.000810
75.244,82.3903,0.001300
75.275,82.3903,0.001300
75.306,82.3903,0.001300
75.336,82.3903,0.001300
75.367,82.3903,0.001300
75.398,82.3903,0.001300
75.430,82.3903,0.001300
75.461,82.3903,0.001300
75.493,82.3903,0.001828
75.525,82.3901,0.001828
75.555,82.3893,0.001828
75.586,82.3877,0.001828
75.616,82.3854,0.001828
75.647,82.3823,0.001828
75.678,82.3786,0.001828
75.710,82.3740,0.002478
75.741,82.3687,0.002478
75.772,82.3628,0.002478
75.803,82.3565,0.002478
75.834,82.3504,0.002478
75.865,82.3442,0.002478
75.895,82.3383,0.002478
75.927,82.3317,0.002478
75.958,82.3258,0.002478
75.990,82.3192,0.008272
76.021,82.3130,0.008272
76.053,82.3067,0.008272
76.084,82.3006,0.008272
76.114,82.2944,0.008272
76.145,82.2883,0.008272
76.176,82.2819,0.008272
76.207,82.2757,0.008272
76.238,82.2696,0.019908
76.269,82.2635,0.019908
76.299,82.2574,0.019908
76.330,82.2512,0.019908
76.361,82.2450,0.019908
76.392,82.2389,0.019908
76.423,82.2327,0.019908
76.455,82.2262,0.019908
76.485,82.2202,0.032495
76.516,82.2140,0.032495
76.547,82.2078,0.032495
76.577,82.2019,0.032495
76.609,82.1955,0.032495
76.641,82.1892,0.032495
76.671,82.1831,0.032495
76.702,82.1768,0.032495
76.732,82.1709,0.045478
76.764,82.1645,0.045478
76.795,82.1583,0.045478
76.826,82.1523,0.045478
76.858,82.1457,0.045478
76.887,82.1399,0.045478
76.918,82.1338,0.045478
76.949,82.1275,0.045478
76.980,82.1213,0.059780
77.011,82.1152,0.059780
77.043,82.1088,0.059780
77.073,82.1025,0.059780
77.104,82.0964,0.059780
77.136,82.0901,0.059780
77.166,82.0840,0.059780
77.198,82.0777,0.059780
77.228,82.0716,0.076221
77.260,82.0652,0.076221
77.291,82.0591,0.076221
77.322,82.0529,0.076221
77.353,82.0465,0.076221
77.384,82.0405,0.076221
77.414,82.0346,0.076221
77.445,82.0284,0.076221
77.476,82.0222,0.095318
77.507,82.0160,0.095318
77.538,82.0098,0.095318
77.569,82.0034,0.095318
77.600,81.9974,0.095318
77.631,81.9910,0.095318
77.662,81.9847,0.095318
77.693,81.9786,0.095318
77.725,81.9724,0.095318
77.756,81.9662,0.117327
77.787,81.9598,0.117327
77.818,81.9534,0.117327
77.850,81.9471,0.117327
77.881,81.9412,0.117327
77.912,81.9348,0.117327
77.943,81.9288,0.117327
77.975,81.9224,0.117327
78.006,81.9160,0.142558
78.037,81.9099,0.142558
78.068,81.9036,0.142558
78.098,81.8978,0.142558
78.128,81.8917,0.142558
78.160,81.8854,0.142558
78.190,81.8793,0.142558
78.222,81.8728,0.171266
78.254,81.8664,0.171266
78.283,81.8607,0.171266
78.314,81.8546,0.171266
78.344,81.8484,0.171266
78.375,81.8422,0.171266
78.407,81.8360,0.171266
78.438,81.8297,0.171266
78.468,81.8236,0.203431
78.500,81.8171,0.203431
78.531,81.8111,0.203431
78.562,81.8047,0.203431
78.594,81.7985,0.203431
78.624,81.7923,0.203431
78.655,81.7864,0.203431
78.685,81.7802,0.203431
78.716,81.7741,0.239092
78.746,81.7680,0.239092
78.778,81.7617,0.239092
78.809,81.7555,0.239092
78.840,81.7493,0.239092
78.871,81.7431,0.239092
78.902,81.7370,0.239092
78.933,81.7307,0.239092
78.964,81.7246,0.239092
78.994,81.7184,0.278022
79.026,81.7121,0.278022
79.056,81.7060,0.278022
79.087,81.6999,0.278022
79.118,81.6937,0.278022
79.149,81.6875,0.278022
79.180,81.6813,0.278022
79.211,81.6751,0.319260
79.241,81.6691,0.319260
79.272,81.6629,0.319260
79.303,81.6565,0.319260
79.335,81.6505,0.319260
79.366,81.6441,0.319260
79.397,81.6379,0.319260
79.427,81.6319,0.319260
79.458,81.6255,0.319260
79.490,81.6193,0.319260
79.521,81.6131,0.362732
79.551,81.6072,0.362732
79.582,81.6008,0.362732
79.613,81.5948,0.362732
79.643,81.5886,0.362732
79.675,81.5824,0.362732
79.707,81.5758,0.362732
79.738,81.5697,0.408238
79.770,81.5633,0.408238
79.800,81.5572,0.408238
79.832,81.5510,0.408238
79.863,81.5448,0.408238
79.894,81.5385,0.408238
79.925,81.5323,0.408238
79.957,81.5259,0.408238
79.988,81.5197,0.447045
80.020,81.5134,0.447045
80.050,81.5073,0.447045
80.081,81.5010,0.447045
80.112,81.4949,0.447045
80.143,81.4886,0.447045
80.175,81.4824,0.447045
80.206,81.4760,0.447045
80.238,81.4698,0.457748
80.269,81.4636,0.457748
80.300,81.4575,0.457748
80.330,81.4512,0.457748
80.361,81.4451,0.457748
80.392,81.4389,0.457748
80.424,81.4325,0.457748
80.455,81.4262,0.295179
80.486,81.4201,0.295179
80.516,81.4142,0.295179
80.547,81.4077,0.295179
80.579,81.4014,0.295179
80.610,81.3952,0.295179
80.641,81.3891,0.295179
80.672,81.3829,0.295179
80.703,81.3769,0.295179
80.733,81.3708,0.077182
80.764,81.3646,0.077182
80.794,81.3585,0.077182
80.825,81.3523,0.077182
80.855,81.3462,0.077182
80.887,81.3398,0.077182
80.917,81.3338,0.077182
80.949,81.3275,0.077182
80.980,81.3213,0.077182
81.010,81.3152,0.016573
81.042,81.3089,0.016573
81.073,81.3027,0.016573
81.105,81.2962,0.016573
81.136,81.2902,0.016573
81.167,81.2838,0.016573
81.199,81.2776,0.016573
81.230,81.2713,0.016573
81.260,81.2652,0.016469
81.291,81.2589,0.016469
81.322,81.2530,0.016469
81.353,81.2466,0.016469
81.384,81.2406,0.016469
81.416,81.2340,0.016469
81.447,81.2278,0.016469
81.479,81.2215,0.016469
81.510,81.2153,0.016507
81.542,81.2088,0.016507
81.573,81.2029,0.016507
81.604,81.1967,0.016507
81.634,81.1905,0.016507
81.667,81.1840,0.016507
81.697,81.1778,0.016507
81.729,81.1715,0.016582
81.759,81.1654,0.016582
81.790,81.1593,0.016582
81.821,81.1531,0.016582
81.852,81.1468,0.016582
81.884,81.1405,0.016582
81.915,81.1343,0.016582
81.947,81.1281,0.016582
81.977,81.1217,0.016582
82.008,81.1157,0.016601
82.039,81.1095,0.016601
82.070,81.1034,0.016601
82.101,81.0972,0.016601
82.130,81.0911,0.016601
82.162,81.0849,0.016601
82.192,81.0787,0.016601
82.224,81.0725,0.016601
82.255,81.0661,0.016601
82.286,81.0601,0.016601
82.318,81.0537,0.016601
82.349,81.0476,0.016601
82.380,81.0414,0.016601
82.411,81.0352,0.016601
82.442,81.0290,0.016601
82.474,81.0227,0.016601
82.504,81.0166,0.016620
82.535,81.0102,0.016620
82.566,81.0040,0.016620
82.598,80.9977,0.016620
82.628,80.9918,0.016620
82.659,80.9854,0.016620
82.690,80.9794,0.016620
82.721,80.9733,0.016620
82.752,80.9668,0.016686
82.783,80.9609,0.016686
82.813,80.9547,0.016686
82.844,80.9485,0.016686
82.875,80.9423,0.016686
82.906,80.9361,0.016686
82.937,80.9299,0.016686
82.968,80.9237,0.016686
82.999,80.9175,0.016818
83.030,80.9113,0.016818
83.062,80.9050,0.016818
83.093,80.8988,0.016818
83.125,80.8924,0.016818
83.155,80.8861,0.016818
83.187,80.8799,0.016818
83.218,80.8737,0.016818
83.249,80.8675,0.016912
83.281,80.8612,0.016912
83.311,80.8551,0.016912
83.342,80.8489,0.016912
83.373,80.8428,0.016912
83.404,80.8365,0.016912
83.435,80.8304,0.016912
83.466,80.8241,0.016912
83.499,80.8175,0.016949
83.529,80.8116,0.016949
83.560,80.8054,0.016949
83.591,80.7993,0.016949
83.622,80.7930,0.016949
83.653,80.7866,0.016949
83.684,80.7806,0.016949
83.715,80.7742,0.016968
83.747,80.7680,0.016968
83.778,80.7617,0.016968
83.809,80.7556,0.016968
83.839,80.7496,0.016968
83.870,80.7432,0.016968
83.901,80.7371,0.016968
83.932,80.7308,0.016968
83.963,80.7247,0.016968
83.994,80.7184,0.017072
84.025,80.7123,0.017072
84.057,80.7058,0.017072
84.088,80.6998,0.017072
84.120,80.6932,0.017072
84.151,80.6872,0.017072
84.181,80.6810,0.017072
84.212,80.6750,0.017157
84.243,80.6686,0.017157
84.275,80.6622,0.017157
84.307,80.6559,0.017157
84.338,80.6497,0.017157
84.370,80.6434,0.017157
84.401,80.6373,0.017157
84.433,80.6307,0.017157
84.463,80.6245,0.017157
84.493,80.6187,0.017185
84.524,80.6125,0.017185
84.556,80.6061,0.017185
84.586,80.6001,0.017185
84.617,80.5940,0.017185
84.647,80.5879,0.017185
84.678,80.5816,0.017185
84.710,80.5754,0.017185
84.741,80.5691,0.017185
84.772,80.5629,0.017270
84.804,80.5566,0.017270
84.834,80.5505,0.017270
84.866,80.5442,0.017270
84.897,80.5381,0.017270
84.927,80.5319,0.017270
84.957,80.5259,0.017270
84.988,80.5196,0.017270
85.020,80.5132,0.017383
85.051,80.5071,0.017383
85.082,80.5009,0.017383
85.113,80.4948,0.017383
85.144,80.4885,0.017383
85.175,80.4824,0.017383
85.207,80.4758,0.017383
85.237,80.4699,0.017477
85.268,80.4637,0.017477
85.299,80.4576,0.017477
85.330,80.4513,0.017477
85.361,80.4452,0.017477
85.393,80.4385,0.017477
85.424,80.4325,0.017477
85.455,80.4263,0.017477
85.486,80.4203,0.017505
85.517,80.4139,0.017505
85.548,80.4075,0.017505
85.579,80.4014,0.017505
85.611,80.3950,0.017505
85.642,80.3890,0.017505
85.673,80.3827,0.017505
85.704,80.3765,0.017505
85.736,80.3700,0.017581
85.767,80.3638,0.017581
85.799,80.3575,0.017581
85.830,80.3512,0.017581
85.861,80.3450,0.017581
85.893,80.3387,0.017581
85.924,80.3325,0.017581
85.955,80.3263,0.017581
85.986,80.3201,0.017713
86.016,80.3141,0.017713
86.047,80.3080,0.017713
86.078,80.3018,0.017713
86.108,80.2955,0.017713
86.140,80.2893,0.017713
86.170,80.2833,0.017713
86.201,80.2771,0.017713
86.233,80.2708,0.017797
86.265,80.2642,0.017797
86.295,80.2583,0.017797
86.326,80.2521,0.017797
86.358,80.2459,0.017797
86.388,80.2397,0.017797
86.419,80.2336,0.017797
86.450,80.2273,0.017797
86.480,80.2213,0.017807
86.513,80.2146,0.017807
86.543,80.2087,0.017807
86.574,80.2026,0.017807
86.605,80.1963,0.017807
86.636,80.1901,0.017807
86.667,80.1840,0.017807
86.698,80.1777,0.017807
86.729,80.1717,0.017892
86.761,80.1652,0.017892
86.791,80.1592,0.017892
86.823,80.1526,0.017892
86.854,80.1467,0.017892
86.885,80.1403,0.017892
86.915,80.1343,0.017892
86.948,80.1277,0.017892
86.979,80.1216,0.017967
87.010,80.1153,0.017967
87.041,80.1092,0.017967
87.072,80.1029,0.017967
87.104,80.0967,0.017967
87.135,80.0904,0.017967
87.165,80.0844,0.017967
87.196,80.0781,0.017967
87.228,80.0718,0.017976
87.259,80.0656,0.017976
87.290,80.0594,0.017976
87.321,80.0532,0.017976
87.352,80.0471,0.017976
87.383,80.0408,0.017976
87.414,80.0347,0.017976
87.445,80.0284,0.017976
87.477,80.0219,0.018033
87.508,80.0157,0.018033
87.540,80.0095,0.018033
87.570,80.0033,0.018033
87.601,79.9971,0.018033
87.632,79.9909,0.018033
87.664,79.9846,0.018033
87.695,79.9782,0.018033
87.727,79.9720,0.018155
87.758,79.9657,0.018155
87.788,79.9598,0.018155
87.818,79.9536,0.018155
87.849,79.9475,0.018155
87.880,79.9414,0.018155
87.912,79.9351,0.018155
87.943,79.9289,0.018155
87.974,79.9226,0.018155
88.006,79.9162,0.018287
88.037,79.9100,0.018287
88.068,79.9037,0.018287
88.099,79.8976,0.018287
88.130,79.8913,0.018287
88.162,79.8850,0.018287
88.194,79.8787,0.018287
88.225,79.8725,0.018287
88.256,79.8661,0.018287
88.288,79.8598,0.018287
88.318,79.8536,0.018287
88.350,79.8474,0.018287
88.380,79.8415,0.018287
88.411,79.8353,0.018287
88.442,79.8289,0.018287
88.474,79.8226,0.018325
88.506,79.8163,0.018325
88.536,79.8100,0.018325
88.567,79.8040,0.018325
88.598,79.7978,0.018325
88.629,79.7916,0.018325
88.660,79.7855,0.018325
88.690,79.7793,0.018325
88.721,79.7732,0.018325
88.752,79.7669,0.018419
88.783,79.7608,0.018419
88.815,79.7544,0.018419
88.845,79.7483,0.018419
88.876,79.7420,0.018419
88.906,79.7362,0.018419
88.938,79.7297,0.018419
88.969,79.7235,0.018457
89.001,79.7169,0.018457
89.030,79.7114,0.018457
89.061,79.7050,0.018457
89.092,79.6991,0.018457
89.122,79.6930,0.018457
89.153,79.6867,0.018457
89.184,79.6806,0.018457
89.215,79.6743,0.018513
89.246,79.6679,0.018513
89.278,79.6616,0.018513
89.309,79.6557,0.018513
89.340,79.6493,0.018513
89.370,79.6433,0.018513
89.401,79.6371,0.018513
89.432,79.6310,0.018513
89.463,79.6249,0.018513
89.493,79.6187,0.018598
89.525,79.6125,0.018598
89.556,79.6062,0.018598
89.586,79.6002,0.018598
89.617,79.5940,0.018598
89.648,79.5877,0.018598
89.680,79.5814,0.018598
89.711,79.5753,0.018598
89.742,79.5690,0.018598
89.773,79.5629,0.018617
89.804,79.5567,0.018617
89.834,79.5506,0.018617
89.864,79.5445,0.018617
89.895,79.5382,0.018617
89.927,79.5320,0.018617
89.957,79.5259,0.018617
89.989,79.5195,0.018636
90.020,79.5133,0.018636
90.052,79.5068,0.018636
90.083,79.5009,0.018636
90.114,79.4947,0.018636
90.145,79.4882,0.018636
90.177,79.4820,0.018636
90.208,79.4760,0.018636
90.239,79.4695,0.018711
90.270,79.4634,0.018711
90.301,79.4570,0.018711
90.332,79.4510,0.018711
90.363,79.4447,0.018711
90.394,79.4386,0.018711
90.425,79.4323,0.018711
90.456,79.4262,0.018711
90.487,79.4199,0.018796
90.519,79.4136,0.018796
90.550,79.4072,0.018796
90.581,79.4010,0.018796
90.612,79.3947,0.018796
90.644,79.3885,0.018796
90.675,79.3823,0.018796
90.707,79.3761,0.018796
90.737,79.3700,0.018815
90.768,79.3640,0.018815
90.799,79.3584,0.018815
90.829,79.3537,0.018815
90.861,79.3496,0.018815
90.891,79.3464,0.018815
90.922,79.3437,0.018815
90.953,79.3419,0.018815
90.985,79.3406,0.018702
91.016,79.3403,0.018702
91.047,79.3403,0.018702
91.078,79.3403,0.018702
91.109,79.3403,0.018702
91.140,79.3403,0.018702
91.172,79.3403,0.018702
91.204,79.3403,0.018702
91.235,79.3403,0.018561
91.266,79.3403,0.018561
91.297,79.3403,0.018561
91.328,79.3403,0.018561
91.359,79.3403,0.018561
91.390,79.3403,0.018561
91.420,79.3403,0.018561
91.450,79.3403,0.018561
91.482,79.3403,0.018561
91.512,79.3403,0.018561
91.542,79.3403,0.018561
91.573,79.3403,0.018561
91.604,79.3406,0.018561
91.635,79.3418,0.018561
91.666,79.3435,0.018561
91.698,79.3461,0.018561
91.730,79.3496,0.018561
91.761,79.3535,0.018532
91.793,79.3585,0.018532
91.824,79.3640,0.018532
91.854,79.3699,0.018532
91.886,79.3762,0.018532
91.916,79.3824,0.018532
91.948,79.3888,0.018532
91.980,79.3950,0.018532
92.011,79.4012,0.018344
92.042,79.4074,0.018344
92.073,79.4137,0.018344
92.102,79.4195,0.018344
92.134,79.4261,0.018344
92.164,79.4319,0.018344
92.195,79.4381,0.018344
92.227,79.4446,0.018344
92.259,79.4510,0.018165
92.290,79.4570,0.018165
92.321,79.4633,0.018165
92.352,79.4696,0.018165
92.383,79.4757,0.018165
92.414,79.4820,0.018165
92.445,79.4881,0.018165
92.476,79.4942,0.018071
92.506,79.5003,0.018071
92.538,79.5067,0.018071
92.570,79.5130,0.018071
92.602,79.5195,0.018071
92.631,79.5253,0.018071
92.662,79.5315,0.018071
92.694,79.5380,0.018071
92.724,79.5439,0.018033
92.755,79.5502,0.018033
92.786,79.5563,0.018033
92.818,79.5628,0.018033
92.849,79.5690,0.018033
92.880,79.5752,0.018033
92.911,79.5814,0.018033
92.943,79.5877,0.018033
92.974,79.5938,0.017910
93.005,79.6001,0.017910
93.036,79.6064,0.017910
93.067,79.6126,0.017910
93.098,79.6190,0.017910
93.132,79.6257,0.017910
93.160,79.6312,0.017910
93.191,79.6374,0.017910
93.223,79.6436,0.017910
93.255,79.6501,0.017760
93.286,79.6563,0.017760
93.317,79.6625,0.017760
93.346,79.6684,0.017760
93.377,79.6746,0.017760
93.409,79.6808,0.017760
93.440,79.6872,0.017760
93.471,79.6934,0.017760
93.501,79.6993,0.017665
93.532,79.7055,0.017665
93.564,79.7118,0.017665
93.595,79.7182,0.017665
93.626,79.7242,0.017665
93.658,79.7307,0.017665
93.691,79.7373,0.017665
93.719,79.7429,0.017628
93.750,79.7493,0.017628
93.782,79.7554,0.017628
93.812,79.7617,0.017628
93.844,79.7678,0.017628
93.875,79.7742,0.017628
93.907,79.7806,0.017628
93.938,79.7869,0.017628
93.970,79.7930,0.017628
94.001,79.7994,0.017571
94.031,79.8052,0.017571
94.062,79.8117,0.017571
94.093,79.8178,0.017571
94.124,79.8238,0.017571
94.154,79.8300,0.017571
94.185,79.8361,0.017571
94.217,79.8426,0.017571
94.249,79.8488,0.017430
94.279,79.8550,0.017430
94.310,79.8613,0.017430
94.341,79.8674,0.017430
94.372,79.8736,0.017430
94.404,79.8799,0.017430
94.435,79.8860,0.017430
94.465,79.8922,0.017430
94.498,79.8986,0.017326
94.528,79.9047,0.017326
94.560,79.9110,0.017326
94.591,79.9172,0.017326
94.622,79.9234,0.017326
94.653,79.9296,0.017326
94.683,79.9356,0.017326
94.713,79.9419,0.017326
94.745,79.9480,0.017213
94.776,79.9543,0.017213
94.806,79.9604,0.017213
94.838,79.9666,0.017213
94.868,79.9729,0.017213
94.900,79.9791,0.017213
94.931,79.9852,0.017213
94.962,79.9914,0.017157
94.993,79.9976,0.017157
95.024,80.0039,0.017157
95.055,80.0101,0.017157
95.086,80.0162,0.017157
95.117,80.0224,0.017157
95.148,80.0287,0.017157
95.179,80.0349,0.017157
95.211,80.0413,0.017157
95.244,80.0480,0.017100
95.273,80.0538,0.017100
95.305,80.0601,0.017100
95.335,80.0663,0.017100
95.366,80.0723,0.017100
95.397,80.0785,0.017100
95.429,80.0849,0.017100
95.458,80.0907,0.017100
95.489,80.0969,0.016978
95.520,80.1033,0.016978
95.551,80.1092,0.016978
95.582,80.1154,0.016978
95.612,80.1216,0.016978
95.643,80.1278,0.016978
95.674,80.1340,0.016978
95.706,80.1402,0.016978
95.737,80.1465,0.016902
95.768,80.1526,0.016902
95.799,80.1591,0.016902
95.829,80.1648,0.016902
95.860,80.1712,0.016902
95.892,80.1774,0.016902
95.923,80.1838,0.016902
95.954,80.1897,0.016902
95.985,80.1960,0.016902
96.015,80.2021,0.016761
96.046,80.2084,0.016761
96.077,80.2146,0.016761
96.109,80.2208,0.016761
96.139,80.2268,0.016761
96.170,80.2330,0.016761
96.201,80.2392,0.016761
96.231,80.2453,0.016761
96.262,80.2515,0.016601
96.294,80.2578,0.016601
96.325,80.2640,0.016601
96.356,80.2703,0.016601
96.386,80.2763,0.016601
96.419,80.2830,0.016601
96.450,80.2891,0.016601
96.480,80.2950,0.016601
96.511,80.3012,0.016488
96.542,80.3075,0.016488
96.573,80.3137,0.016488
96.604,80.3201,0.016488
96.635,80.3261,0.016488
96.666,80.3323,0.016488
96.697,80.3384,0.016488
96.729,80.3450,0.016488
96.761,80.3512,0.016394
96.793,80.3576,0.016394
96.823,80.3637,0.016394
96.854,80.3699,0.016394
96.886,80.3762,0.016394
96.917,80.3824,0.016394
96.947,80.3890,0.016394
96.978,80.3947,0.016290
97.009,80.4010,0.016290
97.040,80.4070,0.016290
97.071,80.4132,0.016290
97.102,80.4194,0.016290
97.132,80.4255,0.016290
97.163,80.4318,0.016290
97.194,80.4379,0.016290
97.225,80.4442,0.016290
97.257,80.4505,0.016167
97.289,80.4570,0.016167
97.320,80.4632,0.016167
97.352,80.4695,0.016167
97.383,80.4756,0.016167
97.414,80.4819,0.016167
97.445,80.4880,0.016167
97.476,80.4943,0.016167
97.508,80.5005,0.016167
97.538,80.5067,0.016073
97.569,80.5130,0.016073
97.600,80.5190,0.016073
97.630,80.5249,0.016073
97.661,80.5313,0.016073
97.691,80.5373,0.016073
97.723,80.5437,0.016073
97.755,80.5500,0.016007
97.786,80.5562,0.016007
97.817,80.5625,0.016007
97.849,80.5688,0.016007
97.880,80.5751,0.016007
97.911,80.5814,0.016007
97.941,80.5873,0.016007
97.972,80.5937,0.016007
98.003,80.5997,0.015904
98.034,80.6061,0.015904
98.065,80.6125,0.015904
98.095,80.6180,0.015904
98.126,80.6244,0.015904
98.158,80.6307,0.015904
98.189,80.6371,0.015904
98.220,80.6430,0.015904
98.251,80.6495,0.015706
98.282,80.6554,0.015706
98.314,80.6619,0.015706
98.346,80.6682,0.015706
98.377,80.6744,0.015706
98.407,80.6806,0.015706
98.438,80.6867,0.015706
98.469,80.6930,0.015706
98.499,80.6990,0.015583
98.530,80.7050,0.015583
98.560,80.7111,0.015583
98.592,80.7176,0.015583
98.623,80.7236,0.015583
98.654,80.7298,0.015583
98.685,80.7360,0.015583
98.716,80.7424,0.015583
98.748,80.7487,0.015517
98.780,80.7551,0.015517
98.811,80.7612,0.015517
98.841,80.7673,0.015517
98.873,80.7736,0.015517
98.903,80.7798,0.015517
98.933,80.7856,0.015517
98.965,80.7921,0.015517
98.995,80.7983,0.015338
99.026,80.8044,0.015338
99.056,80.8102,0.015338
99.088,80.8165,0.015338
99.118,80.8226,0.015338
99.149,80.8289,0.015338
99.180,80.8350,0.015338
99.212,80.8415,0.015338
99.242,80.8477,0.015244
99.273,80.8539,0.015244
99.305,80.8601,0.015244
99.336,80.8663,0.015244
99.367,80.8723,0.015244
99.398,80.8788,0.015244
99.429,80.8849,0.015244
99.461,80.8913,0.015244
99.491,80.8973,0.015093
99.522,80.9036,0.015093
99.554,80.9098,0.015093
99.585,80.9160,0.015093
99.616,80.9222,0.015093
99.647,80.9285,0.015093
99.678,80.9348,0.015093
99.709,80.9409,0.015093
99.739,80.9470,0.014952
99.770,80.9531,0.014952
99.801,80.9594,0.014952
99.831,80.9652,0.014952
99.861,80.9712,0.014952
99.892,80.9774,0.014952
99.922,80.9835,0.014952
99.953,80.9897,0.014952
99.984,80.9957,0.014792
100.014,81.0019,0.014792
100.045,81.0081,0.014792
100.076,81.0143,0.014792
100.108,81.0208,0.014792
100.139,81.0270,0.014792
100.171,81.0333,0.014792
100.201,81.0393,0.014792
100.234,81.0458,0.014613
100.264,81.0518,0.014613
100.295,81.0580,0.014613
100.325,81.0641,0.014613
100.356,81.0704,0.014613
100.388,81.0766,0.014613
100.419,81.0831,0.014613
100.451,81.0893,0.014613
100.483,81.0957,0.014613
100.514,81.1018,0.014509
100.545,81.1080,0.014509
100.575,81.1141,0.014509
100.606,81.1203,0.014509
100.637,81.1266,0.014509
100.669,81.1328,0.014509
100.700,81.1390,0.014509
100.731,81.1452,0.014509
100.762,81.1514,0.014377
100.793,81.1577,0.014377
100.825,81.1639,0.014377
100.855,81.1701,0.014377
100.887,81.1764,0.014377
100.918,81.1826,0.014377
100.949,81.1887,0.014377
100.980,81.1950,0.014377
101.011,81.2012,0.014198
101.042,81.2074,0.014198
101.073,81.2136,0.014198
101.104,81.2198,0.014198
101.136,81.2262,0.014198
101.167,81.2325,0.014198
101.198,81.2387,0.014198
101.229,81.2449,0.014198
101.260,81.2510,0.014048
101.290,81.2572,0.014048
101.321,81.2633,0.014048
101.353,81.2696,0.014048
101.383,81.2757,0.014048
101.415,81.2821,0.014048
101.446,81.2881,0.014048
101.476,81.2943,0.014048
101.507,81.3003,0.013944
101.537,81.3065,0.013944
101.568,81.3126,0.013944
101.598,81.3188,0.013944
101.629,81.3249,0.013944
101.661,81.3312,0.013944
101.692,81.3373,0.013944
101.724,81.3439,0.013944
101.755,81.3499,0.013793
101.786,81.3562,0.013793
101.818,81.3626,0.013793
101.848,81.3687,0.013793
101.879,81.3750,0.013793
101.909,81.3810,0.013793
101.940,81.3870,0.013793
101.971,81.3932,0.013793
102.003,81.3996,0.013642
102.034,81.4059,0.013642
102.065,81.4121,0.013642
102.096,81.4183,0.013642
102.127,81.4245,0.013642
102.159,81.4307,0.013642
102.189,81.4368,0.013642
102.221,81.4432,0.013642
102.253,81.4495,0.013529
102.284,81.4557,0.013529
102.314,81.4618,0.013529
102.345,81.4680,0.013529
102.375,81.4741,0.013529
102.406,81.4803,0.013529
102.437,81.4865,0.013529
102.468,81.4927,0.013529
102.499,81.4990,0.013369
102.529,81.5050,0.013369
102.560,81.5112,0.013369
102.592,81.5174,0.013369
102.622,81.5235,0.013369
102.653,81.5298,0.013369
102.684,81.5357,0.013369
102.715,81.5419,0.013369
102.746,81.5484,0.013171
102.776,81.5543,0.013171
102.807,81.5604,0.013171
102.837,81.5666,0.013171
102.869,81.5727,0.013171
102.900,81.5789,0.013171
102.931,81.5852,0.013171
102.961,81.5913,0.013171
102.992,81.5976,0.012992
103.024,81.6037,0.012992
103.055,81.6100,0.012992
103.087,81.6165,0.012992
103.117,81.6226,0.012992
103.148,81.6288,0.012992
103.179,81.6348,0.012992
103.210,81.6412,0.012992
103.241,81.6474,0.012795
103.272,81.6536,0.012795
103.303,81.6596,0.012795
103.334,81.6658,0.012795
103.365,81.6719,0.012795
103.396,81.6782,0.012795
103.427,81.6844,0.012795
103.458,81.6908,0.012795
103.490,81.6971,0.012606
103.521,81.7033,0.012606
103.552,81.7096,0.012606
103.584,81.7158,0.012606
103.615,81.7220,0.012606
103.646,81.7282,0.012606
103.677,81.7344,0.012606
103.708,81.7407,0.012371
103.739,81.7467,0.012371
103.770,81.7531,0.012371
103.801,81.7592,0.012371
103.832,81.7657,0.012371
103.864,81.7718,0.012371
103.895,81.7781,0.012371
103.927,81.7844,0.012371
103.958,81.7909,0.012371
103.990,81.7971,0.012126
104.022,81.8036,0.012126
104.054,81.8098,0.012126
104.085,81.8162,0.012126
104.115,81.8220,0.012126
104.145,81.8283,0.012126
104.177,81.8343,0.012126
104.207,81.8406,0.011881
104.238,81.8468,0.011881
104.268,81.8526,0.011881
104.299,81.8588,0.011881
104.329,81.8649,0.011881
104.360,81.8708,0.011881
104.390,81.8770,0.011881
104.422,81.8834,0.011881
104.454,81.8897,0.011881
104.485,81.8960,0.011513
104.517,81.9025,0.011513
104.548,81.9086,0.011513
104.579,81.9148,0.011513
104.610,81.9211,0.011513
104.641,81.9274,0.011513
104.672,81.9335,0.011513
104.703,81.9398,0.011513
104.735,81.9460,0.011023
104.765,81.9521,0.011023
104.797,81.9584,0.011023
104.828,81.9646,0.011023
104.859,81.9707,0.011023
104.889,81.9769,0.011023
104.921,81.9831,0.011023
104.951,81.9893,0.011023
104.983,81.9955,0.010373
105.013,82.0017,0.010373
105.044,82.0079,0.010373
105.075,82.0141,0.010373
105.107,82.0203,0.010373
105.138,82.0266,0.010373
105.169,82.0328,0.010373
105.201,82.0391,0.010373
105.231,82.0452,0.009525
105.262,82.0514,0.009525
105.293,82.0576,0.009525
105.324,82.0638,0.009525
105.356,82.0704,0.009525
105.386,82.0762,0.009525
105.417,82.0824,0.009525
105.448,82.0886,0.009525
105.480,82.0951,0.008357
105.509,82.1009,0.008357
105.540,82.1072,0.008357
105.571,82.1132,0.008357
105.602,82.1194,0.008357
105.633,82.1256,0.008357
105.664,82.1317,0.008357
105.695,82.1380,0.008357
105.727,82.1444,0.008357
105.758,82.1506,0.006736
105.790,82.1571,0.006736
105.821,82.1632,0.006736
105.851,82.1694,0.006736
105.883,82.1756,0.006736
105.913,82.1817,0.006736
105.944,82.1877,0.006736
105.975,82.1942,0.006736
106.006,82.2003,0.004485
106.037,82.2065,0.004485
106.069,82.2128,0.004485
106.099,82.2189,0.004485
106.130,82.2249,0.004485
106.161,82.2313,0.004485
106.191,82.2372,0.004485
106.222,82.2434,0.004485
106.253,82.2496,0.001347
106.284,82.2558,0.001347
106.315,82.2621,0.001347
106.346,82.2682,0.001347
106.377,82.2744,0.001347
106.408,82.2806,0.001347
106.439,82.2867,0.001347
106.470,82.2930,0.001347
106.501,82.2991,-0.002751
106.532,82.3054,-0.002751
106.563,82.3116,-0.002751
106.594,82.3177,-0.002751
106.625,82.3229,-0.002751
106.655,82.3276,-0.002751
106.687,82.3316,-0.002751
106.718,82.3348,-0.002751
106.749,82.3372,-0.008131
106.780,82.3390,-0.008131
106.811,82.3400,-0.008131
106.842,82.3403,-0.008131
106.874,82.3403,-0.008131
106.905,82.3403,-0.008131
106.936,82.3403,-0.008131
106.967,82.3403,-0.008131
106.998,82.3403,-0.011523
107.029,82.3403,-0.011523
107.060,82.3403,-0.011523
107.091,82.3403,-0.011523
107.122,82.3403,-0.011523
107.154,82.3403,-0.011523
107.186,82.3403,-0.011523
107.217,82.3403,-0.011523
107.248,82.3403,-0.010401
107.279,82.3403,-0.010401
107.310,82.3403,-0.010401
107.341,82.3403,-0.010401
107.371,82.3403,-0.010401
107.402,82.3403,-0.010401
107.433,82.3403,-0.010401
107.466,82.3403,-0.010401
107.496,82.3403,-0.010401
107.527,82.3403,-0.007924
107.559,82.3403,-0.007924
107.589,82.3403,-0.007924
107.619,82.3403,-0.007924
107.650,82.3403,-0.007924
107.682,82.3403,-0.007924
107.713,82.3403,-0.007924
107.744,82.3403,-0.006152
107.776,82.3403,-0.006152
107.808,82.3403,-0.006152
107.839,82.3403,-0.006152
107.871,82.3403,-0.006152
107.902,82.3403,-0.006152
107.933,82.3403,-0.006152
107.963,82.3403,-0.006152
107.995,82.3403,-0.004833
108.026,82.3403,-0.004833
108.057,82.3403,-0.004833
108.088,82.3403,-0.004833
108.119,82.3403,-0.004833
108.150,82.3403,-0.004833
108.182,82.3403,-0.004833
108.213,82.3403,-0.004833
108.244,82.3403,-0.003825
108.275,82.3403,-0.003825
108.306,82.3403,-0.003825
108.337,82.3403,-0.003825
108.369,82.3403,-0.003825
108.399,82.3403,-0.003825
108.430,82.3403,-0.003825
108.462,82.3403,-0.003825
108.493,82.3403,-0.002987
108.524,82.3403,-0.002987
108.555,82.3403,-0.002987
108.586,82.3403,-0.002987
108.617,82.3403,-0.002987
108.648,82.3403,-0.002987
108.680,82.3403,-0.002987
108.711,82.3403,-0.002987
108.741,82.3403,-0.002280
108.774,82.3403,-0.002280
108.804,82.3403,-0.002280
108.835,82.3403,-0.002280
108.865,82.3403,-0.002280
108.896,82.3403,-0.002280
108.928,82.3403,-0.002280
108.960,82.3403,-0.002280
108.991,82.3403,-0.001705
109.022,82.3403,-0.001705
109.053,82.3403,-0.001705
109.084,82.3403,-0.001705
109.115,82.3403,-0.001705
109.147,82.3403,-0.001705
109.177,82.3403,-0.001705
109.208,82.3403,-0.001705
109.240,82.3403,-0.001159
109.271,82.3403,-0.001159
109.302,82.3403,-0.001159
109.333,82.3403,-0.001159
109.364,82.3403,-0.001159
109.395,82.3403,-0.001159
109.426,82.3403,-0.001159
109.456,82.3403,-0.001159
109.488,82.3403,-0.000697
109.519,82.3403,-0.000697
109.551,82.3403,-0.000697
109.582,82.3403,-0.000697
109.613,82.3403,-0.000697
109.644,82.3403,-0.000697
109.676,82.3403,-0.000697
109.706,82.3403,-0.000697
109.737,82.3403,-0.000273
109.769,82.3403,-0.000273
109.800,82.3403,-0.000273
109.831,82.3403,-0.000273
109.862,82.3403,-0.000273
109.894,82.3403,-0.000273
109.925,82.3403,-0.000273
109.956,82.3403,-0.000273
109.988,82.3403,0.000141
110.018,82.3403,0.000141
110.049,82.3403,0.000141
110.079,82.3403,0.000141
110.110,82.3403,0.000141
110.141,82.3403,0.000141
110.173,82.3403,0.000141
110.204,82.3403,0.000141
110.235,82.3403,0.000499
110.267,82.3403,0.000499
110.297,82.3403,0.000499
110.328,82.3403,0.000499
110.360,82.3403,0.000499
110.390,82.3403,0.000499
110.422,82.3403,0.000499
110.453,82.3403,0.000499
110.484,82.3403,0.000791
110.516,82.3403,0.000791
110.547,82.3403,0.000791
110.578,82.3403,0.000791
110.609,82.3403,0.000791
110.640,82.3403,0.000791
110.671,82.3403,0.000791
110.702,82.3403,0.001055
110.733,82.3403,0.001055
110.765,82.3403,0.001055
110.796,82.3403,0.001055
110.827,82.3403,0.001055
110.858,82.3403,0.001055
110.888,82.3403,0.001055
110.919,82.3403,0.001055
110.950,82.3403,0.001055
110.981,82.3403,0.001413
111.012,82.3403,0.001413
111.043,82.3403,0.001413
111.074,82.3403,0.001413
111.105,82.3403,0.001413
111.136,82.3403,0.001413
111.166,82.3403,0.001413
111.197,82.3403,0.001413
111.228,82.3403,0.001413
111.259,82.3403,0.001941
111.291,82.3403,0.001941
111.322,82.3403,0.001941
111.352,82.3403,0.001941
111.383,82.3403,0.001941
111.415,82.3402,0.001941
111.444,82.3394,0.001941
111.475,82.3379,0.001941
111.506,82.3358,0.002412
111.537,82.3327,0.002412
111.568,82.3292,0.002412
111.599,82.3248,0.002412
111.630,82.3197,0.002412
111.661,82.3139,0.002412
111.691,82.3079,0.002412
111.722,82.3017,0.002412
111.754,82.2954,0.004598
111.784,82.2893,0.004598
111.815,82.2830,0.004598
111.846,82.2768,0.004598
111.877,82.2707,0.004598
111.908,82.2644,0.004598
111.939,82.2582,0.004598
111.970,82.2521,0.004598
112.002,82.2458,0.013030
112.032,82.2396,0.013030
112.064,82.2334,0.013030
112.094,82.2273,0.013030
112.126,82.2208,0.013030
112.157,82.2146,0.013030
112.187,82.2087,0.013030
112.218,82.2024,0.013030
112.250,82.1962,0.025664
112.281,82.1898,0.025664
112.312,82.1838,0.025664
112.342,82.1776,0.025664
112.373,82.1715,0.025664
112.404,82.1654,0.025664
112.434,82.1591,0.025664
112.466,82.1529,0.025664
112.496,82.1467,0.025664
112.528,82.1406,0.038318
112.558,82.1345,0.038318
112.589,82.1282,0.038318
112.620,82.1221,0.038318
112.651,82.1158,0.038318
112.683,82.1096,0.038318
112.713,82.1035,0.038318
112.745,82.0971,0.051866
112.777,82.0906,0.051866
112.808,82.0844,0.051866
112.839,82.0783,0.051866
112.869,82.0723,0.051866
112.900,82.0661,0.051866
112.931,82.0597,0.051866
112.963,82.0535,0.051866
112.994,82.0471,0.067035
113.025,82.0413,0.067035
113.055,82.0349,0.067035
113.086,82.0290,0.067035
113.116,82.0230,0.067035
113.147,82.0168,0.067035
113.177,82.0106,0.067035
113.209,82.0044,0.067035
113.240,81.9982,0.084531
113.271,81.9919,0.084531
113.301,81.9858,0.084531
113.333,81.9795,0.084531
113.365,81.9732,0.084531
113.395,81.9670,0.084531
113.426,81.9609,0.084531
113.457,81.9548,0.084531
113.488,81.9484,0.104881
113.519,81.9422,0.104881
113.550,81.9360,0.104881
113.581,81.9299,0.104881
113.612,81.9236,0.104881
113.643,81.9176,0.104881
113.674,81.9114,0.104881
113.704,81.9053,0.104881
113.734,81.8992,0.128313
113.766,81.8930,0.128313
113.797,81.8867,0.128313
113.828,81.8804,0.128313
113.859,81.8743,0.128313
113.891,81.8679,0.128313
113.921,81.8619,0.128313
113.953,81.8556,0.128313
113.984,81.8491,0.155136
114.015,81.8431,0.155136
114.046,81.8370,0.155136
114.077,81.8307,0.155136
114.108,81.8245,0.155136
114.139,81.8184,0.155136
114.169,81.8122,0.155136
114.201,81.8060,0.155136
114.232,81.7997,0.185540
114.264,81.7935,0.185540
114.294,81.7873,0.185540
114.326,81.7809,0.185540
114.357,81.7747,0.185540
114.389,81.7683,0.185540
114.420,81.7621,0.185540
114.452,81.7558,0.185540
114.484,81.7493,0.219825
114.514,81.7432,0.219825
114.544,81.7374,0.219825
114.574,81.7312,0.219825
114.605,81.7251,0.219825
114.636,81.7188,0.219825
114.668,81.7123,0.219825
114.700,81.7061,0.219825
114.731,81.6999,0.219825
114.762,81.6937,0.258001
114.794,81.6873,0.258001
114.824,81.6813,0.258001
114.855,81.6749,0.258001
114.887,81.6688,0.258001
114.919,81.6622,0.258001
114.950,81.6562,0.258001
114.982,81.6496,0.258001
115.013,81.6435,0.300144
115.044,81.6373,0.300144
115.075,81.6312,0.300144
115.107,81.6247,0.300144
115.137,81.6188,0.300144
115.169,81.6125,0.300144
115.199,81.6063,0.300144
115.230,81.6000,0.300144
115.262,81.5937,0.346253
115.292,81.5877,0.346253
115.323,81.5816,0.346253
115.353,81.5754,0.346253
115.385,81.5692,0.346253
115.416,81.5629,0.346253
115.447,81.5567,0.346253
115.479,81.5504,0.346253
115.510,81.5442,0.395952
115.541,81.5381,0.395952
115.572,81.5318,0.395952
115.603,81.5256,0.395952
115.635,81.5192,0.395952
115.665,81.5130,0.395952
115.697,81.5068,0.395952
115.727,81.5005,0.395952
115.759,81.4942,0.448195
115.789,81.4881,0.448195
115.820,81.4820,0.448195
115.851,81.4758,0.448195
115.882,81.4698,0.448195
115.914,81.4633,0.448195
115.945,81.4571,0.448195
115.977,81.4507,0.448195
116.008,81.4446,0.500381
116.039,81.4383,0.500381
116.069,81.4321,0.500381
116.100,81.4261,0.500381
116.132,81.4199,0.500381
116.163,81.4136,0.500381
116.194,81.4074,0.500381
116.225,81.4009,0.500381
116.256,81.3950,0.550523
116.287,81.3886,0.550523
116.317,81.3826,0.550523
116.348,81.3764,0.550523
116.380,81.3702,0.550523
116.410,81.3640,0.550523
116.442,81.3578,0.550523
116.473,81.3513,0.550523
116.504,81.3454,0.589811
116.536,81.3389,0.589811
116.567,81.3327,0.589811
116.599,81.3263,0.589811
116.629,81.3203,0.589811
116.660,81.3141,0.589811
116.691,81.3079,0.589811
116.722,81.3017,0.589811
116.753,81.2954,0.462016
116.785,81.2892,0.462016
116.816,81.2831,0.462016
116.847,81.2768,0.462016
116.878,81.2707,0.462016
116.909,81.2642,0.462016
116.939,81.2583,0.462016
116.970,81.2521,0.462016
117.002,81.2458,0.168194
117.033,81.2396,0.168194
117.064,81.2335,0.168194
117.095,81.2272,0.168194
117.126,81.2210,0.168194
117.157,81.2146,0.168194
117.189,81.2084,0.168194
117.220,81.2021,0.168194
117.252,81.1959,0.016789
117.282,81.1896,0.016789
117.312,81.1838,0.016789
117.343,81.1776,0.016789
117.374,81.1714,0.016789
117.405,81.1652,0.016789
117.436,81.1588,0.016789
117.467,81.1528,0.016789
117.499,81.1464,0.016639
117.529,81.1405,0.016639
117.560,81.1341,0.016639
117.591,81.1279,0.016639
117.622,81.1217,0.016639
117.652,81.1155,0.016639
117.684,81.1093,0.016639
117.716,81.1030,0.016639
117.747,81.0968,0.016648
117.779,81.0902,0.016648
117.811,81.0840,0.016648
117.842,81.0776,0.016648
117.873,81.0715,0.016648
117.904,81.0653,0.016648
117.936,81.0590,0.016648
117.967,81.0528,0.016648
117.998,81.0462,0.016648
118.027,81.0406,0.016667
118.058,81.0346,0.016667
118.088,81.0285,0.016667
118.119,81.0223,0.016667
118.150,81.0161,0.016667
118.181,81.0100,0.016667
118.212,81.0039,0.016667
118.243,80.9976,0.016761
118.274,80.9914,0.016761
118.304,80.9852,0.016761
118.335,80.9791,0.016761
118.366,80.9728,0.016761
118.398,80.9666,0.016761
118.428,80.9604,0.016761
118.460,80.9542,0.016761
118.490,80.9480,0.016827
118.520,80.9420,0.016827
118.551,80.9357,0.016827
118.582,80.9296,0.016827
118.614,80.9233,0.016827
118.644,80.9172,0.016827
118.675,80.9110,0.016827
118.706,80.9048,0.016827
118.738,80.8986,0.016827
118.769,80.8923,0.016827
118.800,80.8862,0.016827
118.831,80.8799,0.016827
118.862,80.8737,0.016827
118.893,80.8674,0.016827
118.924,80.8613,0.016827
118.956,80.8550,0.016827
118.987,80.8488,0.016902
119.019,80.8424,0.016902
119.049,80.8361,0.016902
119.081,80.8299,0.016902
119.112,80.8238,0.016902
119.143,80.8176,0.016902
119.173,80.8114,0.016902
119.204,80.8054,0.016902
119.235,80.7990,0.016968
119.267,80.7928,0.016968
119.298,80.7866,0.016968
119.329,80.7803,0.016968
119.361,80.7739,0.016968
119.391,80.7679,0.016968
119.423,80.7615,0.016968
119.453,80.7555,0.016968
119.483,80.7496,0.017006
119.515,80.7432,0.017006
119.546,80.7369,0.017006
119.577,80.7307,0.017006
119.609,80.7244,0.017006
119.641,80.7180,0.017006
119.672,80.7118,0.017006
119.702,80.7058,0.017006
119.733,80.6997,0.017034
119.764,80.6934,0.017034
119.795,80.6872,0.017034
119.826,80.6810,0.017034
119.857,80.6749,0.017034
119.887,80.6688,0.017034
119.919,80.6624,0.017034
119.951,80.6559,0.017034
119.983,80.6496,0.017100
120.014,80.6434,0.017100
120.045,80.6372,0.017100
120.076,80.6309,0.017100
120.106,80.6250,0.017100
120.137,80.6186,0.017100
120.168,80.6125,0.017100
120.200,80.6062,0.017100
120.230,80.6000,0.017270
120.261,80.5938,0.017270
120.293,80.5876,0.017270
120.324,80.5815,0.017270
120.354,80.5752,0.017270
120.385,80.5692,0.017270
120.416,80.5629,0.017270
120.448,80.5567,0.017270
120.479,80.5502,0.017260
120.510,80.5440,0.017260
120.541,80.5381,0.017260
120.572,80.5318,0.017260
120.603,80.5256,0.017260
120.635,80.5192,0.017260
120.666,80.5130,0.017260
120.698,80.5065,0.017260
120.729,80.5003,0.017260
120.760,80.4942,0.017307
120.792,80.4879,0.017307
120.822,80.4818,0.017307
120.853,80.4755,0.017307
120.883,80.4695,0.017307
120.915,80.4632,0.017307
120.945,80.4572,0.017307
120.976,80.4507,0.017307
121.008,80.4446,0.017458
121.039,80.4383,0.017458
121.070,80.4322,0.017458
121.102,80.4257,0.017458
121.133,80.4196,0.017458
121.163,80.4134,0.017458
121.194,80.4074,0.017458
121.226,80.4010,0.017458
121.257,80.3946,0.017562
121.288,80.3886,0.017562
121.318,80.3824,0.017562
121.350,80.3761,0.017562
121.380,80.3702,0.017562
121.411,80.3638,0.017562
121.442,80.3578,0.017562
121.473,80.3517,0.017562
121.504,80.3455,0.017628
121.535,80.3392,0.017628
121.566,80.3330,0.017628
121.597,80.3268,0.017628
121.628,80.3206,0.017628
121.660,80.3142,0.017628
121.692,80.3079,0.017628
121.722,80.3016,0.017628
121.753,80.2956,0.017628
121.784,80.2893,0.017628
121.815,80.2832,0.017628
121.847,80.2768,0.017628
121.878,80.2706,0.017628
121.908,80.2646,0.017628
121.939,80.2583,0.017628
121.970,80.2522,0.017628
122.001,80.2459,0.017684
122.033,80.2397,0.017684
122.064,80.2332,0.017684
122.095,80.2272,0.017684
122.126,80.2208,0.017684
122.157,80.2146,0.017684
122.188,80.2084,0.017684
122.221,80.2020,0.017684
122.251,80.1959,0.017807
122.281,80.1900,0.017807
122.312,80.1838,0.017807
122.344,80.1774,0.017807
122.374,80.1714,0.017807
122.406,80.1650,0.017807
122.436,80.1590,0.017807
122.467,80.1526,0.017807
122.498,80.1467,0.017901
122.529,80.1403,0.017901
122.560,80.1341,0.017901
122.593,80.1276,0.017901
122.623,80.1215,0.017901
122.655,80.1153,0.017901
122.686,80.1091,0.017901
122.717,80.1026,0.017901
122.748,80.0966,0.017910
122.779,80.0904,0.017910
122.809,80.0843,0.017910
122.840,80.0781,0.017910
122.871,80.0718,0.017910
122.903,80.0656,0.017910
122.934,80.0594,0.017910
122.965,80.0532,0.017910
122.996,80.0470,0.017986
123.027,80.0408,0.017986
123.057,80.0348,0.017986
123.088,80.0284,0.017986
123.119,80.0223,0.017986
123.151,80.0160,0.017986
123.182,80.0098,0.017986
123.213,80.0034,0.017986
123.244,79.9975,0.018089
123.275,79.9910,0.018089
123.307,79.9848,0.018089
123.338,79.9785,0.018089
123.369,79.9723,0.018089
123.401,79.9658,0.018089
123.432,79.9598,0.018089
123.463,79.9536,0.018089
123.494,79.9474,0.018089
123.525,79.9413,0.018127
123.556,79.9348,0.018127
123.587,79.9288,0.018127
123.617,79.9228,0.018127
123.648,79.9166,0.018127
123.679,79.9105,0.018127
123.710,79.9041,0.018127
123.741,79.8981,0.018174
123.772,79.8917,0.018174
123.804,79.8854,0.018174
123.835,79.8792,0.018174
123.866,79.8730,0.018174
123.898,79.8666,0.018174
123.927,79.8608,0.018174
123.958,79.8545,0.018278
123.989,79.8484,0.018278
124.020,79.8421,0.018278
124.051,79.8361,0.018278
124.082,79.8295,0.018278
124.113,79.8233,0.018278
124.145,79.8173,0.018278
124.176,79.8108,0.018278
124.207,79.8047,0.018278
124.238,79.7984,0.018400
124.269,79.7922,0.018400
124.301,79.7859,0.018400
124.332,79.7798,0.018400
124.363,79.7734,0.018400
124.394,79.7673,0.018400
124.428,79.7607,0.018400
124.456,79.7549,0.018400
124.488,79.7484,0.018410
124.518,79.7426,0.018410
124.549,79.7363,0.018410
124.581,79.7300,0.018410
124.613,79.7236,0.018410
124.643,79.7174,0.018410
124.675,79.7112,0.018410
124.706,79.7049,0.018466
124.737,79.6987,0.018466
124.769,79.6924,0.018466
124.800,79.6862,0.018466
124.830,79.6801,0.018466
124.863,79.6736,0.018466
124.892,79.6677,0.018466
124.923,79.6615,0.018466
124.954,79.6555,0.018466
124.984,79.6492,0.018495
125.016,79.6430,0.018495
125.048,79.6366,0.018495
125.080,79.6302,0.018495
125.110,79.6240,0.018495
125.142,79.6178,0.018495
125.174,79.6114,0.018495
125.205,79.6052,0.018532
125.237,79.5989,0.018532
125.266,79.5929,0.018532
125.298,79.5866,0.018532
125.329,79.5804,0.018532
125.360,79.5743,0.018532
125.391,79.5681,0.018532
125.422,79.5619,0.018532
125.452,79.5557,0.018532
125.484,79.5494,0.018598
125.515,79.5433,0.018598
125.545,79.5371,0.018598
125.578,79.5306,0.018598
125.608,79.5246,0.018598
125.640,79.5182,0.018598
125.672,79.5117,0.018598
125.702,79.5058,0.018598
125.733,79.4996,0.018627
125.764,79.4933,0.018627
125.796,79.4870,0.018627
125.828,79.4807,0.018627
125.858,79.4746,0.018627
125.889,79.4684,0.018627
125.920,79.4621,0.018627
125.951,79.4560,0.018627
125.982,79.4499,0.018721
126.012,79.4437,0.018721
126.043,79.4376,0.018721
126.074,79.4313,0.018721
126.105,79.4254,0.018721
126.136,79.4189,0.018721
126.167,79.4128,0.018721
126.198,79.4064,0.018721
126.230,79.4002,0.018777
126.261,79.3940,0.018777
126.292,79.3878,0.018777
126.324,79.3813,0.018777
126.355,79.3752,0.018777
126.386,79.3689,0.018777
126.416,79.3630,0.018777
126.447,79.3568,0.018777
126.478,79.3506,0.018777
126.510,79.3442,0.018787
126.541,79.3379,0.018787
126.573,79.3317,0.018787
126.604,79.3253,0.018787
126.635,79.3193,0.018787
126.665,79.3134,0.018787
126.697,79.3078,0.018787
126.728,79.3031,0.018787
126.758,79.2992,0.018787
126.790,79.2959,0.018824
126.820,79.2934,0.018824
126.852,79.2917,0.018824
126.883,79.2907,0.018824
126.914,79.2903,0.018824
126.944,79.2903,0.018824
126.975,79.2903,0.018824
127.006,79.2903,0.018655
127.037,79.2903,0.018655
127.068,79.2903,0.018655
127.100,79.2903,0.018655
127.131,79.2903,0.018655
127.161,79.2903,0.018655
127.192,79.2903,0.018655
127.224,79.2903,0.018655
127.256,79.2903,0.018570
127.287,79.2903,0.018570
127.318,79.2903,0.018570
127.349,79.2903,0.018570
127.380,79.2903,0.018570
127.412,79.2903,0.018570
127.443,79.2903,0.018570
127.474,79.2908,0.018570
127.506,79.2920,0.018570
127.537,79.2939,0.018570
127.570,79.2967,0.018570
127.599,79.3000,0.018570
127.630,79.3043,0.018570
127.660,79.3088,0.018570
127.692,79.3146,0.018570
127.722,79.3206,0.018353
127.753,79.3269,0.018353
127.784,79.3328,0.018353
127.815,79.3392,0.018353
127.847,79.3455,0.018353
127.878,79.3517,0.018353
127.908,79.3578,0.018353
127.940,79.3641,0.018353
127.971,79.3703,0.018155
128.002,79.3767,0.018155
128.033,79.3827,0.018155
128.064,79.3890,0.018155
128.095,79.3951,0.018155
128.126,79.4014,0.018155
128.158,79.4076,0.018155
128.189,79.4139,0.018155
128.221,79.4203,0.018099
128.252,79.4266,0.018099
128.283,79.4328,0.018099
128.314,79.4390,0.018099
128.345,79.4451,0.018099
128.375,79.4512,0.018099
128.406,79.4575,0.018099
128.437,79.4636,0.018099
128.469,79.4700,0.018052
128.500,79.4762,0.018052
128.531,79.4822,0.018052
128.562,79.4885,0.018052
128.593,79.4946,0.018052
128.624,79.5009,0.018052
128.655,79.5071,0.018052
128.686,79.5132,0.018052
128.718,79.5196,0.018052
128.749,79.5258,0.018052
128.780,79.5321,0.017958
128.811,79.5385,0.017958
128.843,79.5447,0.017958
128.874,79.5509,0.017958
128.907,79.5576,0.017958
128.937,79.5635,0.017958
128.967,79.5695,0.017863
128.997,79.5755,0.017863
129.027,79.5815,0.017863
129.058,79.5877,0.017863
129.089,79.5940,0.017863
129.118,79.5999,0.017863
129.150,79.6061,0.017863
129.181,79.6123,0.017863
129.212,79.6185,0.017863
129.242,79.6245,0.017863
129.273,79.6309,0.017797
129.305,79.6371,0.017797
129.336,79.6433,0.017797
129.367,79.6493,0.017797
129.397,79.6554,0.017797
129.428,79.6619,0.017797
129.458,79.6678,0.017797
129.490,79.6740,0.017797
129.521,79.6803,0.017750
129.553,79.6869,0.017750
129.584,79.6931,0.017750
129.615,79.6991,0.017750
129.646,79.7053,0.017750
129.677,79.7114,0.017750
129.707,79.7176,0.017750
129.738,79.7236,0.017647
129.770,79.7302,0.017647
129.801,79.7363,0.017647
129.833,79.7426,0.017647
129.864,79.7488,0.017647
129.896,79.7555,0.017647
129.927,79.7615,0.017647
129.959,79.7679,0.017647
129.991,79.7742,0.017581
130.022,79.7804,0.017581
130.053,79.7866,0.017581
130.083,79.7927,0.017581
130.114,79.7989,0.017581
130.146,79.8052,0.017581
130.177,79.8114,0.017581
130.208,79.8176,0.017581
130.239,79.8237,0.017458
130.270,79.8300,0.017458
130.301,79.8362,0.017458
130.332,79.8424,0.017458
130.363,79.8488,0.017458
130.394,79.8548,0.017458
130.426,79.8613,0.017458
130.457,79.8676,0.017458
130.489,79.8738,0.017307
130.520,79.8803,0.017307
130.551,79.8863,0.017307
130.582,79.8925,0.017307
130.613,79.8988,0.017307
130.644,79.9048,0.017307
130.676,79.9113,0.017307
130.706,79.9172,0.017307
130.737,79.9236,0.017213
130.768,79.9296,0.017213
130.799,79.9360,0.017213
130.830,79.9422,0.017213
130.862,79.9486,0.017213
130.893,79.9547,0.017213
130.925,79.9611,0.017213
130.956,79.9672,0.017213
130.987,79.9737,0.017213
131.018,79.9797,0.017147
131.049,79.9859,0.017147
131.081,79.9923,0.017147
131.112,79.9986,0.017147
131.143,80.0048,0.017147
131.175,80.0112,0.017147
131.206,80.0173,0.017147
131.236,80.0235,0.017147
131.267,80.0295,0.017072
131.298,80.0357,0.017072
131.328,80.0416,0.017072
131.359,80.0478,0.017072
131.390,80.0540,0.017072
131.421,80.0604,0.017072
131.452,80.0666,0.017072
131.483,80.0729,0.016949
131.514,80.0790,0.016949
131.545,80.0850,0.016949
131.576,80.0914,0.016949
131.607,80.0974,0.016949
131.638,80.1038,0.016949
131.669,80.1100,0.016949
131.700,80.1162,0.016949
131.731,80.1221,0.016865
131.763,80.1287,0.016865
131.794,80.1348,0.016865
131.826,80.1413,0.016865
131.857,80.1474,0.016865
131.888,80.1537,0.016865
131.919,80.1598,0.016865
131.950,80.1661,0.016865
131.982,80.1726,0.016752
132.013,80.1788,0.016752
132.044,80.1849,0.016752
132.075,80.1911,0.016752
132.106,80.1972,0.016752
132.137,80.2035,0.016752
132.168,80.2096,0.016752
132.199,80.2159,0.016752
132.231,80.2222,0.016629
132.263,80.2287,0.016629
132.293,80.2346,0.016629
132.324,80.2409,0.016629
132.355,80.2470,0.016629
132.386,80.2533,0.016629
132.417,80.2594,0.016629
132.448,80.2656,0.016629
132.479,80.2719,0.016497
132.510,80.2781,0.016497
132.541,80.2843,0.016497
132.573,80.2908,0.016497
132.604,80.2969,0.016497
132.635,80.3033,0.016497
132.666,80.3093,0.016497
132.697,80.3156,0.016497
132.728,80.3218,0.016375
132.759,80.3279,0.016375
132.789,80.3341,0.016375
132.821,80.3403,0.016375
132.852,80.3466,0.016375
132.884,80.3528,0.016375
132.914,80.3591,0.016375
132.946,80.3653,0.016375
132.978,80.3717,0.016281
133.009,80.3780,0.016281
133.041,80.3843,0.016281
133.072,80.3905,0.016281
133.104,80.3970,0.016281
133.135,80.4032,0.016281
133.166,80.4094,0.016281
133.197,80.4157,0.016281
133.228,80.4218,0.016139
133.259,80.4278,0.016139
133.290,80.4340,0.016139
133.321,80.4402,0.016139
133.352,80.4466,0.016139
133.383,80.4528,0.016139
133.414,80.4587,0.016139
133.444,80.4649,0.016139
133.475,80.4711,0.016017
133.507,80.4776,0.016017
133.539,80.4838,0.016017
133.570,80.4902,0.016017
133.601,80.4963,0.016017
133.633,80.5030,0.016017
133.664,80.5088,0.016017
133.695,80.5151,0.016017
133.726,80.5212,0.015960
133.756,80.5273,0.015960
133.788,80.5338,0.015960
133.819,80.5398,0.015960
133.850,80.5460,0.015960
133.880,80.5521,0.015960
133.911,80.5583,0.015960
133.942,80.5644,0.015960
133.972,80.5706,0.015885
134.004,80.5769,0.015885
134.035,80.5831,0.015885
134.066,80.5893,0.015885
134.098,80.5956,0.015885
134.128,80.6017,0.015885
134.160,80.6079,0.015885
134.191,80.6144,0.015885
134.223,80.6207,0.015706
134.254,80.6268,0.015706
134.285,80.6330,0.015706
134.317,80.6393,0.015706
134.347,80.6456,0.015706
134.379,80.6519,0.015706
134.410,80.6581,0.015706
134.441,80.6643,0.015706
134.472,80.6705,0.015706
134.503,80.6766,0.015564
134.534,80.6830,0.015564
134.565,80.6890,0.015564
134.596,80.6952,0.015564
134.627,80.7014,0.015564
134.659,80.7079,0.015564
134.691,80.7142,0.015564
134.721,80.7203,0.015564
134.752,80.7265,0.015489
134.783,80.7327,0.015489
134.814,80.7390,0.015489
134.845,80.7451,0.015489
134.877,80.7514,0.015489
134.907,80.7575,0.015489
134.938,80.7637,0.015489
134.970,80.7701,0.015329
135.001,80.7762,0.015329
135.033,80.7827,0.015329
135.064,80.7889,0.015329
135.096,80.7953,0.015329
135.127,80.8014,0.015329
135.158,80.8077,0.015329
135.189,80.8138,0.015329
135.219,80.8200,0.015329
135.251,80.8264,0.015216
135.282,80.8324,0.015216
135.313,80.8386,0.015216
135.344,80.8449,0.015216
135.375,80.8510,0.015216
135.407,80.8577,0.015216
135.439,80.8638,0.015216
135.471,80.8702,0.015216
135.501,80.8763,0.015103
135.533,80.8826,0.015103
135.564,80.8888,0.015103
135.594,80.8949,0.015103
135.625,80.9012,0.015103
135.657,80.9074,0.015103
135.687,80.9135,0.015103
135.718,80.9197,0.015103
135.749,80.9258,0.014980
135.779,80.9317,0.014980
135.810,80.9381,0.014980
135.841,80.9443,0.014980
135.874,80.9508,0.014980
135.903,80.9567,0.014980
135.935,80.9631,0.014980
135.965,80.9692,0.014782
135.996,80.9752,0.014782
136.028,80.9816,0.014782
136.059,80.9879,0.014782
136.090,80.9941,0.014782
136.122,81.0006,0.014782
136.153,81.0067,0.014782
136.185,81.0130,0.014782
136.215,81.0191,0.014622
136.247,81.0254,0.014622
136.278,81.0318,0.014622
136.309,81.0378,0.014622
136.340,81.0442,0.014622
136.372,81.0504,0.014622
136.403,81.0568,0.014622
136.433,81.0626,0.014622
136.463,81.0687,0.014622
136.494,81.0749,0.014490
136.525,81.0812,0.014490
136.555,81.0870,0.014490
136.586,81.0933,0.014490
136.618,81.0995,0.014490
136.649,81.1057,0.014490
136.680,81.1122,0.014490
136.711,81.1181,0.014349
136.741,81.1244,0.014349
136.772,81.1304,0.014349
136.802,81.1365,0.014349
136.834,81.1428,0.014349
136.865,81.1489,0.014349
136.896,81.1554,0.014349
136.927,81.1616,0.014349
136.958,81.1676,0.014349
136.990,81.1740,0.014227
137.020,81.1800,0.014227
137.052,81.1864,0.014227
137.082,81.1926,0.014227
137.113,81.1986,0.014227
137.144,81.2050,0.014227
137.177,81.2114,0.014227
137.208,81.2176,0.014057
137.238,81.2237,0.014057
137.268,81.2296,0.014057
137.300,81.2361,0.014057
137.331,81.2423,0.014057
137.362,81.2485,0.014057
137.394,81.2547,0.014057
137.425,81.2610,0.014057
137.457,81.2673,0.014057
137.487,81.2733,0.013906
137.517,81.2795,0.013906
137.549,81.2858,0.013906
137.580,81.2922,0.013906
137.612,81.2984,0.013906
137.642,81.3046,0.013906
137.674,81.3109,0.013906
137.705,81.3171,0.013906
137.736,81.3232,0.013727
137.767,81.3295,0.013727
137.798,81.3356,0.013727
137.829,81.3418,0.013727
137.859,81.3481,0.013727
137.891,81.3542,0.013727
137.921,81.3604,0.013727
137.952,81.3664,0.013727
137.983,81.3728,0.013577
138.014,81.3788,0.013577
138.045,81.3850,0.013577
138.075,81.3911,0.013577
138.106,81.3973,0.013577
138.137,81.4034,0.013577
138.169,81.4097,0.013577
138.200,81.4161,0.013577
138.230,81.4221,0.013454
138.263,81.4286,0.013454
138.293,81.4347,0.013454
138.325,81.4409,0.013454
138.355,81.4472,0.013454
138.385,81.4530,0.013454
138.415,81.4592,0.013454
138.446,81.4653,0.013454
138.478,81.4716,0.013454
138.509,81.4778,0.013303
138.541,81.4844,0.013303
138.573,81.4906,0.013303
138.603,81.4967,0.013303
138.634,81.5027,0.013303
138.665,81.5089,0.013303
138.695,81.5153,0.013303
138.726,81.5213,0.013303
138.757,81.5276,0.013134
138.789,81.5338,0.013134
138.819,81.5398,0.013134
138.851,81.5463,0.013134
138.881,81.5522,0.013134
138.912,81.5584,0.013134
138.941,81.5643,0.013134
138.972,81.5705,0.013134
139.004,81.5768,0.012964
139.035,81.5830,0.012964
139.065,81.5891,0.012964
139.096,81.5951,0.012964
139.127,81.6013,0.012964
139.158,81.6077,0.012964
139.189,81.6139,0.012964
139.220,81.6202,0.012964
139.252,81.6263,0.012804
139.283,81.6327,0.012804
139.314,81.6389,0.012804
139.345,81.6450,0.012804
139.375,81.6515,0.012804
139.406,81.6573,0.012804
139.438,81.6637,0.012804
139.468,81.6697,0.012804
139.500,81.6761,0.012625
139.531,81.6822,0.012625
139.562,81.6885,0.012625
139.593,81.6947,0.012625
139.624,81.7009,0.012625
139.655,81.7070,0.012625
139.687,81.7135,0.012625
139.717,81.7194,0.012352
139.748,81.7255,0.012352
139.779,81.7319,0.012352
139.813,81.7386,0.012352
139.842,81.7445,0.012352
139.874,81.7509,0.012352
139.904,81.7569,0.012352
139.935,81.7631,0.012352
139.966,81.7691,0.012088
139.996,81.7753,0.012088
140.028,81.7814,0.012088
140.059,81.7878,0.012088
140.089,81.7937,0.012088
140.119,81.7998,0.012088
140.151,81.8061,0.012088
140.182,81.8124,0.012088
140.213,81.8186,0.011730
140.244,81.8248,0.011730
140.276,81.8312,0.011730
140.307,81.8375,0.011730
140.338,81.8437,0.011730
140.370,81.8500,0.011730
140.401,81.8561,0.011730
140.431,81.8623,0.011730
140.462,81.8684,0.011730
140.493,81.8747,0.011306
140.524,81.8809,0.011306
140.555,81.8868,0.011306
140.586,81.8933,0.011306
140.617,81.8994,0.011306
140.648,81.9056,0.011306
140.679,81.9118,0.011306
140.711,81.9182,0.011306
140.742,81.9244,0.010807
140.774,81.9308,0.010807
140.805,81.9371,0.010807
140.836,81.9433,0.010807
140.867,81.9495,0.010807
140.898,81.9557,0.010807
140.929,81.9619,0.010807
140.961,81.9683,0.010807
140.992,81.9743,0.010053
141.024,81.9809,0.010053
141.053,81.9867,0.010053
141.085,81.9930,0.010053
141.115,81.9991,0.010053
141.146,82.0052,0.010053
141.176,82.0112,0.010053
141.207,82.0176,0.010053
141.238,82.0236,0.009007
141.270,82.0301,0.009007
141.301,82.0362,0.009007
141.331,82.0422,0.009007
141.362,82.0484,0.009007
141.394,82.0548,0.009007
141.424,82.0609,0.009007
141.456,82.0673,0.007631
141.486,82.0733,0.007631
141.518,82.0796,0.007631
141.548,82.0857,0.007631
141.581,82.0922,0.007631
141.612,82.0984,0.007631
141.643,82.1046,0.007631
141.673,82.1106,0.007631
141.705,82.1170,0.007631
141.737,82.1234,0.005653
141.768,82.1297,0.005653
141.799,82.1359,0.005653
141.830,82.1421,0.005653
141.862,82.1484,0.005653
141.893,82.1545,0.005653
141.925,82.1609,0.005653
141.956,82.1671,0.005653
141.987,82.1735,0.002836
142.017,82.1794,0.002836
142.048,82.1857,0.002836
142.080,82.1919,0.002836
142.110,82.1980,0.002836
142.142,82.2043,0.002836
142.173,82.2105,0.002836
142.204,82.2170,0.002836
142.235,82.2231,0.002836
142.267,82.2295,-0.000904
142.299,82.2358,-0.000904
142.330,82.2420,-0.000904
142.361,82.2483,-0.000904
142.391,82.2543,-0.000904
142.423,82.2605,-0.000904
142.453,82.2666,-0.000904
142.483,82.2719,-0.005851
142.514,82.2767,-0.005851
142.546,82.2810,-0.005851
142.579,82.2845,-0.005851
142.608,82.2868,-0.005851
142.634,82.2884,-0.005851
142.670,82.2898,-0.005851
142.701,82.2903,-0.005851
142.733,82.2903,-0.005851
142.764,82.2903,-0.011023
142.796,82.2903,-0.011023
142.826,82.2903,-0.011023
142.859,82.2903,-0.011023
142.889,82.2903,-0.011023
142.920,82.2903,-0.011023
142.951,82.2903,-0.011023
142.982,82.2903,-0.012022
143.012,82.2903,-0.012022
143.043,82.2903,-0.012022
143.073,82.2903,-0.012022
143.103,82.2903,-0.012022
143.135,82.2903,-0.012022
143.166,82.2903,-0.012022
143.198,82.2903,-0.012022
143.231,82.2903,-0.012022
143.261,82.2903,-0.009469
143.293,82.2903,-0.009469
143.324,82.2903,-0.009469
143.355,82.2903,-0.009469
143.387,82.2903,-0.009469
143.419,82.2903,-0.009469
143.451,82.2903,-0.009469
143.482,82.2903,-0.009469
143.513,82.2903,-0.007443
143.544,82.2903,-0.007443
143.575,82.2903,-0.007443
143.606,82.2903,-0.007443
143.636,82.2903,-0.007443
143.668,82.2903,-0.007443
143.700,82.2903,-0.007443
143.730,82.2903,-0.006020
143.762,82.2903,-0.006020
143.793,82.2903,-0.006020
143.824,82.2903,-0.006020
143.855,82.2903,-0.006020
143.885,82.2903,-0.006020
143.917,82.2903,-0.006020
143.948,82.2903,-0.006020
143.980,82.2903,-0.006020
144.010,82.2903,-0.004909
144.042,82.2903,-0.004909
144.073,82.2903,-0.004909
144.104,82.2903,-0.004909
144.136,82.2903,-0.004909
144.167,82.2903,-0.004909
144.199,82.2903,-0.004909
144.229,82.2903,-0.004909
144.260,82.2903,-0.003995
144.291,82.2903,-0.003995
144.322,82.2903,-0.003995
144.355,82.2903,-0.003995
144.386,82.2903,-0.003995
144.416,82.2903,-0.003995
144.447,82.2903,-0.003995
144.477,82.2903,-0.003995
144.508,82.2903,-0.003269
144.539,82.2903,-0.003269
144.570,82.2903,-0.003269
144.601,82.2903,-0.003269
144.632,82.2903,-0.003269
144.663,82.2903,-0.003269
144.694,82.2903,-0.003269
144.725,82.2903,-0.003269
144.756,82.2903,-0.002647
144.788,82.2903,-0.002647
144.819,82.2903,-0.002647
144.851,82.2903,-0.002647
144.881,82.2903,-0.002647
144.913,82.2903,-0.002647
144.943,82.2903,-0.002647
144.974,82.2903,-0.002026
145.005,82.2903,-0.002026
145.036,82.2903,-0.002026
145.067,82.2903,-0.002026
145.098,82.2903,-0.002026
145.130,82.2903,-0.002026
145.161,82.2903,-0.002026
145.192,82.2903,-0.002026
145.223,82.2903,-0.002026
145.254,82.2903,-0.001489
145.285,82.2903,-0.001489
145.316,82.2903,-0.001489
145.348,82.2903,-0.001489
145.378,82.2903,-0.001489
145.409,82.2903,-0.001489
145.441,82.2903,-0.001489
145.471,82.2903,-0.001489
145.503,82.2903,-0.001036
145.535,82.2903,-0.001036
145.567,82.2903,-0.001036
145.597,82.2903,-0.001036
145.627,82.2903,-0.001036
145.658,82.2903,-0.001036
145.690,82.2903,-0.001036
145.722,82.2903,-0.000660
145.752,82.2903,-0.000660
145.783,82.2903,-0.000660
145.815,82.2903,-0.000660
145.846,82.2903,-0.000660
145.878,82.2903,-0.000660
145.907,82.2903,-0.000660
145.938,82.2903,-0.000660
145.969,82.2903,-0.000292
146.000,82.2903,-0.000292
146.031,82.2903,-0.000292
146.063,82.2903,-0.000292
146.094,82.2903,-0.000292
146.124,82.2903,-0.000292
146.155,82.2903,-0.000292
146.186,82.2903,-0.000292
146.217,82.2903,0.000066
146.249,82.2903,0.000066
146.279,82.2903,0.000066
146.310,82.2903,0.000066
146.344,82.2903,0.000066
146.372,82.2903,0.000066
146.404,82.2903,0.000066
146.435,82.2903,0.000066
146.466,82.2903,0.000066
146.497,82.2903,0.000386
146.528,82.2903,0.000386
146.559,82.2903,0.000386
146.591,82.2903,0.000386
146.622,82.2903,0.000386
146.654,82.2903,0.000386
146.685,82.2903,0.000386
146.717,82.2903,0.000386
146.748,82.2903,0.000707
146.780,82.2903,0.000707
146.811,82.2903,0.000707
146.843,82.2903,0.000707
146.874,82.2903,0.000707
146.905,82.2903,0.000707
146.936,82.2903,0.000707
146.967,82.2903,0.000707
146.997,82.2903,0.001187
147.027,82.2903,0.001187
147.058,82.2903,0.001187
147.089,82.2903,0.001187
147.119,82.2903,0.001187
147.150,82.2903,0.001187
147.181,82.2903,0.001187
147.214,82.2903,0.001187
147.244,82.2903,0.001686
147.275,82.2900,0.001686
147.309,82.2889,0.001686
147.338,82.2872,0.001686
147.369,82.2847,0.001686
147.398,82.2816,0.001686
147.430,82.2778,0.001686
147.460,82.2731,0.002412
147.491,82.2677,0.002412
147.522,82.2618,0.002412
147.554,82.2554,0.002412
147.583,82.2495,0.002412
147.615,82.2432,0.002412
147.646,82.2370,0.002412
147.678,82.2305,0.002412
147.708,82.2246,0.002412
147.740,82.2181,0.008366
147.771,82.2119,0.008366
147.802,82.2058,0.008366
147.832,82.1998,0.008366
147.863,82.1936,0.008366
147.894,82.1874,0.008366
147.924,82.1813,0.008366
147.955,82.1752,0.008366
147.986,82.1690,0.008366
148.017,82.1628,0.020143
148.048,82.1565,0.020143
148.079,82.1504,0.020143
148.109,82.1444,0.020143
148.141,82.1379,0.020143
148.171,82.1319,0.020143
148.203,82.1256,0.020143
148.234,82.1194,0.032778
148.266,82.1131,0.032778
148.296,82.1067,0.032778
148.328,82.1007,0.032778
148.359,82.0945,0.032778
148.390,82.0883,0.032778
148.421,82.0821,0.032778
148.453,82.0755,0.032778
148.484,82.0695,0.045751
148.515,82.0632,0.045751
148.546,82.0569,0.045751
148.579,82.0504,0.045751
148.609,82.0444,0.045751
148.640,82.0382,0.045751
148.671,82.0321,0.045751
148.702,82.0258,0.045751
148.733,82.0196,0.060006
148.764,82.0135,0.060006
148.794,82.0074,0.060006
148.825,82.0011,0.060006
148.857,81.9947,0.060006
148.889,81.9884,0.060006
148.920,81.9822,0.060006
148.952,81.9758,0.060006
148.984,81.9694,0.076249
149.015,81.9631,0.076249
149.045,81.9570,0.076249
149.076,81.9508,0.076249
149.108,81.9446,0.076249
149.139,81.9383,0.076249
149.170,81.9322,0.076249
149.201,81.9259,0.076249
149.232,81.9198,0.095120
149.264,81.9133,0.095120
149.294,81.9076,0.095120
149.324,81.9011,0.095120
149.356,81.8950,0.095120
149.387,81.8887,0.095120
149.418,81.8825,0.095120
149.450,81.8761,0.095120
149.481,81.8700,0.116781
149.512,81.8637,0.116781
149.543,81.8576,0.116781
149.574,81.8515,0.116781
149.605,81.8453,0.116781
149.635,81.8392,0.116781
149.666,81.8329,0.116781
149.698,81.8266,0.116781
149.728,81.8206,0.141239
149.759,81.8143,0.141239
149.791,81.8081,0.141239
149.822,81.8018,0.141239
149.852,81.7957,0.141239
149.884,81.7895,0.141239
149.916,81.7830,0.141239
149.946,81.7770,0.141239
149.978,81.7708,0.168741
150.009,81.7644,0.168741
150.040,81.7581,0.168741
150.070,81.7520,0.168741
150.100,81.7462,0.168741
150.132,81.7398,0.168741
150.163,81.7338,0.168741
150.194,81.7275,0.168741
150.224,81.7214,0.199380
150.255,81.7151,0.199380
150.286,81.7089,0.199380
150.317,81.7028,0.199380
150.347,81.6966,0.199380
150.378,81.6905,0.199380
150.409,81.6842,0.199380
150.440,81.6781,0.199380
150.471,81.6719,0.233119
150.504,81.6655,0.233119
150.533,81.6594,0.233119
150.564,81.6534,0.233119
150.595,81.6472,0.233119
150.626,81.6409,0.233119
150.658,81.6346,0.233119
150.689,81.6285,0.233119
150.719,81.6223,0.270334
150.751,81.6161,0.270334
150.781,81.6100,0.270334
150.813,81.6036,0.270334
150.843,81.5976,0.270334
150.875,81.5913,0.270334
150.905,81.5852,0.270334
150.935,81.5791,0.270334
150.967,81.5728,0.310423
150.998,81.5665,0.310423
151.029,81.5603,0.310423
151.061,81.5538,0.310423
151.093,81.5476,0.310423
151.123,81.5416,0.310423
151.154,81.5354,0.310423
151.186,81.5289,0.310423
151.217,81.5228,0.351727
151.250,81.5161,0.351727
151.279,81.5106,0.351727
151.310,81.5041,0.351727
151.341,81.4982,0.351727
151.371,81.4920,0.351727
151.402,81.4858,0.351727
151.433,81.4796,0.351727
151.464,81.4734,0.386983
151.495,81.4672,0.386983
151.527,81.4607,0.386983
151.557,81.4547,0.386983
151.589,81.4484,0.386983
151.620,81.4422,0.386983
151.651,81.4359,0.386983
151.682,81.4298,0.386983
151.713,81.4235,0.386983
151.744,81.4173,0.386474
151.777,81.4107,0.386474
151.807,81.4046,0.386474
151.838,81.3986,0.386474
151.870,81.3921,0.386474
151.901,81.3860,0.386474
151.932,81.3798,0.386474
151.965,81.3733,0.386474
151.993,81.3676,0.386474
152.024,81.3612,0.194820
152.056,81.3552,0.194820
152.087,81.3486,0.194820
152.119,81.3424,0.194820
152.150,81.3361,0.194820
152.181,81.3300,0.194820
152.213,81.3234,0.194820
152.243,81.3177,0.194820
152.273,81.3115,0.017383
152.304,81.3053,0.017383
152.335,81.2993,0.017383
152.366,81.2929,0.017383
152.397,81.2869,0.017383
152.428,81.2807,0.017383
152.458,81.2745,0.017383
152.489,81.2683,0.017383
152.521,81.2621,0.016554
152.552,81.2558,0.016554
152.583,81.2497,0.016554
152.614,81.2434,0.016554
152.645,81.2373,0.016554
152.676,81.2309,0.016554
152.707,81.2249,0.016554
152.739,81.2184,0.016469
152.770,81.2123,0.016469
152.801,81.2060,0.016469
152.832,81.1998,0.016469
152.863,81.1936,0.016469
152.894,81.1875,0.016469
152.925,81.1813,0.016469
152.955,81.1752,0.016469
152.987,81.1688,0.016450
153.019,81.1624,0.016450
153.049,81.1563,0.016450
153.080,81.1500,0.016450
153.109,81.1443,0.016450
153.141,81.1380,0.016450
153.173,81.1314,0.016450
153.205,81.1252,0.016450
153.236,81.1188,0.016450
153.267,81.1127,0.016488
153.298,81.1065,0.016488
153.329,81.1005,0.016488
153.360,81.0943,0.016488
153.390,81.0881,0.016488
153.421,81.0819,0.016488
153.452,81.0757,0.016488
153.483,81.0697,0.016563
153.512,81.0637,0.016563
153.544,81.0575,0.016563
153.575,81.0512,0.016563
153.606,81.0451,0.016563
153.636,81.0390,0.016563
153.667,81.0328,0.016563
153.698,81.0266,0.016563
153.730,81.0203,0.016563
153.760,81.0142,0.016648
153.791,81.0078,0.016648
153.822,81.0018,0.016648
153.853,80.9955,0.016648
153.885,80.9893,0.016648
153.916,80.9830,0.016648
153.948,80.9765,0.016648
153.979,80.9706,0.016733
154.009,80.9645,0.016733
154.040,80.9580,0.016733
154.072,80.9518,0.016733
154.103,80.9455,0.016733
154.134,80.9394,0.016733
154.165,80.9332,0.016733
154.196,80.9272,0.016733
154.227,80.9208,0.016733
154.258,80.9146,0.016808
154.289,80.9084,0.016808
154.320,80.9022,0.016808
154.351,80.8959,0.016808
154.383,80.8897,0.016808
154.414,80.8835,0.016808
154.445,80.8773,0.016808
154.476,80.8710,0.016865
154.508,80.8645,0.016865
154.538,80.8584,0.016865
154.569,80.8524,0.016865
154.600,80.8463,0.016865
154.631,80.8401,0.016865
154.662,80.8339,0.016865
154.693,80.8276,0.016865
154.724,80.8215,0.016865
154.754,80.8154,0.016931
154.786,80.8091,0.016931
154.816,80.8030,0.016931
154.848,80.7967,0.016931
154.879,80.7905,0.016931
154.910,80.7842,0.016931
154.940,80.7782,0.016931
154.972,80.7718,0.016978
155.003,80.7657,0.016978
155.035,80.7593,0.016978
155.066,80.7529,0.016978
155.097,80.7469,0.016978
155.127,80.7409,0.016978
155.158,80.7347,0.016978
155.189,80.7285,0.016978
155.220,80.7223,0.017063
155.251,80.7162,0.017063
155.281,80.7100,0.017063
155.312,80.7038,0.017063
155.343,80.6976,0.017063
155.374,80.6914,0.017063
155.405,80.6852,0.017063
155.436,80.6790,0.017063
155.467,80.6729,0.017147
155.498,80.6666,0.017147
155.529,80.6605,0.017147
155.559,80.6543,0.017147
155.590,80.6482,0.017147
155.622,80.6417,0.017147
155.653,80.6357,0.017147
155.685,80.6291,0.017147
155.715,80.6232,0.017223
155.745,80.6170,0.017223
155.777,80.6110,0.017223
155.808,80.6046,0.017223
155.839,80.5985,0.017223
155.870,80.5920,0.017223
155.901,80.5860,0.017223
155.932,80.5796,0.017223
155.963,80.5736,0.017260
155.996,80.5669,0.017260
156.026,80.5609,0.017260
156.058,80.5546,0.017260
156.089,80.5485,0.017260
156.120,80.5422,0.017260
156.150,80.5362,0.017260
156.181,80.5299,0.017260
156.215,80.5232,0.017260
156.243,80.5176,0.017260
156.274,80.5113,0.017289
156.305,80.5053,0.017289
156.336,80.4990,0.017289
156.367,80.4929,0.017289
156.399,80.4864,0.017289
156.430,80.4803,0.017289
156.461,80.4738,0.017289
156.492,80.4678,0.017392
156.524,80.4613,0.017392
156.555,80.4552,0.017392
156.587,80.4488,0.017392
156.618,80.4427,0.017392
156.650,80.4363,0.017392
156.680,80.4302,0.017392
156.711,80.4240,0.017392
156.742,80.4175,0.017392
156.772,80.4117,0.017524
156.804,80.4054,0.017524
156.835,80.3993,0.017524
156.866,80.3931,0.017524
156.897,80.3868,0.017524
156.928,80.3807,0.017524
156.959,80.3744,0.017524
156.990,80.3683,0.017571
157.021,80.3620,0.017571
157.051,80.3560,0.017571
157.082,80.3498,0.017571
157.113,80.3436,0.017571
157.144,80.3374,0.017571
157.175,80.3311,0.017571
157.207,80.3249,0.017571
157.238,80.3186,0.017590
157.268,80.3125,0.017590
157.299,80.3062,0.017590
157.330,80.3002,0.017590
157.361,80.2939,0.017590
157.392,80.2878,0.017590
157.423,80.2817,0.017590
157.454,80.2754,0.017590
157.485,80.2692,0.017694
157.516,80.2630,0.017694
157.547,80.2568,0.017694
157.578,80.2506,0.017694
157.609,80.2444,0.017694
157.640,80.2381,0.017694
157.671,80.2321,0.017694
157.701,80.2259,0.017694
157.733,80.2197,0.017760
157.763,80.2135,0.017760
157.794,80.2072,0.017760
157.825,80.2012,0.017760
157.856,80.1950,0.017760
157.887,80.1888,0.017760
157.918,80.1825,0.017760
157.949,80.1764,0.017760
157.980,80.1702,0.017826
158.011,80.1640,0.017826
158.042,80.1578,0.017826
158.073,80.1516,0.017826
158.104,80.1456,0.017826
158.136,80.1391,0.017826
158.167,80.1329,0.017826
158.198,80.1267,0.017826
158.229,80.1204,0.017929
158.260,80.1141,0.017929
158.291,80.1081,0.017929
158.323,80.1018,0.017929
158.353,80.0956,0.017929
158.385,80.0893,0.017929
158.415,80.0830,0.017929
158.447,80.0768,0.017929
158.477,80.0706,0.017976
158.508,80.0647,0.017976
158.539,80.0584,0.017976
158.569,80.0524,0.017976
158.600,80.0461,0.017976
158.631,80.0400,0.017976
158.663,80.0336,0.017976
158.693,80.0276,0.017976
158.725,80.0213,0.018024
158.757,80.0148,0.018024
158.788,80.0088,0.018024
158.819,80.0024,0.018024
158.850,79.9964,0.018024
158.881,79.9902,0.018024
158.911,79.9840,0.018024
158.941,79.9780,0.018024
158.972,79.9716,0.018137
159.002,79.9658,0.018137
159.033,79.9598,0.018137
159.063,79.9537,0.018137
159.094,79.9476,0.018137
159.124,79.9414,0.018137
159.154,79.9355,0.018137
159.185,79.9293,0.018137
159.215,79.9233,0.018193
159.245,79.9172,0.018193
159.275,79.9112,0.018193
159.306,79.9051,0.018193
159.337,79.8989,0.018193
159.368,79.8927,0.018193
159.399,79.8865,0.018193
159.431,79.8801,0.018193
159.461,79.8741,0.018221
159.492,79.8679,0.018221
159.523,79.8615,0.018221
159.553,79.8556,0.018221
159.584,79.8494,0.018221
159.615,79.8432,0.018221
159.646,79.8371,0.018221
159.677,79.8308,0.018221
159.708,79.8247,0.018221
159.738,79.8185,0.018221
159.770,79.8123,0.018287
159.801,79.8060,0.018287
159.832,79.7999,0.018287
159.863,79.7937,0.018287
159.895,79.7871,0.018287
159.925,79.7812,0.018287
159.956,79.7751,0.018287
159.988,79.7687,0.018353
160.019,79.7624,0.018353
160.050,79.7561,0.018353
160.081,79.7502,0.018353
160.112,79.7438,0.018353
160.142,79.7378,0.018353
160.173,79.7317,0.018353
160.204,79.7254,0.018353
160.236,79.7190,0.018410
160.267,79.7128,0.018410
160.297,79.7068,0.018410
160.328,79.7004,0.018410
160.360,79.6944,0.018410
160.391,79.6880,0.018410
160.421,79.6821,0.018410
160.452,79.6756,0.018410
160.483,79.6698,0.018410
160.514,79.6634,0.018476
160.545,79.6573,0.018476
160.576,79.6511,0.018476
160.606,79.6450,0.018476
160.638,79.6388,0.018476
160.669,79.6323,0.018476
160.699,79.6264,0.018476
160.731,79.6201,0.018542
160.761,79.6140,0.018542
160.792,79.6080,0.018542
160.823,79.6017,0.018542
160.854,79.5955,0.018542
160.885,79.5893,0.018542
160.916,79.5830,0.018542
160.948,79.5768,0.018542
160.979,79.5706,0.018542
161.010,79.5644,0.018608
161.041,79.5579,0.018608
161.072,79.5517,0.018608
161.103,79.5457,0.018608
161.134,79.5395,0.018608
161.165,79.5333,0.018608
161.199,79.5266,0.018608
161.227,79.5209,0.018674
161.258,79.5148,0.018674
161.290,79.5083,0.018674
161.320,79.5024,0.018674
161.351,79.4959,0.018674
161.384,79.4895,0.018674
161.414,79.4834,0.018674
161.445,79.4773,0.018674
161.475,79.4711,0.018674
161.507,79.4648,0.018730
161.538,79.4586,0.018730
161.569,79.4524,0.018730
161.601,79.4459,0.018730
161.631,79.4400,0.018730
161.663,79.4335,0.018730
161.693,79.4276,0.018730
161.725,79.4213,0.018787
161.757,79.4151,0.018787
161.788,79.4086,0.018787
161.818,79.4027,0.018787
161.850,79.3963,0.018787
161.880,79.3901,0.018787
161.911,79.3842,0.018787
161.942,79.3777,0.018787
161.973,79.3717,0.018787
162.005,79.3653,0.018768
162.035,79.3594,0.018768
162.066,79.3530,0.018768
162.098,79.3467,0.018768
162.129,79.3404,0.018768
162.159,79.3344,0.018768
162.191,79.3281,0.018768
162.223,79.3217,0.018777
162.255,79.3153,0.018777
162.286,79.3089,0.018777
162.317,79.3029,0.018777
162.349,79.2965,0.018777
162.379,79.2905,0.018777
162.410,79.2843,0.018777
162.441,79.2779,0.018777
162.472,79.2718,0.018843
162.502,79.2657,0.018843
162.533,79.2602,0.018843
162.563,79.2552,0.018843
162.595,79.2509,0.018843
162.627,79.2473,0.018843
162.657,79.2445,0.018843
162.689,79.2423,0.018843
162.719,79.2409,0.018843
162.750,79.2403,0.018721
162.781,79.2403,0.018721
162.812,79.2403,0.018721
162.842,79.2403,0.018721
162.872,79.2403,0.018721
162.902,79.2403,0.018721
162.933,79.2403,0.018721
162.964,79.2403,0.018721
162.995,79.2403,0.018608
163.025,79.2403,0.018608
163.056,79.2403,0.018608
163.087,79.2403,0.018608
163.118,79.2403,0.018608
163.150,79.2403,0.018608
163.181,79.2403,0.018608
163.211,79.2403,0.018617
163.242,79.2404,0.018617
163.274,79.2412,0.018617
163.305,79.2427,0.018617
163.336,79.2449,0.018617
163.367,79.2478,0.018617
163.399,79.2515,0.018617
163.430,79.2559,0.018617
163.462,79.2613,0.018617
163.492,79.2671,0.018429
163.523,79.2733,0.018429
163.554,79.2795,0.018429
163.585,79.2856,0.018429
163.617,79.2920,0.018429
163.649,79.2984,0.018429
163.680,79.3046,0.018429
163.711,79.3108,0.018184
163.743,79.3172,0.018184
163.774,79.3234,0.018184
163.804,79.3294,0.018184
163.835,79.3357,0.018184
163.866,79.3419,0.018184
163.897,79.3478,0.018184
163.927,79.3540,0.018184
163.958,79.3602,0.018184
163.989,79.3664,0.018137
164.020,79.3726,0.018137
164.051,79.3790,0.018137
164.082,79.3850,0.018137
164.112,79.3911,0.018137
164.143,79.3973,0.018137
164.174,79.4036,0.018137
164.206,79.4097,0.018137
164.236,79.4158,0.018071
164.268,79.4223,0.018071
164.299,79.4283,0.018071
164.330,79.4347,0.018071
164.361,79.4409,0.018071
164.393,79.4473,0.018071
164.423,79.4533,0.018071
164.455,79.4595,0.018071
164.485,79.4655,0.017948
164.515,79.4717,0.017948
164.546,79.4779,0.017948
164.578,79.4841,0.017948
164.608,79.4902,0.017948
164.640,79.4965,0.017948
164.671,79.5027,0.017948
164.702,79.5089,0.017948
164.733,79.5153,0.017939
164.765,79.5216,0.017939
164.797,79.5279,0.017939
164.829,79.5344,0.017939
164.860,79.5407,0.017939
164.892,79.5469,0.017939
164.923,79.5532,0.017939
164.954,79.5594,0.017863
164.985,79.5656,0.017863
165.016,79.5719,0.017863
165.049,79.5783,0.017863
165.080,79.5847,0.017863
165.111,79.5908,0.017863
165.143,79.5972,0.017863
165.174,79.6033,0.017863
165.206,79.6098,0.017713
165.237,79.6162,0.017713
165.268,79.6223,0.017713
165.299,79.6285,0.017713
165.329,79.6345,0.017713
165.360,79.6407,0.017713
165.391,79.6469,0.017713
165.422,79.6531,0.017713
165.453,79.6593,0.017713
165.485,79.6657,0.017590
165.516,79.6718,0.017590
165.545,79.6776,0.017590
165.576,79.6838,0.017590
165.608,79.6901,0.017590
165.639,79.6965,0.017590
165.670,79.7027,0.017590
165.701,79.7089,0.017505
165.732,79.7149,0.017505
165.763,79.7211,0.017505
165.794,79.7274,0.017505
165.825,79.7337,0.017505
165.857,79.7399,0.017505
165.888,79.7462,0.017505
165.920,79.7525,0.017505
165.951,79.7590,0.017505
165.984,79.7654,0.017439
166.014,79.7714,0.017439
166.045,79.7776,0.017439
166.075,79.7837,0.017439
166.106,79.7896,0.017439
166.137,79.7961,0.017439
166.168,79.8021,0.017439
166.199,79.8083,0.017439
166.231,79.8148,0.017383
166.263,79.8212,0.017383
166.294,79.8273,0.017383
166.325,79.8338,0.017383
166.356,79.8398,0.017383
166.387,79.8459,0.017383
166.416,79.8519,0.017383
166.447,79.8581,0.017383
166.478,79.8641,0.017383
166.510,79.8706,0.017317
166.541,79.8768,0.017317
166.572,79.8829,0.017317
166.604,79.8893,0.017317
166.635,79.8957,0.017317
166.667,79.9020,0.017317
166.698,79.9081,0.017317
166.728,79.9143,0.017166
166.759,79.9203,0.017166
166.789,79.9264,0.017166
166.821,79.9327,0.017166
166.852,79.9389,0.017166
166.883,79.9453,0.017166
166.915,79.9516,0.017166
166.946,79.9578,0.017166
166.977,79.9640,0.017166
167.008,79.9701,0.017072
167.039,79.9764,0.017072
167.069,79.9825,0.017072
167.099,79.9884,0.017072
167.130,79.9946,0.017072
167.161,80.0008,0.017072
167.193,80.0070,0.017072
167.224,80.0135,0.017072
167.255,80.0195,0.016959
167.286,80.0258,0.016959
167.317,80.0321,0.016959
167.348,80.0382,0.016959
167.379,80.0442,0.016959
167.410,80.0506,0.016959
167.440,80.0566,0.016959
167.472,80.0630,0.016959
167.504,80.0693,0.016808
167.536,80.0759,0.016808
167.567,80.0819,0.016808
167.598,80.0881,0.016808
167.629,80.0942,0.016808
167.660,80.1004,0.016808
167.691,80.1069,0.016808
167.721,80.1128,0.016808
167.752,80.1190,0.016723
167.783,80.1252,0.016723
167.814,80.1313,0.016723
167.846,80.1379,0.016723
167.875,80.1436,0.016723
167.906,80.1499,0.016723
167.937,80.1560,0.016723
167.969,80.1624,0.016723
167.999,80.1684,0.016667
168.031,80.1748,0.016667
168.065,80.1815,0.016667
168.092,80.1870,0.016667
168.123,80.1932,0.016667
168.154,80.1994,0.016667
168.185,80.2056,0.016667
168.217,80.2119,0.016601
168.248,80.2182,0.016601
168.279,80.2243,0.016601
168.309,80.2304,0.016601
168.340,80.2366,0.016601
168.371,80.2428,0.016601
168.401,80.2489,0.016601
168.432,80.2551,0.016601
168.463,80.2611,0.016478
168.494,80.2676,0.016478
168.525,80.2737,0.016478
168.557,80.2800,0.016478
168.588,80.2861,0.016478
168.619,80.2924,0.016478
168.650,80.2987,0.016478
168.681,80.3047,0.016478
168.712,80.3110,0.016478
168.744,80.3173,0.016375
168.774,80.3234,0.016375
168.806,80.3299,0.016375
168.837,80.3359,0.016375
168.867,80.3421,0.016375
168.899,80.3483,0.016375
168.930,80.3545,0.016375
168.960,80.3606,0.016375
168.991,80.3668,0.016252
169.023,80.3731,0.016252
169.054,80.3793,0.016252
169.085,80.3855,0.016252
169.115,80.3916,0.016252
169.146,80.3978,0.016252
169.177,80.4039,0.016252
169.208,80.4102,0.016252
169.240,80.4164,0.016167
169.271,80.4229,0.016167
169.302,80.4291,0.016167
169.333,80.4352,0.016167
169.364,80.4412,0.016167
169.396,80.4478,0.016167
169.426,80.4538,0.016167
169.458,80.4601,0.016167
169.489,80.4664,0.016149
169.520,80.4725,0.016149
169.550,80.4787,0.016149
169.582,80.4850,0.016149
169.613,80.4912,0.016149
169.644,80.4974,0.016149
169.675,80.5035,0.016149
169.706,80.5099,0.016149
169.737,80.5159,0.015970
169.768,80.5222,0.015970
169.798,80.5282,0.015970
169.829,80.5345,0.015970
169.861,80.5408,0.015970
169.892,80.5470,0.015970
169.923,80.5533,0.015970
169.955,80.5595,0.015970
169.986,80.5656,0.015781
170.016,80.5718,0.015781
170.047,80.5780,0.015781
170.078,80.5842,0.015781
170.110,80.5906,0.015781
170.141,80.5968,0.015781
170.173,80.6032,0.015781
170.203,80.6092,0.015781
170.233,80.6152,0.015687
170.265,80.6214,0.015687
170.295,80.6276,0.015687
170.326,80.6340,0.015687
170.357,80.6399,0.015687
170.387,80.6460,0.015687
170.418,80.6522,0.015687
170.449,80.6584,0.015621
170.481,80.6648,0.015621
170.511,80.6708,0.015621
170.544,80.6774,0.015621
170.574,80.6834,0.015621
170.604,80.6895,0.015621
170.635,80.6956,0.015621
170.666,80.7019,0.015621
170.698,80.7080,0.015621
170.730,80.7146,0.015621
170.760,80.7207,0.015489
170.793,80.7271,0.015489
170.823,80.7332,0.015489
170.854,80.7394,0.015489
170.886,80.7456,0.015489
170.916,80.7517,0.015489
170.947,80.7580,0.015489
170.978,80.7642,0.015489
171.009,80.7703,0.015385
171.039,80.7765,0.015385
171.070,80.7825,0.015385
171.101,80.7887,0.015385
171.132,80.7951,0.015385
171.163,80.8013,0.015385
171.194,80.8073,0.015385
171.224,80.8134,0.015385
171.255,80.8196,0.015244
171.287,80.8260,0.015244
171.318,80.8323,0.015244
171.349,80.8385,0.015244
171.380,80.8446,0.015244
171.411,80.8509,0.015244
171.442,80.8570,0.015244
171.473,80.8632,0.015244
171.503,80.8692,0.015046
171.534,80.8753,0.015046
171.565,80.8816,0.015046
171.596,80.8876,0.015046
171.627,80.8938,0.015046
171.658,80.9002,0.015046
171.689,80.9064,0.015046
171.719,80.9123,0.015046
171.750,80.9185,0.014933
171.781,80.9247,0.014933
171.811,80.9309,0.014933
171.843,80.9372,0.014933
171.874,80.9434,0.014933
171.906,80.9498,0.014933
171.937,80.9559,0.014933
171.968,80.9623,0.014933
172.000,80.9685,0.014792
172.031,80.9749,0.014792
172.061,80.9807,0.014792
172.093,80.9871,0.014792
172.124,80.9933,0.014792
172.155,80.9995,0.014792
172.186,81.0057,0.014792
172.217,81.0120,0.014792
172.247,81.0181,0.014632
172.280,81.0245,0.014632
172.309,81.0306,0.014632
172.340,81.0365,0.014632
172.371,81.0427,0.014632
172.402,81.0491,0.014632
172.433,81.0553,0.014632
172.464,81.0616,0.014632
172.496,81.0679,0.014472
172.527,81.0741,0.014472
172.558,81.0801,0.014472
172.588,81.0863,0.014472
172.620,81.0925,0.014472
172.651,81.0988,0.014472
172.682,81.1050,0.014472
172.714,81.1112,0.014472
172.744,81.1174,0.014349
172.775,81.1235,0.014349
172.806,81.1297,0.014349
172.838,81.1361,0.014349
172.868,81.1422,0.014349
172.900,81.1485,0.014349
172.930,81.1546,0.014349
172.962,81.1612,0.014349
172.993,81.1671,0.014255
173.025,81.1735,0.014255
173.056,81.1798,0.014255
173.088,81.1861,0.014255
173.120,81.1924,0.014255
173.149,81.1984,0.014255
173.179,81.2045,0.014255
173.210,81.2107,0.014123
173.242,81.2169,0.014123
173.273,81.2231,0.014123
173.304,81.2293,0.014123
173.335,81.2357,0.014123
173.366,81.2418,0.014123
173.397,81.2481,0.014123
173.428,81.2542,0.014123
173.459,81.2605,0.014123
173.491,81.2667,0.013935
173.523,81.2732,0.013935
173.553,81.2791,0.013935
173.585,81.2856,0.013935
173.615,81.2917,0.013935
173.647,81.2980,0.013935
173.678,81.3041,0.013935
173.709,81.3104,0.013935
173.740,81.3165,0.013737
173.771,81.3228,0.013737
173.801,81.3287,0.013737
173.832,81.3348,0.013737
173.864,81.3413,0.013737
173.893,81.3471,0.013737
173.923,81.3532,0.013737
173.954,81.3594,0.013737
173.985,81.3656,0.013737
174.016,81.3718,0.013577
174.048,81.3781,0.013577
174.080,81.3844,0.013577
174.111,81.3908,0.013577
174.142,81.3968,0.013577
174.173,81.4032,0.013577
174.204,81.4095,0.013577
174.235,81.4156,0.013463
174.266,81.4218,0.013463
174.298,81.4281,0.013463
174.329,81.4344,0.013463
174.361,81.4407,0.013463
174.392,81.4468,0.013463
174.423,81.4531,0.013463
174.454,81.4593,0.013463
174.485,81.4654,0.013463
174.516,81.4716,0.013322
174.547,81.4779,0.013322
174.577,81.4839,0.013322
174.608,81.4902,0.013322
174.639,81.4964,0.013322
174.671,81.5027,0.013322
174.702,81.5088,0.013322
174.734,81.5153,0.013322
174.765,81.5215,0.013162
174.796,81.5278,0.013162
174.827,81.5341,0.013162
174.858,81.5401,0.013162
174.889,81.5462,0.013162
174.920,81.5525,0.013162
174.953,81.5592,0.013162
174.982,81.5651,0.012974
175.015,81.5716,0.012974
175.044,81.5774,0.012974
175.075,81.5835,0.012974
175.107,81.5899,0.012974
175.137,81.5959,0.012974
175.168,81.6021,0.012974
175.198,81.6083,0.012974
175.230,81.6145,0.012974
175.260,81.6206,0.012719
175.292,81.6268,0.012719
175.323,81.6331,0.012719
175.355,81.6395,0.012719
175.386,81.6456,0.012719
175.417,81.6518,0.012719
175.447,81.6581,0.012719
175.478,81.6641,0.012540
175.509,81.6704,0.012540
175.541,81.6768,0.012540
175.572,81.6828,0.012540
175.603,81.6893,0.012540
175.633,81.6951,0.012540
175.665,81.7017,0.012540
175.696,81.7076,0.012540
175.727,81.7140,0.012540
175.757,81.7199,0.012248
175.789,81.7264,0.012248
175.820,81.7326,0.012248
175.851,81.7389,0.012248
175.881,81.7448,0.012248
175.913,81.7513,0.012248
175.943,81.7571,0.012248
175.974,81.7634,0.011899
176.006,81.7696,0.011899
176.037,81.7760,0.011899
176.068,81.7822,0.011899
176.099,81.7884,0.011899
176.130,81.7947,0.011899
176.161,81.8008,0.011899
176.192,81.8071,0.011899
176.223,81.8132,0.011899
176.254,81.8195,0.011485
176.286,81.8257,0.011485
176.317,81.8320,0.011485
176.348,81.8382,0.011485
176.380,81.8447,0.011485
176.411,81.8508,0.011485
176.443,81.8572,0.011485
176.473,81.8632,0.011485
176.504,81.8692,0.010929
176.534,81.8754,0.010929
176.566,81.8816,0.010929
176.597,81.8880,0.010929
176.630,81.8945,0.010929
176.658,81.9000,0.010929
176.689,81.9063,0.010929
176.719,81.9124,0.010929
176.750,81.9186,0.010307
176.782,81.9249,0.010307
176.813,81.9312,0.010307
176.845,81.9376,0.010307
176.876,81.9439,0.010307
176.907,81.9500,0.010307
176.939,81.9563,0.010307
176.970,81.9625,0.010307
177.000,81.9685,0.009412
177.030,81.9744,0.009412
177.060,81.9806,0.009412
177.093,81.9871,0.009412
177.123,81.9931,0.009412
177.155,81.9996,0.009412
177.188,82.0060,0.009412
177.218,82.0121,0.008131
177.249,82.0184,0.008131
177.280,82.0246,0.008131
177.311,82.0306,0.008131
177.341,82.0367,0.008131
177.372,82.0429,0.008131
177.403,82.0491,0.008131
177.434,82.0553,0.008131
177.465,82.0615,0.008131
177.496,82.0677,0.006303
177.527,82.0739,0.006303
177.558,82.0801,0.006303
177.588,82.0862,0.006303
177.619,82.0922,0.006303
177.650,82.0986,0.006303
177.681,82.1048,0.006303
177.712,82.1111,0.006303
177.746,82.1177,0.003712
177.775,82.1235,0.003712
177.805,82.1296,0.003712
177.836,82.1358,0.003712
177.867,82.1418,0.003712
177.898,82.1480,0.003712
177.928,82.1542,0.003712
177.959,82.1603,0.003712
177.990,82.1665,0.000207
178.022,82.1730,0.000207
178.054,82.1793,0.000207
178.085,82.1855,0.000207
178.117,82.1918,0.000207
178.148,82.1983,0.000207
178.179,82.2043,0.000207
178.210,82.2105,-0.004532
178.240,82.2165,-0.004532
178.272,82.2221,-0.004532
178.302,82.2268,-0.004532
178.333,82.2309,-0.004532
178.364,82.2341,-0.004532
178.394,82.2367,-0.004532
178.425,82.2387,-0.004532
178.457,82.2398,-0.004532
178.488,82.2403,-0.009817
178.520,82.2403,-0.009817
178.551,82.2403,-0.009817
178.583,82.2403,-0.009817
178.613,82.2403,-0.009817
178.645,82.2403,-0.009817
178.676,82.2403,-0.009817
178.708,82.2403,-0.009817
178.739,82.2403,-0.011447
178.771,82.2403,-0.011447
178.802,82.2403,-0.011447
178.833,82.2403,-0.011447
178.864,82.2403,-0.011447
178.895,82.2403,-0.011447
178.926,82.2403,-0.011447
178.957,82.2403,-0.009130
178.988,82.2403,-0.009130
179.018,82.2403,-0.009130
179.050,82.2403,-0.009130
179.080,82.2403,-0.009130
179.111,82.2403,-0.009130
179.142,82.2403,-0.009130
179.173,82.2403,-0.009130
179.204,82.2403,-0.009130
179.235,82.2403,-0.006915
179.267,82.2403,-0.006915
179.298,82.2403,-0.006915
179.329,82.2403,-0.006915
179.360,82.2403,-0.006915
179.390,82.2403,-0.006915
179.421,82.2403,-0.006915
179.452,82.2403,-0.006915
179.483,82.2403,-0.006915
179.514,82.2403,-0.005389
179.546,82.2403,-0.005389
179.577,82.2403,-0.005389
179.607,82.2403,-0.005389
179.638,82.2403,-0.005389
179.670,82.2403,-0.005389
179.700,82.2403,-0.005389
179.731,82.2403,-0.005389
179.762,82.2403,-0.004221
179.794,82.2403,-0.004221
179.825,82.2403,-0.004221
179.855,82.2403,-0.004221
179.887,82.2403,-0.004221
179.918,82.2403,-0.004221
179.948,82.2403,-0.004221
179.979,82.2403,-0.004221
180.009,82.2403,-0.003364
180.040,82.2403,-0.003364
180.071,82.2403,-0.003364
180.102,82.2403,-0.003364
180.133,82.2403,-0.003364
180.164,82.2403,-0.003364
180.196,82.2403,-0.003364
180.226,82.2403,-0.003364
180.257,82.2403,-0.002534
180.289,82.2403,-0.002534
180.321,82.2403,-0.002534
180.352,82.2403,-0.002534
180.383,82.2403,-0.002534
180.414,82.2403,-0.002534
180.445,82.2403,-0.002534
180.476,82.2403,-0.001828
180.507,82.2403,-0.001828
180.538,82.2403,-0.001828
180.569,82.2403,-0.001828
180.600,82.2403,-0.001828
180.631,82.2403,-0.001828
180.662,82.2403,-0.001828
180.693,82.2403,-0.001828
180.724,82.2403,-0.001828
180.755,82.2403,-0.001291
180.787,82.2403,-0.001291
180.818,82.2403,-0.001291
180.848,82.2403,-0.001291
180.878,82.2403,-0.001291
180.909,82.2403,-0.001291
180.940,82.2403,-0.001291
180.971,82.2403,-0.001291
181.002,82.2403,-0.000791
181.034,82.2403,-0.000791
181.065,82.2403,-0.000791
181.095,82.2403,-0.000791
181.125,82.2403,-0.000791
181.157,82.2403,-0.000791
181.188,82.2403,-0.000791
181.219,82.2403,-0.000791
181.250,82.2403,-0.000349
181.282,82.2403,-0.000349
181.314,82.2403,-0.000349
181.345,82.2403,-0.000349
181.377,82.2403,-0.000349
181.409,82.2403,-0.000349
181.441,82.2403,-0.000349
181.471,82.2403,0.000047
181.502,82.2403,0.000047
181.533,82.2403,0.000047
181.565,82.2403,0.000047
181.596,82.2403,0.000047
181.626,82.2403,0.000047
181.657,82.2403,0.000047
181.688,82.2403,0.000047
181.719,82.2403,0.000047
181.750,82.2403,0.000405
181.781,82.2403,0.000405
181.812,82.2403,0.000405
181.843,82.2403,0.000405
181.874,82.2403,0.000405
181.905,82.2403,0.000405
181.937,82.2403,0.000405
181.970,82.2403,0.000405
182.001,82.2403,0.000716
182.032,82.2403,0.000716
182.063,82.2403,0.000716
182.094,82.2403,0.000716
182.126,82.2403,0.000716
182.158,82.2403,0.000716
182.188,82.2403,0.000716
182.218,82.2403,0.000716
182.250,82.2403,0.001027
182.281,82.2403,0.001027
182.313,82.2403,0.001027
182.344,82.2403,0.001027
182.376,82.2403,0.001027
182.406,82.2403,0.001027
182.437,82.2403,0.001027
182.467,82.2403,0.001376
182.499,82.2403,0.001376
182.530,82.2403,0.001376
182.562,82.2403,0.001376
182.591,82.2403,0.001376
182.623,82.2403,0.001376
182.653,82.2403,0.001376
182.684,82.2403,0.001376
182.716,82.2403,0.001800
182.749,82.2403,0.001800
182.778,82.2403,0.001800
182.809,82.2403,0.001800
182.840,82.2403,0.001800
182.870,82.2403,0.001800
182.901,82.2403,0.001800
182.933,82.2403,0.001800
182.965,82.2403,0.001800
182.996,82.2403,0.002280
183.026,82.2403,0.002280
183.057,82.2397,0.002280
183.088,82.2382,0.002280
183.119,82.2362,0.002280
183.150,82.2334,0.002280
183.181,82.2298,0.002280
183.212,82.2256,0.002280
183.243,82.2206,0.002808
183.274,82.2148,0.002808
183.305,82.2087,0.002808
183.335,82.2026,0.002808
183.367,82.1963,0.002808
183.398,82.1900,0.002808
183.430,82.1836,0.002808
183.460,82.1777,0.002808
183.491,82.1715,0.008263
183.522,82.1652,0.008263
183.554,82.1590,0.008263
183.584,82.1528,0.008263
183.615,82.1467,0.008263
183.647,82.1404,0.008263
183.677,82.1343,0.008263
183.708,82.1279,0.008263
183.738,82.1219,0.019870
183.770,82.1155,0.019870
183.800,82.1096,0.019870
183.831,82.1033,0.019870
183.862,82.0973,0.019870
183.894,82.0907,0.019870
183.925,82.0847,0.019870
183.957,82.0782,0.019870
183.987,82.0724,0.032636
184.018,82.0661,0.032636
184.049,82.0600,0.032636
184.080,82.0537,0.032636
184.111,82.0473,0.032636
184.142,82.0411,0.032636
184.173,82.0351,0.032636
184.205,82.0286,0.032636
184.236,82.0225,0.045723
184.267,82.0161,0.045723
184.298,82.0101,0.045723
184.330,82.0036,0.045723
184.361,81.9975,0.045723
184.392,81.9912,0.045723
184.423,81.9852,0.045723
184.455,81.9787,0.045723
184.485,81.9727,0.060016
184.516,81.9665,0.060016
184.548,81.9599,0.060016
184.578,81.9539,0.060016
184.610,81.9477,0.060016
184.641,81.9414,0.060016
184.672,81.9352,0.060016
184.703,81.9290,0.076192
184.734,81.9227,0.076192
184.765,81.9166,0.076192
184.796,81.9104,0.076192
184.828,81.9042,0.076192
184.859,81.8980,0.076192
184.890,81.8918,0.076192
184.921,81.8852,0.076192
184.952,81.8793,0.076192
184.985,81.8727,0.094838
185.014,81.8669,0.094838
185.045,81.8606,0.094838
185.077,81.8542,0.094838
185.107,81.8483,0.094838
185.138,81.8421,0.094838
185.169,81.8357,0.094838
185.200,81.8295,0.094838
185.231,81.8233,0.094838
185.262,81.8173,0.116347
185.293,81.8109,0.116347
185.324,81.8049,0.116347
185.356,81.7985,0.116347
185.386,81.7925,0.116347
185.417,81.7861,0.116347
185.450,81.7797,0.116347
185.480,81.7737,0.116347
185.510,81.7675,0.140938
185.541,81.7615,0.140938
185.572,81.7553,0.140938
185.604,81.7488,0.140938
185.636,81.7425,0.140938
185.668,81.7360,0.140938
185.699,81.7298,0.140938
185.730,81.7236,0.140938
185.760,81.7177,0.168769
185.792,81.7114,0.168769
185.824,81.7049,0.168769
185.854,81.6988,0.168769
185.885,81.6926,0.168769
185.916,81.6865,0.168769
185.946,81.6805,0.168769
185.977,81.6743,0.200115
186.009,81.6678,0.200115
186.039,81.6620,0.200115
186.069,81.6559,0.200115
186.100,81.6497,0.200115
186.132,81.6433,0.200115
186.163,81.6369,0.200115
186.194,81.6309,0.200115
186.225,81.6247,0.200115
186.257,81.6183,0.235012
186.288,81.6121,0.235012
186.320,81.6058,0.235012
186.351,81.5995,0.235012
186.381,81.5934,0.235012
186.412,81.5872,0.235012
186.443,81.5811,0.235012
186.474,81.5749,0.235012
186.505,81.5686,0.273500
186.536,81.5624,0.273500
186.568,81.5561,0.273500
186.599,81.5499,0.273500
186.630,81.5435,0.273500
186.661,81.5375,0.273500
186.692,81.5311,0.273500
186.723,81.5251,0.273500
186.754,81.5187,0.315718
186.786,81.5124,0.315718
186.818,81.5061,0.315718
186.848,81.5000,0.315718
186.879,81.4939,0.315718
186.911,81.4875,0.315718
186.943,81.4812,0.315718
186.974,81.4748,0.315718
187.005,81.4688,0.361102
187.036,81.4626,0.361102
187.067,81.4562,0.361102
187.099,81.4500,0.361102
187.130,81.4436,0.361102
187.162,81.4373,0.361102
187.192,81.4312,0.361102
187.223,81.4251,0.361102
187.254,81.4189,0.406062
187.285,81.4126,0.406062
187.317,81.4064,0.406062
187.348,81.4002,0.406062
187.379,81.3940,0.406062
187.409,81.3878,0.406062
187.440,81.3817,0.406062
187.472,81.3754,0.406062
187.502,81.3693,0.436738
187.535,81.3627,0.436738
187.562,81.3573,0.436738
187.597,81.3502,0.436738
187.628,81.3441,0.436738
187.659,81.3379,0.436738
187.689,81.3317,0.436738
187.721,81.3254,0.419016
187.753,81.3192,0.419016
187.783,81.3132,0.419016
187.813,81.3070,0.419016
187.844,81.3007,0.419016
187.875,81.2948,0.419016
187.907,81.2882,0.419016
187.938,81.2821,0.419016
187.969,81.2758,0.419016
188.001,81.2696,0.205071
188.032,81.2631,0.205071
188.063,81.2571,0.205071
188.094,81.2509,0.205071
188.125,81.2448,0.205071
188.155,81.2386,0.205071
188.188,81.2321,0.205071
188.217,81.2262,0.205071
188.248,81.2201,0.017336
188.279,81.2139,0.017336
188.310,81.2077,0.017336
188.341,81.2016,0.017336
188.372,81.1952,0.017336
188.403,81.1891,0.017336
188.434,81.1830,0.017336
188.465,81.1767,0.017336
188.496,81.1705,0.016723
188.527,81.1643,0.016723
188.557,81.1583,0.016723
188.588,81.1520,0.016723
188.620,81.1458,0.016723
188.651,81.1396,0.016723
188.682,81.1334,0.016723
188.713,81.1271,0.016695
188.744,81.1209,0.016695
188.775,81.1147,0.016695
188.805,81.1087,0.016695
188.836,81.1025,0.016695
188.866,81.0964,0.016695
188.897,81.0902,0.016695
188.929,81.0838,0.016695
188.960,81.0777,0.016695
188.991,81.0715,0.016695
189.022,81.0653,0.016629
189.053,81.0591,0.016629
189.084,81.0530,0.016629
189.114,81.0468,0.016629
189.145,81.0406,0.016629
189.178,81.0342,0.016629
189.207,81.0282,0.016629
189.239,81.0219,0.016591
189.272,81.0152,0.016591
189.303,81.0091,0.016591
189.335,81.0028,0.016591
189.366,80.9965,0.016591
189.396,80.9904,0.016591
189.428,80.9842,0.016591
189.460,80.9776,0.016591
189.490,80.9717,0.016714
189.521,80.9656,0.016714
189.552,80.9593,0.016714
189.583,80.9532,0.016714
189.613,80.9470,0.016714
189.645,80.9408,0.016714
189.675,80.9346,0.016714
189.706,80.9284,0.016714
189.738,80.9221,0.016714
189.769,80.9160,0.016780
189.801,80.9097,0.016780
189.832,80.9033,0.016780
189.863,80.8971,0.016780
189.894,80.8907,0.016780
189.924,80.8849,0.016780
189.956,80.8784,0.016780
189.986,80.8726,0.016855
190.016,80.8665,0.016855
190.047,80.8603,0.016855
190.078,80.8540,0.016855
190.109,80.8479,0.016855
190.142,80.8413,0.016855
190.172,80.8354,0.016855
190.203,80.8291,0.016855
190.234,80.8228,0.016940
190.265,80.8166,0.016940
190.296,80.8106,0.016940
190.327,80.8042,0.016940
190.359,80.7980,0.016940
190.391,80.7915,0.016940
190.421,80.7856,0.016940
190.452,80.7793,0.016940
190.483,80.7732,0.016997
190.514,80.7670,0.016997
190.545,80.7606,0.016997
190.576,80.7545,0.016997
190.607,80.7484,0.016997
190.637,80.7424,0.016997
190.668,80.7362,0.016997
190.699,80.7300,0.016997
190.730,80.7238,0.016997
190.761,80.7174,0.017053
190.792,80.7114,0.017053
190.823,80.7052,0.017053
190.854,80.6990,0.017053
190.885,80.6929,0.017053
190.915,80.6867,0.017053
190.946,80.6805,0.017053
190.978,80.6743,0.017091
191.009,80.6678,0.017091
191.041,80.6615,0.017091
191.072,80.6553,0.017091
191.104,80.6490,0.017091
191.135,80.6426,0.017091
191.166,80.6366,0.017091
191.197,80.6304,0.017091
191.228,80.6242,0.017204
191.259,80.6180,0.017204
191.289,80.6118,0.017204
191.321,80.6056,0.017204
191.352,80.5994,0.017204
191.384,80.5929,0.017204
191.415,80.5868,0.017204
191.446,80.5805,0.017204
191.477,80.5744,0.017204
191.508,80.5679,0.017204
191.540,80.5618,0.017204
191.570,80.5557,0.017204
191.601,80.5496,0.017204
191.632,80.5433,0.017204
191.664,80.5370,0.017204
191.694,80.5308,0.017204
191.725,80.5247,0.017204
191.756,80.5186,0.017223
191.787,80.5123,0.017223
191.818,80.5062,0.017223
191.849,80.4999,0.017223
191.879,80.4938,0.017223
191.910,80.4875,0.017223
191.941,80.4815,0.017223
191.973,80.4751,0.017223
192.004,80.4690,0.017326
192.036,80.4624,0.017326
192.068,80.4561,0.017326
192.098,80.4500,0.017326
192.129,80.4441,0.017326
192.160,80.4376,0.017326
192.192,80.4314,0.017326
192.223,80.4250,0.017439
192.254,80.4189,0.017439
192.285,80.4128,0.017439
192.316,80.4065,0.017439
192.346,80.4004,0.017439
192.377,80.3941,0.017439
192.408,80.3880,0.017439
192.439,80.3819,0.017439
192.471,80.3755,0.017515
192.501,80.3695,0.017515
192.533,80.3631,0.017515
192.563,80.3570,0.017515
192.595,80.3508,0.017515
192.626,80.3446,0.017515
192.656,80.3387,0.017515
192.688,80.3322,0.017515
192.720,80.3258,0.017515
192.751,80.3196,0.017600
192.782,80.3134,0.017600
192.814,80.3070,0.017600
192.845,80.3006,0.017600
192.876,80.2946,0.017600
192.907,80.2884,0.017600
192.939,80.2820,0.017600
192.969,80.2760,0.017703
193.000,80.2696,0.017703
193.032,80.2635,0.017703
193.062,80.2573,0.017703
193.093,80.2511,0.017703
193.124,80.2450,0.017703
193.154,80.2388,0.017703
193.185,80.2327,0.017703
193.216,80.2264,0.017703
193.248,80.2202,0.017760
193.278,80.2141,0.017760
193.309,80.2079,0.017760
193.340,80.2017,0.017760
193.371,80.1955,0.017760
193.403,80.1890,0.017760
193.435,80.1828,0.017760
193.467,80.1764,0.017760
193.497,80.1702,0.017854
193.529,80.1638,0.017854
193.560,80.1577,0.017854
193.591,80.1516,0.017854
193.623,80.1452,0.017854
193.654,80.1390,0.017854
193.686,80.1327,0.017854
193.717,80.1263,0.017939
193.749,80.1200,0.017939
193.780,80.1138,0.017939
193.810,80.1076,0.017939
193.840,80.1015,0.017939
193.871,80.0955,0.017939
193.901,80.0895,0.017939
193.930,80.0837,0.017939
193.961,80.0775,0.017976
193.992,80.0714,0.017976
194.023,80.0652,0.017976
194.054,80.0587,0.017976
194.085,80.0528,0.017976
194.116,80.0466,0.017976
194.147,80.0404,0.017976
194.178,80.0339,0.017976
194.209,80.0280,0.017976
194.240,80.0217,0.018033
194.272,80.0153,0.018033
194.303,80.0093,0.018033
194.334,80.0029,0.018033
194.366,79.9966,0.018033
194.396,79.9904,0.018033
194.428,79.9841,0.018033
194.459,79.9780,0.018033
194.491,79.9716,0.018099
194.523,79.9652,0.018099
194.555,79.9587,0.018099
194.585,79.9526,0.018099
194.616,79.9465,0.018099
194.647,79.9404,0.018099
194.678,79.9342,0.018099
194.709,79.9280,0.018155
194.740,79.9217,0.018155
194.770,79.9156,0.018155
194.801,79.9094,0.018155
194.832,79.9032,0.018155
194.864,79.8969,0.018155
194.896,79.8904,0.018155
194.927,79.8842,0.018155
194.957,79.8784,0.018155
194.988,79.8721,0.018268
195.019,79.8660,0.018268
195.051,79.8594,0.018268
195.082,79.8534,0.018268
195.112,79.8472,0.018268
195.143,79.8411,0.018268
195.175,79.8349,0.018268
195.206,79.8284,0.018363
195.238,79.8222,0.018363
195.269,79.8160,0.018363
195.301,79.8095,0.018363
195.332,79.8035,0.018363
195.363,79.7972,0.018363
195.394,79.7909,0.018363
195.425,79.7845,0.018363
195.456,79.7786,0.018363
195.486,79.7724,0.018363
195.518,79.7663,0.018363
195.548,79.7600,0.018363
195.580,79.7536,0.018363
195.611,79.7474,0.018363
195.643,79.7411,0.018363
195.674,79.7348,0.018363
195.706,79.7287,0.018363
195.736,79.7226,0.018382
195.766,79.7164,0.018382
195.797,79.7104,0.018382
195.828,79.7042,0.018382
195.858,79.6981,0.018382
195.889,79.6918,0.018382
195.920,79.6858,0.018382
195.952,79.6794,0.018382
195.983,79.6730,0.018476
196.014,79.6670,0.018476
196.046,79.6605,0.018476
196.077,79.6544,0.018476
196.108,79.6481,0.018476
196.139,79.6420,0.018476
196.170,79.6357,0.018476
196.200,79.6297,0.018476
196.232,79.6233,0.018523
196.263,79.6172,0.018523
196.294,79.6108,0.018523
196.325,79.6048,0.018523
196.357,79.5984,0.018523
196.388,79.5922,0.018523
196.419,79.5858,0.018523
196.450,79.5798,0.018523
196.482,79.5733,0.018523
196.513,79.5671,0.018598
196.545,79.5609,0.018598
196.574,79.5550,0.018598
196.605,79.5488,0.018598
196.636,79.5424,0.018598
196.668,79.5362,0.018598
196.698,79.5300,0.018598
196.729,79.5240,0.018598
196.760,79.5178,0.018598
196.792,79.5114,0.018655
196.822,79.5053,0.018655
196.852,79.4993,0.018655
196.883,79.4932,0.018655
196.914,79.4870,0.018655
196.944,79.4809,0.018655
196.976,79.4745,0.018655
197.007,79.4684,0.018749
197.039,79.4619,0.018749
197.070,79.4557,0.018749
197.101,79.4495,0.018749
197.133,79.4432,0.018749
197.165,79.4369,0.018749
197.196,79.4306,0.018749
197.227,79.4244,0.018749
197.259,79.4180,0.018824
197.289,79.4118,0.018824
197.320,79.4058,0.018824
197.351,79.3994,0.018824
197.381,79.3935,0.018824
197.413,79.3872,0.018824
197.443,79.3811,0.018824
197.475,79.3746,0.018824
197.506,79.3686,0.018815
197.538,79.3621,0.018815
197.569,79.3560,0.018815
197.599,79.3498,0.018815
197.631,79.3435,0.018815
197.663,79.3369,0.018815
197.694,79.3311,0.018815
197.725,79.3249,0.018824
197.756,79.3186,0.018824
197.787,79.3124,0.018824
197.818,79.3060,0.018824
197.849,79.3001,0.018824
197.880,79.2938,0.018824
197.909,79.2879,0.018824
197.941,79.2815,0.018824
197.971,79.2755,0.018853
198.003,79.2692,0.018853
198.034,79.2630,0.018853
198.065,79.2568,0.018853
198.096,79.2505,0.018853
198.127,79.2444,0.018853
198.158,79.2382,0.018853
198.190,79.2318,0.018853
198.220,79.2257,0.018890
198.252,79.2194,0.018890
198.283,79.2133,0.018890
198.313,79.2079,0.018890
198.344,79.2032,0.018890
198.376,79.1991,0.018890
198.407,79.1960,0.018890
198.438,79.1934,0.018890
198.469,79.1917,0.018890
198.500,79.1906,0.018824
198.531,79.1902,0.018824
198.562,79.1902,0.018824
198.593,79.1902,0.018824
198.624,79.1902,0.018824
198.655,79.1902,0.018824
198.686,79.1902,0.018824
198.718,79.1902,0.018730
198.750,79.1902,0.018730
198.782,79.1902,0.018730
198.813,79.1902,0.018730
198.845,79.1902,0.018730
198.876,79.1902,0.018730
198.907,79.1902,0.018730
198.937,79.1902,0.018730
198.969,79.1902,0.018730
199.000,79.1902,0.018702
199.030,79.1902,0.018702
199.061,79.1905,0.018702
199.092,79.1914,0.018702
199.123,79.1931,0.018702
199.154,79.1954,0.018702
199.185,79.1988,0.018702
199.217,79.2025,0.018627
199.248,79.2072,0.018627
199.278,79.2124,0.018627
199.309,79.2185,0.018627
199.341,79.2247,0.018627
199.373,79.2311,0.018627
199.403,79.2372,0.018627
199.434,79.2434,0.018627
199.465,79.2496,0.018627
199.496,79.2559,0.018627
199.528,79.2623,0.018429
199.559,79.2685,0.018429
199.591,79.2748,0.018429
199.622,79.2811,0.018429
199.654,79.2873,0.018429
199.685,79.2936,0.018429
199.715,79.2995,0.018429
199.747,79.3059,0.018429
199.778,79.3120,0.018250
199.810,79.3186,0.018250
199.842,79.3249,0.018250
199.872,79.3311,0.018250
199.903,79.3372,0.018250
199.935,79.3436,0.018250
199.966,79.3498,0.018250
199.995,79.3555,0.018250
200.025,79.3615,0.018184
200.056,79.3678,0.018184
200.087,79.3739,0.018184
200.118,79.3803,0.018184
200.149,79.3865,0.018184
200.181,79.3927,0.018184
200.212,79.3988,0.018184
200.242,79.4049,0.018184
200.273,79.4112,0.018137
200.305,79.4177,0.018137
200.336,79.4237,0.018137
200.367,79.4299,0.018137
200.398,79.4361,0.018137
200.429,79.4423,0.018137
200.460,79.4485,0.018137
200.491,79.4549,0.018137
200.523,79.4612,0.018080
200.554,79.4674,0.018080
200.586,79.4737,0.018080
200.615,79.4797,0.018080
200.646,79.4858,0.018080
200.677,79.4921,0.018080
200.708,79.4982,0.018080
200.739,79.5044,0.017967
200.770,79.5107,0.017967
200.800,79.5166,0.017967
200.831,79.5228,0.017967
200.862,79.5290,0.017967
200.893,79.5352,0.017967
200.924,79.5414,0.017967
200.955,79.5478,0.017967
200.987,79.5538,0.017967
201.018,79.5602,0.017929
201.049,79.5664,0.017929
201.080,79.5726,0.017929
201.111,79.5788,0.017929
201.142,79.5850,0.017929
201.173,79.5913,0.017929
201.206,79.5979,0.017929
201.235,79.6036,0.017835
201.267,79.6100,0.017835
201.298,79.6162,0.017835
201.328,79.6222,0.017835
201.358,79.6281,0.017835
201.389,79.6345,0.017835
201.421,79.6407,0.017835
201.451,79.6469,0.017835
201.483,79.6531,0.017835
201.514,79.6595,0.017684
201.546,79.6657,0.017684
201.577,79.6720,0.017684
201.608,79.6784,0.017684
201.639,79.6843,0.017684
201.669,79.6905,0.017684
201.700,79.6966,0.017684
201.732,79.7032,0.017600
201.764,79.7092,0.017600
201.795,79.7157,0.017600
201.826,79.7220,0.017600
201.858,79.7281,0.017600
201.889,79.7343,0.017600
201.920,79.7406,0.017600
201.951,79.7468,0.017600
201.982,79.7531,0.017524
202.013,79.7592,0.017524
202.045,79.7657,0.017524
202.075,79.7715,0.017524
202.106,79.7780,0.017524
202.137,79.7839,0.017524
202.168,79.7904,0.017524
202.200,79.7964,0.017524
202.232,79.8030,0.017524
202.263,79.8091,0.017402
202.293,79.8154,0.017402
202.325,79.8215,0.017402
202.355,79.8277,0.017402
202.387,79.8339,0.017402
202.418,79.8402,0.017402
202.449,79.8463,0.017402
202.479,79.8525,0.017307
202.510,79.8584,0.017307
202.541,79.8648,0.017307
202.572,79.8711,0.017307
202.604,79.8773,0.017307
202.635,79.8835,0.017307
202.666,79.8897,0.017307
202.697,79.8959,0.017307
202.728,79.9022,0.017251
202.759,79.9084,0.017251
202.791,79.9150,0.017251
202.824,79.9213,0.017251
202.853,79.9274,0.017251
202.884,79.9334,0.017251
202.915,79.9396,0.017251
202.946,79.9459,0.017251
202.977,79.9521,0.017166
203.009,79.9584,0.017166
203.040,79.9647,0.017166
203.071,79.9707,0.017166
203.101,79.9768,0.017166
203.133,79.9831,0.017166
203.164,79.9893,0.017166
203.195,79.9957,0.017166
203.227,80.0018,0.017081
203.258,80.0081,0.017081
203.289,80.0142,0.017081
203.319,80.0204,0.017081
203.350,80.0269,0.017081
203.382,80.0328,0.017081
203.413,80.0391,0.017081
203.444,80.0453,0.017081
203.476,80.0518,0.016940
203.506,80.0576,0.016940
203.537,80.0641,0.016940
203.568,80.0702,0.016940
203.600,80.0765,0.016940
203.631,80.0828,0.016940
203.662,80.0891,0.016940
203.693,80.0952,0.016940
203.725,80.1017,0.016940
203.756,80.1077,0.016808
203.788,80.1141,0.016808
203.819,80.1203,0.016808
203.850,80.1265,0.016808
203.881,80.1328,0.016808
203.913,80.1391,0.016808
203.942,80.1452,0.016808
203.973,80.1511,0.016808
204.004,80.1575,0.016742
204.035,80.1637,0.016742
204.066,80.1700,0.016742
204.097,80.1759,0.016742
204.127,80.1821,0.016742
204.158,80.1883,0.016742
204.190,80.1947,0.016742
204.221,80.2007,0.016742
204.251,80.2068,0.016648
204.282,80.2130,0.016648
204.313,80.2192,0.016648
204.345,80.2256,0.016648
204.376,80.2316,0.016648
204.407,80.2380,0.016648
204.438,80.2442,0.016648
204.469,80.2502,0.016648
204.500,80.2564,0.016544
204.531,80.2628,0.016544
204.562,80.2690,0.016544
204.593,80.2752,0.016544
204.625,80.2814,0.016544
204.656,80.2877,0.016544
204.686,80.2938,0.016544
204.718,80.3001,0.016394
204.749,80.3063,0.016394
204.781,80.3127,0.016394
204.812,80.3191,0.016394
204.844,80.3254,0.016394
204.876,80.3317,0.016394
204.906,80.3377,0.016394
204.937,80.3440,0.016394
204.969,80.3504,0.016271
204.999,80.3564,0.016271
205.031,80.3628,0.016271
205.062,80.3690,0.016271
205.093,80.3751,0.016271
205.124,80.3812,0.016271
205.155,80.3875,0.016271
205.186,80.3937,0.016271
205.217,80.3999,0.016271
205.248,80.4061,0.016167
205.279,80.4123,0.016167
205.311,80.4187,0.016167
205.342,80.4249,0.016167
205.373,80.4312,0.016167
205.404,80.4373,0.016167
205.435,80.4436,0.016167
205.466,80.4499,0.016167
205.497,80.4559,0.016045
205.530,80.4626,0.016045
205.558,80.4681,0.016045
205.589,80.4743,0.016045
205.620,80.4808,0.016045
205.651,80.4869,0.016045
205.682,80.4929,0.016045
205.714,80.4993,0.015923
205.745,80.5055,0.015923
205.776,80.5117,0.015923
205.808,80.5180,0.015923
205.838,80.5242,0.015923
205.869,80.5304,0.015923
205.900,80.5366,0.015923
205.932,80.5429,0.015923
205.962,80.5490,0.015923
205.994,80.5556,0.015791
206.024,80.5614,0.015791
206.056,80.5677,0.015791
206.086,80.5738,0.015791
206.117,80.5800,0.015791
206.149,80.5865,0.015791
206.179,80.5924,0.015791
206.211,80.5987,0.015743
206.242,80.6049,0.015743
206.273,80.6110,0.015743
206.305,80.6176,0.015743
206.336,80.6237,0.015743
206.367,80.6300,0.015743
206.398,80.6361,0.015743
206.429,80.6425,0.015743
206.461,80.6488,0.015743
206.493,80.6552,0.015621
206.524,80.6614,0.015621
206.555,80.6676,0.015621
206.585,80.6735,0.015621
206.616,80.6799,0.015621
206.648,80.6861,0.015621
206.678,80.6924,0.015621
206.711,80.6986,0.015499
206.741,80.7047,0.015499
206.772,80.7109,0.015499
206.803,80.7171,0.015499
206.833,80.7233,0.015499
206.866,80.7296,0.015499
206.895,80.7357,0.015499
206.926,80.7417,0.015499
206.957,80.7478,0.015499
206.989,80.7543,0.015414
207.019,80.7603,0.015414
207.051,80.7667,0.015414
207.083,80.7731,0.015414
207.114,80.7792,0.015414
207.145,80.7855,0.015414
207.176,80.7918,0.015414
207.207,80.7980,0.015414
207.239,80.8042,0.015254
207.271,80.8107,0.015254
207.302,80.8169,0.015254
207.333,80.8231,0.015254
207.364,80.8293,0.015254
207.395,80.8357,0.015254
207.426,80.8417,0.015254
207.457,80.8479,0.015084
207.488,80.8541,0.015084
207.519,80.8602,0.015084
207.551,80.8666,0.015084
207.583,80.8731,0.015084
207.612,80.8789,0.015084
207.644,80.8852,0.015084
207.674,80.8913,0.015084
207.705,80.8976,0.015084
207.736,80.9037,0.014943
207.768,80.9102,0.014943
207.799,80.9162,0.014943
207.830,80.9227,0.014943
207.861,80.9286,0.014943
207.892,80.9351,0.014943
207.924,80.9414,0.014943
207.956,80.9477,0.014943
207.987,80.9539,0.014801
208.019,80.9603,0.014801
208.050,80.9665,0.014801
208.080,80.9724,0.014801
208.111,80.9786,0.014801
208.142,80.9849,0.014801
208.173,80.9913,0.014801
208.204,80.9972,0.014669
208.236,81.0036,0.014669
208.267,81.0098,0.014669
208.298,81.0161,0.014669
208.328,81.0223,0.014669
208.359,81.0284,0.014669
208.391,81.0348,0.014669
208.422,81.0409,0.014669
208.453,81.0472,0.014669
208.483,81.0533,0.014669
208.514,81.0594,0.014490
208.544,81.0653,0.014490
208.575,81.0714,0.014490
208.606,81.0776,0.014490
208.636,81.0838,0.014490
208.668,81.0901,0.014490
208.699,81.0962,0.014490
208.729,81.1023,0.014349
208.760,81.1084,0.014349
208.790,81.1146,0.014349
208.821,81.1208,0.014349
208.852,81.1270,0.014349
208.883,81.1332,0.014349
208.914,81.1392,0.014349
208.945,81.1456,0.014349
208.977,81.1518,0.014198
209.008,81.1581,0.014198
209.039,81.1643,0.014198
209.070,81.1706,0.014198
209.102,81.1768,0.014198
209.133,81.1830,0.014198
209.164,81.1893,0.014198
209.195,81.1955,0.014198
209.226,81.2019,0.014038
209.257,81.2079,0.014038
209.289,81.2141,0.014038
209.320,81.2205,0.014038
209.350,81.2265,0.014038
209.382,81.2330,0.014038
209.412,81.2391,0.014038
209.443,81.2451,0.014038
209.474,81.2514,0.013897
209.505,81.2576,0.013897
209.537,81.2638,0.013897
209.568,81.2702,0.013897
209.599,81.2764,0.013897
209.631,81.2829,0.013897
209.663,81.2889,0.013897
209.693,81.2951,0.013897
209.725,81.3015,0.013765
209.756,81.3079,0.013765
209.787,81.3140,0.013765
209.818,81.3202,0.013765
209.850,81.3265,0.013765
209.882,81.3330,0.013765
209.912,81.3389,0.013765
209.943,81.3451,0.013765
209.974,81.3512,0.013605
210.004,81.3574,0.013605
210.035,81.3636,0.013605
210.067,81.3699,0.013605
210.097,81.3760,0.013605
210.128,81.3819,0.013605
210.159,81.3884,0.013605
210.190,81.3946,0.013605
210.222,81.4009,0.013388
210.252,81.4069,0.013388
210.283,81.4131,0.013388
210.315,81.4194,0.013388
210.346,81.4257,0.013388
210.377,81.4321,0.013388
210.408,81.4380,0.013388
210.439,81.4443,0.013388
210.469,81.4503,0.013388
210.500,81.4565,0.013247
210.531,81.4626,0.013247
210.562,81.4689,0.013247
210.593,81.4750,0.013247
210.624,81.4813,0.013247
210.655,81.4875,0.013247
210.687,81.4939,0.013247
210.718,81.5000,0.013077
210.748,81.5062,0.013077
210.780,81.5125,0.013077
210.811,81.5186,0.013077
210.842,81.5251,0.013077
210.873,81.5310,0.013077
210.904,81.5372,0.013077
210.936,81.5435,0.013077
210.967,81.5499,0.012879
210.998,81.5562,0.012879
211.030,81.5624,0.012879
211.062,81.5689,0.012879
211.092,81.5748,0.012879
211.123,81.5811,0.012879
211.155,81.5875,0.012879
211.186,81.5937,0.012879
211.217,81.5997,0.012879
211.248,81.6062,0.012879
211.278,81.6121,0.012644
211.310,81.6185,0.012644
211.340,81.6245,0.012644
211.372,81.6307,0.012644
211.403,81.6369,0.012644
211.433,81.6431,0.012644
211.464,81.6495,0.012644
211.496,81.6557,0.012342
211.527,81.6617,0.012342
211.558,81.6682,0.012342
211.590,81.6745,0.012342
211.620,81.6806,0.012342
211.652,81.6868,0.012342
211.683,81.6931,0.012342
211.713,81.6991,0.012342
211.744,81.7054,0.012342
211.775,81.7115,0.012022
211.806,81.7178,0.012022
211.839,81.7243,0.012022
211.869,81.7303,0.012022
211.900,81.7365,0.012022
211.931,81.7427,0.012022
211.963,81.7491,0.012022
211.994,81.7553,0.012022
212.025,81.7615,0.011664
212.056,81.7677,0.011664
212.088,81.7741,0.011664
212.117,81.7798,0.011664
212.148,81.7860,0.011664
212.179,81.7923,0.011664
212.209,81.7983,0.011664
212.240,81.8046,0.011165
212.271,81.8107,0.011165
212.302,81.8170,0.011165
212.333,81.8230,0.011165
212.364,81.8294,0.011165
212.395,81.8355,0.011165
212.426,81.8417,0.011165
212.457,81.8479,0.011165
212.488,81.8542,0.011165
212.519,81.8603,0.010533
212.550,81.8664,0.010533
212.580,81.8725,0.010533
212.611,81.8788,0.010533
212.644,81.8852,0.010533
212.673,81.8911,0.010533
212.704,81.8974,0.010533
212.736,81.9036,0.009695
212.766,81.9097,0.009695
212.797,81.9159,0.009695
212.829,81.9222,0.009695
212.859,81.9283,0.009695
212.890,81.9346,0.009695
212.921,81.9405,0.009695
212.951,81.9467,0.009695
212.982,81.9530,0.008489
213.014,81.9593,0.008489
213.045,81.9656,0.008489
213.077,81.9719,0.008489
213.109,81.9783,0.008489
213.140,81.9843,0.008489
213.171,81.9907,0.008489
213.201,81.9969,0.008489
213.232,82.0029,0.006765
213.264,82.0094,0.006765
213.295,82.0153,0.006765
213.326,82.0217,0.006765
213.357,82.0279,0.006765
213.388,82.0341,0.006765
213.418,82.0401,0.006765
213.449,82.0462,0.006765
213.480,82.0525,0.004428
213.511,82.0586,0.004428
213.543,82.0649,0.004428
213.574,82.0713,0.004428
213.606,82.0776,0.004428
213.637,82.0839,0.004428
213.668,82.0902,0.004428
213.699,82.0963,0.004428
213.731,82.1026,0.004428
213.763,82.1091,0.004428
213.794,82.1154,0.001178
213.826,82.1217,0.001178
213.857,82.1278,0.001178
213.887,82.1339,0.001178
213.918,82.1401,0.001178
213.949,82.1462,0.001178
213.979,82.1524,0.001178
214.011,82.1587,-0.003316
214.043,82.1649,-0.003316
214.074,82.1706,-0.003316
214.105,82.1757,-0.003316
214.135,82.1798,-0.003316
214.166,82.1833,-0.003316
214.198,82.1861,-0.003316
214.229,82.1882,-0.003316
214.260,82.1896,-0.008894
214.291,82.1902,-0.008894
214.321,82.1902,-0.008894
214.353,82.1902,-0.008894
214.384,82.1902,-0.008894
214.415,82.1902,-0.008894
214.445,82.1902,-0.008894
214.476,82.1902,-0.008894
214.507,82.1902,-0.011720
214.537,82.1902,-0.011720
214.568,82.1902,-0.011720
214.599,82.1902,-0.011720
214.631,82.1902,-0.011720
214.662,82.1902,-0.011720
214.693,82.1902,-0.011720
214.725,82.1902,-0.011720
